Filter Al-poly
observation_date 07Jan2024
wavelength effective area
      1.00000   2.78456e-10
      1.10000   7.94908e-10
      1.20000   2.06646e-09
      1.30000   4.94127e-09
      1.40000   1.12120e-08
      1.50000   2.39194e-08
      1.60000   4.84218e-08
      1.70000   9.40035e-08
      1.80000   1.75008e-07
      1.90000   3.14541e-07
      2.00000   5.46825e-07
      2.10000   9.23612e-07
      2.20000   1.52294e-06
      2.30000   2.44814e-06
      2.40000   3.84346e-06
      2.50000   5.87384e-06
      2.60000   8.96408e-06
      2.70000   1.33647e-05
      2.80000   1.95448e-05
      2.90000   2.82890e-05
      3.00000   4.03067e-05
      3.10000   5.66921e-05
      3.20000   7.88685e-05
      3.30000   0.000108605
      3.40000   0.000147996
      3.50000   0.000199726
      3.60000   0.000268299
      3.70000   0.000356593
      3.80000   0.000471987
      3.90000   0.000621266
      4.00000   0.000812682
      4.10000    0.00105817
      4.20000    0.00137290
      4.30000    0.00177622
      4.40000    0.00229195
      4.50000    0.00294934
      4.60000    0.00378263
      4.70000    0.00485129
      4.80000    0.00621567
      4.90000    0.00786150
      5.00000     0.0102052
      5.10000     0.0130612
      5.20000     0.0167666
      5.30000     0.0213414
      5.40000     0.0271218
      5.50000     0.0345292
      5.60000     0.0426122
      5.70000     0.0554035
      5.80000     0.0649697
      5.90000     0.0992267
      6.00000      0.133425
      6.10000      0.170586
      6.20000      0.209566
      6.30000      0.246784
      6.40000      0.278766
      6.50000      0.302373
      6.60000      0.313145
      6.70000      0.323084
      6.80000      0.323687
      6.90000      0.424892
      7.00000      0.462340
      7.10000      0.489276
      7.20000      0.510795
      7.30000      0.528489
      7.40000      0.542134
      7.50000      0.553116
      7.60000      0.561544
      7.70000      0.565925
      7.80000      0.565147
      7.90000      0.565062
      8.00000      0.953726
      8.10000       1.04941
      8.20000       1.07214
      8.30000       1.09025
      8.40000       1.10433
      8.50000       1.11685
      8.60000       1.12747
      8.70000       1.13688
      8.80000       1.14471
      8.90000       1.15151
      9.00000       1.15719
      9.10000       1.16177
      9.20000       1.16547
      9.30000       1.16818
      9.40000       1.17006
      9.50000       1.17115
      9.60000       1.17140
      9.70000       1.17091
      9.80000       1.16982
      9.90000       1.16816
      10.0000       1.16598
      10.1000       1.16329
      10.2000       1.16014
      10.3000       1.15644
      10.4000       1.15223
      10.5000       1.14753
      10.6000       1.14240
      10.7000       1.13683
      10.8000       1.13084
      10.9000       1.12446
      11.0000       1.11769
      11.1000       1.11058
      11.2000       1.10312
      11.3000       1.09535
      11.4000       1.08726
      11.5000       1.07882
      11.6000       1.07006
      11.7000       1.06089
      11.8000       1.05141
      11.9000       1.04144
      12.0000       1.02988
      12.1000       1.02194
      12.2000       1.03184
      12.3000       1.03093
      12.4000       1.02237
      12.5000       1.01301
      12.6000       1.00324
      12.7000      0.993233
      12.8000      0.983028
      12.9000      0.972641
      13.0000      0.962129
      13.1000      0.951528
      13.2000      0.940863
      13.3000      0.930152
      13.4000      0.919422
      13.5000      0.908832
      13.6000      0.898352
      13.7000      0.887873
      13.8000      0.877385
      13.9000      0.866925
      14.0000      0.856488
      14.1000      0.846048
      14.2000      0.835605
      14.3000      0.825150
      14.4000      0.814653
      14.5000      0.804128
      14.6000      0.793557
      14.7000      0.782953
      14.8000      0.772327
      14.9000      0.761682
      15.0000      0.751033
      15.1000      0.740404
      15.2000      0.729795
      15.3000      0.719214
      15.4000      0.708662
      15.5000      0.698150
      15.6000      0.687723
      15.7000      0.677338
      15.8000      0.667050
      15.9000      0.656856
      16.0000      0.646749
      16.1000      0.636742
      16.2000      0.626854
      16.3000      0.617035
      16.4000      0.607290
      16.5000      0.597611
      16.6000      0.587991
      16.7000      0.578430
      16.8000      0.568929
      16.9000      0.559488
      17.0000      0.550110
      17.1000      0.540791
      17.2000      0.531527
      17.3000      0.522330
      17.4000      0.513336
      17.5000      0.504577
      17.6000      0.495986
      17.7000      0.487636
      17.8000      0.479648
      17.9000      0.471744
      18.0000      0.463853
      18.1000      0.456006
      18.2000      0.448151
      18.3000      0.440255
      18.4000      0.432275
      18.5000      0.424242
      18.6000      0.416142
      18.7000      0.407915
      18.8000      0.399749
      18.9000      0.391650
      19.0000      0.383616
      19.1000      0.375685
      19.2000      0.367850
      19.3000      0.360133
      19.4000      0.352538
      19.5000      0.345053
      19.6000      0.337737
      19.7000      0.330523
      19.8000      0.323408
      19.9000      0.316430
      20.0000      0.309533
      20.1000      0.302721
      20.2000      0.295977
      20.3000      0.289299
      20.4000      0.282712
      20.5000      0.276178
      20.6000      0.269699
      20.7000      0.263298
      20.8000      0.256952
      20.9000      0.250649
      21.0000      0.244414
      21.1000      0.238252
      21.2000      0.232093
      21.3000      0.225986
      21.4000      0.219951
      21.5000      0.213920
      21.6000      0.207886
      21.7000      0.201864
      21.8000      0.195874
      21.9000      0.189669
      22.0000      0.183452
      22.1000      0.177121
      22.2000      0.170413
      22.3000      0.163393
      22.4000      0.153748
      22.5000      0.143362
      22.6000      0.122116
      22.7000      0.111660
      22.8000      0.153131
      22.9000      0.205003
      23.0000      0.261826
      23.1000      0.298464
      23.2000      0.315289
      23.3000      0.319039
      23.4000      0.315960
      23.5000      0.312453
      23.6000      0.308860
      23.7000      0.304419
      23.8000      0.299935
      23.9000      0.295335
      24.0000      0.290734
      24.1000      0.285928
      24.2000      0.281147
      24.3000      0.276362
      24.4000      0.271589
      24.5000      0.266788
      24.6000      0.262024
      24.7000      0.257298
      24.8000      0.252606
      24.9000      0.247945
      25.0000      0.243329
      25.1000      0.238765
      25.2000      0.234243
      25.3000      0.229768
      25.4000      0.225343
      25.5000      0.220981
      25.6000      0.216680
      25.7000      0.212450
      25.8000      0.208267
      25.9000      0.204151
      26.0000      0.200076
      26.1000      0.196062
      26.2000      0.192088
      26.3000      0.188188
      26.4000      0.184324
      26.5000      0.180524
      26.6000      0.176758
      26.7000      0.173068
      26.8000      0.169424
      26.9000      0.165830
      27.0000      0.162273
      27.1000      0.158738
      27.2000      0.155230
      27.3000      0.152111
      27.4000      0.149462
      27.5000      0.146715
      27.6000      0.143649
      27.7000      0.140609
      27.8000      0.137543
      27.9000      0.134508
      28.0000      0.131543
      28.1000      0.128614
      28.2000      0.125752
      28.3000      0.122941
      28.4000      0.120177
      28.5000      0.117477
      28.6000      0.114810
      28.7000      0.112253
      28.8000      0.109721
      28.9000      0.107250
      29.0000      0.104814
      29.1000      0.102424
      29.2000      0.100080
      29.3000     0.0977670
      29.4000     0.0955161
      29.5000     0.0932888
      29.6000     0.0911188
      29.7000     0.0889803
      29.8000     0.0868829
      29.9000     0.0848327
      30.0000     0.0828060
      30.1000     0.0808405
      30.2000     0.0788959
      30.3000     0.0801134
      30.4000     0.0830992
      30.5000     0.0849992
      30.6000     0.0830249
      30.7000     0.0810719
      30.8000     0.0791709
      30.9000     0.0772999
      31.0000     0.0754613
      31.1000     0.0736698
      31.2000     0.0718980
      31.3000     0.0701775
      31.4000     0.0684830
      31.5000     0.0668194
      31.6000     0.0651997
      31.7000     0.0635982
      31.8000     0.0620444
      31.9000     0.0605157
      32.0000     0.0590136
      32.1000     0.0575554
      32.2000     0.0561141
      32.3000     0.0547143
      32.4000     0.0533417
      32.5000     0.0519919
      32.6000     0.0507115
      32.7000     0.0494501
      32.8000     0.0482201
      32.9000     0.0470183
      33.0000     0.0458305
      33.1000     0.0447178
      33.2000     0.0436307
      33.3000     0.0425649
      33.4000     0.0415287
      33.5000     0.0405050
      33.6000     0.0395093
      33.7000     0.0385364
      33.8000     0.0375746
      33.9000     0.0366471
      34.0000     0.0357334
      34.1000     0.0348388
      34.2000     0.0339697
      34.3000     0.0331104
      34.4000     0.0322716
      34.5000     0.0314560
      34.6000     0.0306498
      34.7000     0.0298537
      34.8000     0.0290672
      34.9000     0.0282898
      35.0000     0.0275437
      35.1000     0.0268086
      35.2000     0.0260845
      35.3000     0.0253898
      35.4000     0.0247032
      35.5000     0.0240313
      35.6000     0.0233833
      35.7000     0.0227430
      35.8000     0.0221199
      35.9000     0.0215163
      36.0000     0.0209198
      36.1000     0.0203424
      36.2000     0.0197806
      36.3000     0.0192256
      36.4000     0.0186909
      36.5000     0.0181687
      36.6000     0.0176529
      36.7000     0.0171579
      36.8000     0.0166731
      36.9000     0.0161944
      37.0000     0.0157364
      37.1000     0.0152870
      37.2000     0.0148431
      37.3000     0.0144197
      37.4000     0.0140036
      37.5000     0.0135927
      37.6000     0.0132014
      37.7000     0.0128165
      37.8000     0.0124365
      37.9000     0.0120749
      38.0000     0.0117196
      38.1000     0.0113688
      38.2000     0.0110348
      38.3000     0.0107071
      38.4000     0.0103835
      38.5000     0.0100750
      38.6000    0.00977313
      38.7000    0.00947512
      38.8000    0.00919026
      38.9000    0.00891257
      39.0000    0.00863847
      39.1000    0.00837548
      39.2000    0.00812044
      39.3000    0.00786875
      39.4000    0.00762594
      39.5000    0.00739197
      39.6000    0.00716111
      39.7000    0.00693693
      39.8000    0.00672273
      39.9000    0.00651138
      40.0000    0.00630445
      40.1000    0.00610854
      40.2000    0.00591525
      40.3000    0.00572460
      40.4000    0.00554528
      40.5000    0.00536880
      40.6000    0.00519472
      40.7000    0.00502918
      40.8000    0.00486823
      40.9000    0.00470948
      41.0000    0.00455661
      41.1000    0.00441001
      41.2000    0.00426546
      41.3000    0.00412437
      41.4000    0.00399132
      41.5000    0.00386009
      41.6000    0.00373070
      41.7000    0.00360904
      41.8000    0.00348992
      41.9000    0.00337247
      42.0000    0.00326018
      42.1000    0.00315234
      42.2000    0.00304602
      42.3000    0.00294223
      42.4000    0.00284467
      42.5000    0.00274848
      42.6000    0.00265365
      42.7000    0.00256436
      42.8000    0.00247746
      42.9000    0.00239179
      43.0000    0.00230920
      43.1000    0.00223085
      43.2000    0.00215363
      43.3000    0.00207753
      43.4000    0.00656671
      43.5000     0.0152073
      43.6000     0.0325456
      43.7000     0.0570742
      43.8000     0.0757314
      43.9000     0.0792896
      44.0000     0.0769485
      44.1000     0.0691425
      44.2000     0.0674367
      44.3000     0.0662549
      44.4000     0.0650967
      44.5000     0.0639684
      44.6000     0.0628438
      44.7000     0.0617229
      44.8000     0.0606444
      44.9000     0.0595750
      45.0000     0.0585091
      45.1000     0.0574593
      45.2000     0.0564437
      45.3000     0.0554314
      45.4000     0.0544224
      45.5000     0.0534451
      45.6000     0.0524844
      45.7000     0.0515270
      45.8000     0.0505742
      45.9000     0.0496640
      46.0000     0.0487566
      46.1000     0.0478523
      46.2000     0.0470052
      46.3000     0.0462545
      46.4000     0.0455064
      46.5000     0.0447606
      46.6000     0.0440512
      46.7000     0.0433611
      46.8000     0.0426733
      46.9000     0.0419877
      47.0000     0.0413503
      47.1000     0.0407181
      47.2000     0.0400879
      47.3000     0.0394648
      47.4000     0.0388674
      47.5000     0.0382720
      47.6000     0.0376785
      47.7000     0.0370957
      47.8000     0.0365286
      47.9000     0.0359634
      48.0000     0.0354001
      48.1000     0.0348512
      48.2000     0.0343137
      48.3000     0.0337779
      48.4000     0.0332439
      48.5000     0.0327265
      48.6000     0.0322167
      48.7000     0.0317086
      48.8000     0.0312021
      48.9000     0.0307146
      49.0000     0.0302321
      49.1000     0.0297512
      49.2000     0.0292720
      49.3000     0.0288126
      49.4000     0.0283562
      49.5000     0.0279014
      49.6000     0.0274481
      49.7000     0.0270148
      49.8000     0.0265833
      49.9000     0.0261533
      50.0000     0.0257251
      50.1000     0.0253125
      50.2000     0.0249114
      50.3000     0.0245154
      50.4000     0.0241251
      50.5000     0.0237408
      50.6000     0.0233621
      50.7000     0.0229887
      50.8000     0.0226200
      50.9000     0.0222572
      51.0000     0.0219003
      51.1000     0.0215492
      51.2000     0.0212029
      51.3000     0.0208614
      51.4000     0.0205257
      51.5000     0.0201945
      51.6000     0.0198677
      51.7000     0.0195454
      51.8000     0.0192256
      51.9000     0.0189103
      52.0000     0.0185998
      52.1000     0.0182942
      52.2000     0.0179926
      52.3000     0.0176949
      52.4000     0.0174024
      52.5000     0.0171142
      52.6000     0.0168297
      52.7000     0.0165488
      52.8000     0.0162718
      52.9000     0.0159993
      53.0000     0.0157310
      53.1000     0.0154667
      53.2000     0.0152066
      53.3000     0.0149502
      53.4000     0.0146977
      53.5000     0.0144490
      53.6000     0.0142037
      53.7000     0.0139620
      53.8000     0.0137242
      53.9000     0.0134900
      54.0000     0.0132597
      54.1000     0.0130334
      54.2000     0.0128100
      54.3000     0.0125896
      54.4000     0.0123729
      54.5000     0.0121595
      54.6000     0.0119495
      54.7000     0.0117429
      54.8000     0.0115395
      54.9000     0.0113392
      55.0000     0.0111421
      55.1000     0.0109480
      55.2000     0.0107474
      55.3000     0.0105414
      55.4000     0.0103386
      55.5000     0.0101391
      55.6000    0.00994323
      55.7000    0.00975080
      55.8000    0.00956152
      55.9000    0.00937561
      56.0000    0.00919413
      56.1000    0.00901231
      56.2000    0.00883070
      56.3000    0.00865268
      56.4000    0.00847773
      56.5000    0.00830567
      56.6000    0.00813663
      56.7000    0.00797084
      56.8000    0.00780799
      56.9000    0.00764836
      57.0000    0.00749194
      57.1000    0.00733838
      57.2000    0.00718731
      57.3000    0.00703872
      57.4000    0.00689311
      57.5000    0.00675032
      57.6000    0.00661010
      57.7000    0.00647236
      57.8000    0.00633742
      57.9000    0.00620499
      58.0000    0.00607500
      58.1000    0.00594736
      58.2000    0.00582238
      58.3000    0.00569977
      58.4000    0.00557933
      58.5000    0.00546105
      58.6000    0.00534516
      58.7000    0.00523162
      58.8000    0.00512026
      58.9000    0.00501092
      59.0000    0.00490358
      59.1000    0.00479837
      59.2000    0.00469513
      59.3000    0.00459391
      59.4000    0.00449477
      59.5000    0.00439773
      59.6000    0.00430255
      59.7000    0.00420904
      59.8000    0.00411726
      59.9000    0.00402729
      60.0000    0.00393931
      60.1000    0.00385307
      60.2000    0.00376853
      60.3000    0.00368564
      60.4000    0.00360435
      60.5000    0.00352482
      60.6000    0.00344681
      60.7000    0.00337029
      60.8000    0.00329530
      60.9000    0.00322176
      61.0000    0.00314973
      61.1000    0.00307917
      61.2000    0.00301004
      61.3000    0.00294236
      61.4000    0.00287607
      61.5000    0.00281111
      61.6000    0.00274750
      61.7000    0.00268517
      61.8000    0.00262446
      61.9000    0.00256513
      62.0000    0.00250704
      62.1000    0.00245019
      62.2000    0.00239463
      62.3000    0.00234020
      62.4000    0.00228684
      62.5000    0.00223456
      62.6000    0.00218333
      62.7000    0.00213316
      62.8000    0.00208423
      62.9000    0.00203636
      63.0000    0.00198952
      63.1000    0.00194366
      63.2000    0.00189875
      63.3000    0.00185474
      63.4000    0.00181164
      63.5000    0.00176951
      63.6000    0.00172828
      63.7000    0.00168795
      63.8000    0.00164850
      63.9000    0.00160991
      64.0000    0.00157214
      64.1000    0.00153518
      64.2000    0.00149904
      64.3000    0.00146370
      64.4000    0.00142913
      64.5000    0.00139530
      64.6000    0.00136221
      64.7000    0.00132981
      64.8000    0.00129810
      64.9000    0.00126708
      65.0000    0.00123674
      65.1000    0.00120713
      65.2000    0.00117820
      65.3000    0.00114991
      65.4000    0.00112222
      65.5000    0.00109513
      65.6000    0.00106860
      65.7000    0.00104267
      65.8000    0.00101733
      65.9000   0.000992589
      66.0000   0.000968430
      66.1000   0.000944857
      66.2000   0.000921814
      66.3000   0.000899275
      66.4000   0.000877220
      66.5000   0.000855649
      66.6000   0.000834564
      66.7000   0.000813973
      66.8000   0.000793874
      66.9000   0.000774360
      67.0000   0.000755410
      67.1000   0.000736898
      67.2000   0.000718800
      67.3000   0.000701127
      67.4000   0.000683853
      67.5000   0.000666979
      67.6000   0.000650497
      67.7000   0.000634395
      67.8000   0.000618641
      67.9000   0.000603210
      68.0000   0.000588194
      68.1000   0.000573602
      68.2000   0.000559340
      68.3000   0.000545420
      68.4000   0.000531834
      68.5000   0.000518571
      68.6000   0.000505615
      68.7000   0.000492952
      68.8000   0.000480576
      68.9000   0.000468611
      69.0000   0.000457646
      69.1000   0.000448335
      69.2000   0.000440000
      69.3000   0.000431903
      69.4000   0.000424113
      69.5000   0.000416268
      69.6000   0.000408295
      69.7000   0.000400621
      69.8000   0.000393284
      69.9000   0.000386082
      70.0000   0.000378999
      70.1000   0.000371939
      70.2000   0.000365470
      70.3000   0.000359576
      70.4000   0.000353753
      70.5000   0.000348077
      70.6000   0.000342536
      70.7000   0.000337080
      70.8000   0.000331701
      70.9000   0.000326254
      71.0000   0.000320756
      71.1000   0.000315501
      71.2000   0.000310482
      71.3000   0.000305249
      71.4000   0.000299744
      71.5000   0.000294624
      71.6000   0.000290047
      71.7000   0.000285466
      71.8000   0.000280792
      71.9000   0.000276280
      72.0000   0.000272071
      72.1000   0.000267816
      72.2000   0.000263084
      72.3000   0.000258447
      72.4000   0.000254306
      72.5000   0.000250233
      72.6000   0.000246220
      72.7000   0.000242268
      72.8000   0.000238378
      72.9000   0.000234552
      73.0000   0.000230864
      73.1000   0.000227270
      73.2000   0.000223734
      73.3000   0.000220252
      73.4000   0.000216851
      73.5000   0.000213546
      73.6000   0.000210289
      73.7000   0.000207079
      73.8000   0.000203915
      73.9000   0.000200797
      74.0000   0.000197743
      74.1000   0.000194932
      74.2000   0.000192220
      74.3000   0.000189354
      74.4000   0.000186384
      74.5000   0.000183498
      74.6000   0.000180740
      74.7000   0.000178020
      74.8000   0.000175338
      74.9000   0.000172692
      75.0000   0.000170066
      75.1000   0.000167473
      75.2000   0.000164919
      75.3000   0.000162403
      75.4000   0.000159945
      75.5000   0.000157563
      75.6000   0.000155216
      75.7000   0.000152902
      75.8000   0.000150622
      75.9000   0.000148395
      76.0000   0.000146209
      76.1000   0.000144058
      76.2000   0.000141937
      76.3000   0.000139853
      76.4000   0.000137828
      76.5000   0.000135834
      76.6000   0.000133866
      76.7000   0.000131922
      76.8000   0.000130003
      76.9000   0.000128109
      77.0000   0.000126242
      77.1000   0.000124403
      77.2000   0.000122591
      77.3000   0.000120808
      77.4000   0.000119052
      77.5000   0.000117319
      77.6000   0.000115585
      77.7000   0.000113874
      77.8000   0.000112184
      77.9000   0.000110516
      78.0000   0.000108853
      78.1000   0.000107166
      78.2000   0.000105507
      78.3000   0.000103976
      78.4000   0.000102505
      78.5000   0.000101045
      78.6000   9.95761e-05
      78.7000   9.81283e-05
      78.8000   9.66614e-05
      78.9000   9.52041e-05
      79.0000   9.37660e-05
      79.1000   9.23468e-05
      79.2000   9.09501e-05
      79.3000   8.96044e-05
      79.4000   8.82898e-05
      79.5000   8.69853e-05
      79.6000   8.56688e-05
      79.7000   8.43709e-05
      79.8000   8.30765e-05
      79.9000   8.17934e-05
      80.0000   8.05253e-05
      80.1000   7.92392e-05
      80.2000   7.79690e-05
      80.3000   7.66790e-05
      80.4000   7.53732e-05
      80.5000   7.40870e-05
      80.6000   7.28230e-05
      80.7000   7.15801e-05
      80.8000   7.03632e-05
      80.9000   6.91795e-05
      81.0000   6.80146e-05
      81.1000   6.68702e-05
      81.2000   6.57450e-05
      81.3000   6.46389e-05
      81.4000   6.36147e-05
      81.5000   6.26095e-05
      81.6000   6.16381e-05
      81.7000   6.07201e-05
      81.8000   5.98183e-05
      81.9000   5.89561e-05
      82.0000   5.81198e-05
      82.1000   5.72969e-05
      82.2000   5.64648e-05
      82.3000   5.56462e-05
      82.4000   5.48712e-05
      82.5000   5.41721e-05
      82.6000   5.34803e-05
      82.7000   5.27806e-05
      82.8000   5.20704e-05
      82.9000   5.13682e-05
      83.0000   5.06811e-05
      83.1000   5.00058e-05
      83.2000   4.93398e-05
      83.3000   4.86829e-05
      83.4000   4.80352e-05
      83.5000   4.73978e-05
      83.6000   4.67806e-05
      83.7000   4.61709e-05
      83.8000   4.55653e-05
      83.9000   4.49591e-05
      84.0000   4.43604e-05
      84.1000   4.37767e-05
      84.2000   4.32116e-05
      84.3000   4.26533e-05
      84.4000   4.20968e-05
      84.5000   4.15433e-05
      84.6000   4.09971e-05
      84.7000   4.04659e-05
      84.8000   3.99459e-05
      84.9000   3.94328e-05
      85.0000   3.89148e-05
      85.1000   3.84001e-05
      85.2000   3.78923e-05
      85.3000   3.74081e-05
      85.4000   3.69329e-05
      85.5000   3.64642e-05
      85.6000   3.59930e-05
      85.7000   3.55272e-05
      85.8000   3.50669e-05
      85.9000   3.46121e-05
      86.0000   3.41628e-05
      86.1000   3.37193e-05
      86.2000   3.32920e-05
      86.3000   3.28698e-05
      86.4000   3.24525e-05
      86.5000   3.20398e-05
      86.6000   3.16320e-05
      86.7000   3.12292e-05
      86.8000   3.08076e-05
      86.9000   3.03908e-05
      87.0000   2.99798e-05
      87.1000   2.95793e-05
      87.2000   2.91846e-05
      87.3000   2.87953e-05
      87.4000   2.84030e-05
      87.5000   2.80143e-05
      87.6000   2.76302e-05
      87.7000   2.72558e-05
      87.8000   2.68872e-05
      87.9000   2.65227e-05
      88.0000   2.61627e-05
      88.1000   2.58070e-05
      88.2000   2.54561e-05
      88.3000   2.51159e-05
      88.4000   2.47858e-05
      88.5000   2.44611e-05
      88.6000   2.41386e-05
      88.7000   2.38171e-05
      88.8000   2.35001e-05
      88.9000   2.31868e-05
      89.0000   2.28769e-05
      89.1000   2.25712e-05
      89.2000   2.22690e-05
      89.3000   2.19697e-05
      89.4000   2.16732e-05
      89.5000   2.13803e-05
      89.6000   2.10912e-05
      89.7000   2.08055e-05
      89.8000   2.05232e-05
      89.9000   2.02443e-05
      90.0000   1.99691e-05
      90.1000   1.96980e-05
      90.2000   1.94257e-05
      90.3000   1.91463e-05
      90.4000   1.88706e-05
      90.5000   1.85991e-05
      90.6000   1.83354e-05
      90.7000   1.80706e-05
      90.8000   1.78039e-05
      90.9000   1.75347e-05
      91.0000   1.72680e-05
      91.1000   1.70051e-05
      91.2000   1.67430e-05
      91.3000   1.64804e-05
      91.4000   1.62211e-05
      91.5000   1.59662e-05
      91.6000   1.57153e-05
      91.7000   1.54846e-05
      91.8000   1.52827e-05
      91.9000   1.51133e-05
      92.0000   1.49276e-05
      92.1000   1.47401e-05
      92.2000   1.45448e-05
      92.3000   1.43427e-05
      92.4000   1.41382e-05
      92.5000   1.39368e-05
      92.6000   1.37380e-05
      92.7000   1.35417e-05
      92.8000   1.33481e-05
      92.9000   1.31590e-05
      93.0000   1.29767e-05
      93.1000   1.27968e-05
      93.2000   1.26196e-05
      93.3000   1.24500e-05
      93.4000   1.22846e-05
      93.5000   1.21214e-05
      93.6000   1.19599e-05
      93.7000   1.17997e-05
      93.8000   1.16409e-05
      93.9000   1.14840e-05
      94.0000   1.13288e-05
      94.1000   1.11753e-05
      94.2000   1.10239e-05
      94.3000   1.08754e-05
      94.4000   1.07319e-05
      94.5000   1.05906e-05
      94.6000   1.04512e-05
      94.7000   1.03140e-05
      94.8000   1.01786e-05
      94.9000   1.00450e-05
      95.0000   9.91327e-06
      95.1000   9.78364e-06
      95.2000   9.65533e-06
      95.3000   9.52838e-06
      95.4000   9.40316e-06
      95.5000   9.28100e-06
      95.6000   9.16009e-06
      95.7000   9.04047e-06
      95.8000   8.92102e-06
      95.9000   8.80262e-06
      96.0000   8.68556e-06
      96.1000   8.56981e-06
      96.2000   8.45538e-06
      96.3000   8.34283e-06
      96.4000   8.23177e-06
      96.5000   8.12219e-06
      96.6000   8.01440e-06
      96.7000   7.90849e-06
      96.8000   7.80373e-06
      96.9000   7.70017e-06
      97.0000   7.59788e-06
      97.1000   7.49723e-06
      97.2000   7.39762e-06
      97.3000   7.29800e-06
      97.4000   7.19862e-06
      97.5000   7.10071e-06
      97.6000   7.00401e-06
      97.7000   6.90897e-06
      97.8000   6.81550e-06
      97.9000   6.72347e-06
      98.0000   6.63258e-06
      98.1000   6.54280e-06
      98.2000   6.45433e-06
      98.3000   6.37668e-06
      98.4000   6.30464e-06
      98.5000   6.23657e-06
      98.6000   6.16933e-06
      98.7000   6.10278e-06
      98.8000   6.03683e-06
      98.9000   5.97148e-06
      99.0000   5.90693e-06
      99.1000   5.84294e-06
      99.2000   5.77916e-06
      99.3000   5.71420e-06
      99.4000   5.64998e-06
      99.5000   5.58643e-06
      99.6000   5.52396e-06
      99.7000   5.46482e-06
      99.8000   5.40863e-06
      99.9000   5.37316e-06
      100.000   5.36916e-06
      100.100   5.36333e-06
      100.200   5.35746e-06
      100.300   5.35154e-06
      100.400   5.34559e-06
      100.500   5.34032e-06
      100.600   5.33487e-06
      100.700   5.32932e-06
      100.800   5.32362e-06
      100.900   5.31778e-06
      101.000   5.31181e-06
      101.100   5.30572e-06
      101.200   5.29957e-06
      101.300   5.29336e-06
      101.400   5.28714e-06
      101.500   5.28092e-06
      101.600   5.27474e-06
      101.700   5.26911e-06
      101.800   5.26368e-06
      101.900   5.25826e-06
      102.000   5.25295e-06
      102.100   5.24843e-06
      102.200   5.24427e-06
      102.300   5.24004e-06
      102.400   5.23575e-06
      102.500   5.23137e-06
      102.600   5.22685e-06
      102.700   5.22221e-06
      102.800   5.21745e-06
      102.900   5.21258e-06
      103.000   5.20758e-06
      103.100   5.20248e-06
      103.200   5.19731e-06
      103.300   5.19207e-06
      103.400   5.18677e-06
      103.500   5.18143e-06
      103.600   5.17608e-06
      103.700   5.17064e-06
      103.800   5.16397e-06
      103.900   5.15583e-06
      104.000   5.14761e-06
      104.100   5.13944e-06
      104.200   5.13185e-06
      104.300   5.12801e-06
      104.400   5.12424e-06
      104.500   5.12045e-06
      104.600   5.11653e-06
      104.700   5.11135e-06
      104.800   5.10559e-06
      104.900   5.09974e-06
      105.000   5.09385e-06
      105.100   5.08871e-06
      105.200   5.08564e-06
      105.300   5.08254e-06
      105.400   5.07935e-06
      105.500   5.07608e-06
      105.600   5.07325e-06
      105.700   5.07048e-06
      105.800   5.06764e-06
      105.900   5.06478e-06
      106.000   5.06266e-06
      106.100   5.06206e-06
      106.200   5.06154e-06
      106.300   5.06097e-06
      106.400   5.06033e-06
      106.500   5.05962e-06
      106.600   5.05885e-06
      106.700   5.05801e-06
      106.800   5.05711e-06
      106.900   5.05618e-06
      107.000   5.05519e-06
      107.100   5.05415e-06
      107.200   5.05307e-06
      107.300   5.05192e-06
      107.400   5.05062e-06
      107.500   5.04921e-06
      107.600   5.04773e-06
      107.700   5.04620e-06
      107.800   5.04465e-06
      107.900   5.04272e-06
      108.000   5.04074e-06
      108.100   5.03872e-06
      108.200   5.03662e-06
      108.300   5.03440e-06
      108.400   5.03171e-06
      108.500   5.02895e-06
      108.600   5.02611e-06
      108.700   5.02317e-06
      108.800   5.01891e-06
      108.900   5.01277e-06
      109.000   5.00653e-06
      109.100   5.00019e-06
      109.200   4.99380e-06
      109.300   4.98737e-06
      109.400   4.98090e-06
      109.500   4.97439e-06
      109.600   4.96785e-06
      109.700   4.96126e-06
      109.800   4.95465e-06
      109.900   4.94803e-06
      110.000   4.94140e-06
      110.100   4.93475e-06
      110.200   4.92808e-06
      110.300   4.92217e-06
      110.400   4.91632e-06
      110.500   4.91047e-06
      110.600   4.90457e-06
      110.700   4.89863e-06
      110.800   4.89263e-06
      110.900   4.88658e-06
      111.000   4.88046e-06
      111.100   4.87427e-06
      111.200   4.86808e-06
      111.300   4.86349e-06
      111.400   4.85884e-06
      111.500   4.85405e-06
      111.600   4.84919e-06
      111.700   4.84431e-06
      111.800   4.84042e-06
      111.900   4.83651e-06
      112.000   4.83252e-06
      112.100   4.82847e-06
      112.200   4.82437e-06
      112.300   4.81915e-06
      112.400   4.81385e-06
      112.500   4.80856e-06
      112.600   4.80325e-06
      112.700   4.79813e-06
      112.800   4.79407e-06
      112.900   4.78739e-06
      113.000   4.78159e-06
      113.100   4.77618e-06
      113.200   4.77021e-06
      113.300   4.76478e-06
      113.400   4.75322e-06
      113.500   4.74007e-06
      113.600   4.73213e-06
      113.700   4.72248e-06
      113.800   4.70913e-06
      113.900   4.70092e-06
      114.000   4.69260e-06
      114.100   4.68042e-06
      114.200   4.67006e-06
      114.300   4.66265e-06
      114.400   4.65438e-06
      114.500   4.64523e-06
      114.600   4.63999e-06
      114.700   4.63172e-06
      114.800   4.62544e-06
      114.900   4.62382e-06
      115.000   4.61878e-06
      115.100   4.61169e-06
      115.200   4.60436e-06
      115.300   4.60129e-06
      115.400   4.59409e-06
      115.500   4.58888e-06
      115.600   4.58190e-06
      115.700   4.57227e-06
      115.800   4.56608e-06
      115.900   4.55798e-06
      116.000   4.55287e-06
      116.100   4.55240e-06
      116.200   4.55147e-06
      116.300   4.54959e-06
      116.400   4.54608e-06
      116.500   4.54589e-06
      116.600   4.54455e-06
      116.700   4.54400e-06
      116.800   4.54237e-06
      116.900   4.53649e-06
      117.000   4.53530e-06
      117.100   4.54777e-06
      117.200   4.56995e-06
      117.300   4.58266e-06
      117.400   4.59477e-06
      117.500   4.60704e-06
      117.600   4.61372e-06
      117.700   4.61818e-06
      117.800   4.61965e-06
      117.900   4.61959e-06
      118.000   4.61663e-06
      118.100   4.61087e-06
      118.200   4.60724e-06
      118.300   4.60447e-06
      118.400   4.59073e-06
      118.500   4.57777e-06
      118.600   4.56978e-06
      118.700   4.55990e-06
      118.800   4.54749e-06
      118.900   4.53667e-06
      119.000   4.51977e-06
      119.100   4.49617e-06
      119.200   4.47939e-06
      119.300   4.46836e-06
      119.400   4.46007e-06
      119.500   4.45298e-06
      119.600   4.44183e-06
      119.700   4.42593e-06
      119.800   4.40060e-06
      119.900   4.36275e-06
      120.000   4.32882e-06
      120.100   4.29802e-06
      120.200   4.28266e-06
      120.300   4.27619e-06
      120.400   4.26954e-06
      120.500   4.25010e-06
      120.600   4.22084e-06
      120.700   4.18832e-06
      120.800   4.15772e-06
      120.900   4.14382e-06
      121.000   4.15616e-06
      121.100   4.16416e-06
      121.200   4.15925e-06
      121.300   4.14477e-06
      121.400   4.12290e-06
      121.500   4.09540e-06
      121.600   4.04637e-06
      121.700   4.00572e-06
      121.800   3.95732e-06
      121.900   3.90779e-06
      122.000   3.85295e-06
      122.100   3.80190e-06
      122.200   3.75144e-06
      122.300   3.71934e-06
      122.400   3.70725e-06
      122.500   3.69942e-06
      122.600   3.68898e-06
      122.700   3.67831e-06
      122.800   3.66297e-06
      122.900   3.65024e-06
      123.000   3.66138e-06
      123.100   3.71427e-06
      123.200   3.77030e-06
      123.300   3.84829e-06
      123.400   3.94477e-06
      123.500   4.06769e-06
      123.600   4.17662e-06
      123.700   4.24232e-06
      123.800   4.29584e-06
      123.900   4.36232e-06
      124.000   4.44983e-06
      124.100   4.60528e-06
      124.200   4.90604e-06
      124.300   5.35010e-06
      124.400   5.78267e-06
      124.500   5.92646e-06
      124.600   5.93545e-06
      124.700   5.92878e-06
      124.800   5.92366e-06
      124.900   5.91841e-06
      125.000   5.91295e-06
      125.100   5.90641e-06
      125.200   5.89973e-06
      125.300   5.89301e-06
      125.400   5.88629e-06
      125.500   5.87955e-06
      125.600   5.87277e-06
      125.700   5.86598e-06
      125.800   5.85912e-06
      125.900   5.85225e-06
      126.000   5.84533e-06
      126.100   5.83837e-06
      126.200   5.83134e-06
      126.300   5.82424e-06
      126.400   5.81705e-06
      126.500   5.80975e-06
      126.600   5.80238e-06
      126.700   5.79492e-06
      126.800   5.78737e-06
      126.900   5.77972e-06
      127.000   5.77184e-06
      127.100   5.76340e-06
      127.200   5.75471e-06
      127.300   5.74587e-06
      127.400   5.73697e-06
      127.500   5.72800e-06
      127.600   5.71901e-06
      127.700   5.70997e-06
      127.800   5.70088e-06
      127.900   5.69176e-06
      128.000   5.68262e-06
      128.100   5.67344e-06
      128.200   5.66423e-06
      128.300   5.65500e-06
      128.400   5.64573e-06
      128.500   5.63641e-06
      128.600   5.62702e-06
      128.700   5.61762e-06
      128.800   5.60815e-06
      128.900   5.59860e-06
      129.000   5.58900e-06
      129.100   5.57921e-06
      129.200   5.56900e-06
      129.300   5.55870e-06
      129.400   5.54833e-06
      129.500   5.53790e-06
      129.600   5.52741e-06
      129.700   5.51685e-06
      129.800   5.50623e-06
      129.900   5.49555e-06
      130.000   5.48484e-06
      130.100   5.47411e-06
      130.200   5.46333e-06
      130.300   5.45255e-06
      130.400   5.44176e-06
      130.500   5.43095e-06
      130.600   5.42013e-06
      130.700   5.40932e-06
      130.800   5.39853e-06
      130.900   5.38773e-06
      131.000   5.37693e-06
      131.100   5.36614e-06
      131.200   5.35529e-06
      131.300   5.34434e-06
      131.400   5.33337e-06
      131.500   5.32239e-06
      131.600   5.31139e-06
      131.700   5.30035e-06
      131.800   5.28928e-06
      131.900   5.27816e-06
      132.000   5.26699e-06
      132.100   5.25575e-06
      132.200   5.24446e-06
      132.300   5.23311e-06
      132.400   5.22169e-06
      132.500   5.21020e-06
      132.600   5.19865e-06
      132.700   5.18702e-06
      132.800   5.17534e-06
      132.900   5.16362e-06
      133.000   5.15185e-06
      133.100   5.14003e-06
      133.200   5.12819e-06
      133.300   5.11628e-06
      133.400   5.10432e-06
      133.500   5.09232e-06
      133.600   5.08031e-06
      133.700   5.06832e-06
      133.800   5.05633e-06
      133.900   5.04435e-06
      134.000   5.03238e-06
      134.100   5.02044e-06
      134.200   5.00850e-06
      134.300   4.99658e-06
      134.400   4.98469e-06
      134.500   4.97282e-06
      134.600   4.96096e-06
      134.700   4.94910e-06
      134.800   4.93725e-06
      134.900   4.92538e-06
      135.000   4.91352e-06
      135.100   4.90164e-06
      135.200   4.88975e-06
      135.300   4.87784e-06
      135.400   4.86589e-06
      135.500   4.85378e-06
      135.600   4.84152e-06
      135.700   4.82921e-06
      135.800   4.81686e-06
      135.900   4.80449e-06
      136.000   4.79207e-06
      136.100   4.77962e-06
      136.200   4.76714e-06
      136.300   4.75460e-06
      136.400   4.74203e-06
      136.500   4.72944e-06
      136.600   4.71681e-06
      136.700   4.70416e-06
      136.800   4.69150e-06
      136.900   4.67882e-06
      137.000   4.66611e-06
      137.100   4.65339e-06
      137.200   4.64065e-06
      137.300   4.62789e-06
      137.400   4.61514e-06
      137.500   4.60238e-06
      137.600   4.58960e-06
      137.700   4.57675e-06
      137.800   4.56385e-06
      137.900   4.55093e-06
      138.000   4.53802e-06
      138.100   4.52512e-06
      138.200   4.51223e-06
      138.300   4.49932e-06
      138.400   4.48643e-06
      138.500   4.47354e-06
      138.600   4.46065e-06
      138.700   4.44776e-06
      138.800   4.43488e-06
      138.900   4.42199e-06
      139.000   4.40912e-06
      139.100   4.39624e-06
      139.200   4.38336e-06
      139.300   4.37049e-06
      139.400   4.35761e-06
      139.500   4.34474e-06
      139.600   4.33186e-06
      139.700   4.31898e-06
      139.800   4.30611e-06
      139.900   4.29321e-06
      140.000   4.28027e-06
      140.100   4.26733e-06
      140.200   4.25437e-06
      140.300   4.24142e-06
      140.400   4.22847e-06
      140.500   4.21552e-06
      140.600   4.20255e-06
      140.700   4.18959e-06
      140.800   4.17662e-06
      140.900   4.16364e-06
      141.000   4.15063e-06
      141.100   4.13763e-06
      141.200   4.12464e-06
      141.300   4.11164e-06
      141.400   4.09863e-06
      141.500   4.08563e-06
      141.600   4.07261e-06
      141.700   4.05959e-06
      141.800   4.04658e-06
      141.900   4.03357e-06
      142.000   4.02057e-06
      142.100   4.01071e-06
      142.200   4.00982e-06
      142.300   4.01668e-06
      142.400   4.02348e-06
      142.500   4.03021e-06
      142.600   4.03687e-06
      142.700   4.04349e-06
      142.800   4.05005e-06
      142.900   4.05656e-06
      143.000   4.06301e-06
      143.100   4.06939e-06
      143.200   4.07572e-06
      143.300   4.08198e-06
      143.400   4.08819e-06
      143.500   4.09436e-06
      143.600   4.10045e-06
      143.700   4.10649e-06
      143.800   4.11248e-06
      143.900   4.11840e-06
      144.000   4.12426e-06
      144.100   4.13004e-06
      144.200   4.13576e-06
      144.300   4.14143e-06
      144.400   4.14793e-06
      144.500   4.16645e-06
      144.600   4.18884e-06
      144.700   4.21165e-06
      144.800   4.23443e-06
      144.900   4.25718e-06
      145.000   4.27993e-06
      145.100   4.30266e-06
      145.200   4.32538e-06
      145.300   4.34808e-06
      145.400   4.37076e-06
      145.500   4.39341e-06
      145.600   4.41601e-06
      145.700   4.43855e-06
      145.800   4.46110e-06
      145.900   4.48363e-06
      146.000   4.50612e-06
      146.100   4.52857e-06
      146.200   4.55099e-06
      146.300   4.57336e-06
      146.400   4.59568e-06
      146.500   4.61795e-06
      146.600   4.64020e-06
      146.700   4.66241e-06
      146.800   4.68429e-06
      146.900   4.70569e-06
      147.000   4.72702e-06
      147.100   4.74830e-06
      147.200   4.76954e-06
      147.300   4.79072e-06
      147.400   4.81184e-06
      147.500   4.83291e-06
      147.600   4.85391e-06
      147.700   4.87486e-06
      147.800   4.89576e-06
      147.900   4.91659e-06
      148.000   4.93734e-06
      148.100   4.95802e-06
      148.200   4.97866e-06
      148.300   4.99925e-06
      148.400   5.01980e-06
      148.500   5.04028e-06
      148.600   5.06069e-06
      148.700   5.08104e-06
      148.800   5.10130e-06
      148.900   5.12154e-06
      149.000   5.14173e-06
      149.100   5.16186e-06
      149.200   5.18189e-06
      149.300   5.20185e-06
      149.400   5.22175e-06
      149.500   5.24160e-06
      149.600   5.26138e-06
      149.700   5.28106e-06
      149.800   5.30069e-06
      149.900   5.32025e-06
      150.000   5.33976e-06
      150.100   5.35920e-06
      150.200   5.37853e-06
      150.300   5.39778e-06
      150.400   5.41696e-06
      150.500   5.43605e-06
      150.600   5.45504e-06
      150.700   5.47396e-06
      150.800   5.49275e-06
      150.900   5.51143e-06
      151.000   5.52999e-06
      151.100   5.54848e-06
      151.200   5.56683e-06
      151.300   5.58506e-06
      151.400   5.60318e-06
      151.500   5.62118e-06
      151.600   5.63919e-06
      151.700   5.65723e-06
      151.800   5.67516e-06
      151.900   5.69294e-06
      152.000   5.71059e-06
      152.100   5.72811e-06
      152.200   5.74555e-06
      152.300   5.76281e-06
      152.400   5.77996e-06
      152.500   5.79701e-06
      152.600   5.81393e-06
      152.700   5.83073e-06
      152.800   5.84740e-06
      152.900   5.86398e-06
      153.000   5.88049e-06
      153.100   5.89688e-06
      153.200   5.91318e-06
      153.300   5.92940e-06
      153.400   5.94551e-06
      153.500   5.96153e-06
      153.600   5.97747e-06
      153.700   5.99338e-06
      153.800   6.00916e-06
      153.900   6.02486e-06
      154.000   6.04187e-06
      154.100   6.06193e-06
      154.200   6.08295e-06
      154.300   6.10392e-06
      154.400   6.12485e-06
      154.500   6.14566e-06
      154.600   6.16640e-06
      154.700   6.18706e-06
      154.800   6.20764e-06
      154.900   6.22808e-06
      155.000   6.24843e-06
      155.100   6.26872e-06
      155.200   6.28883e-06
      155.300   6.30884e-06
      155.400   6.32873e-06
      155.500   6.34852e-06
      155.600   6.36812e-06
      155.700   6.38758e-06
      155.800   6.40693e-06
      155.900   6.42611e-06
      156.000   6.44514e-06
      156.100   6.46400e-06
      156.200   6.48271e-06
      156.300   6.50130e-06
      156.400   6.51970e-06
      156.500   6.53768e-06
      156.600   6.55403e-06
      156.700   6.57018e-06
      156.800   6.58615e-06
      156.900   6.60197e-06
      157.000   6.61767e-06
      157.100   6.63316e-06
      157.200   6.64852e-06
      157.300   6.66374e-06
      157.400   6.67883e-06
      157.500   6.69375e-06
      157.600   6.70852e-06
      157.700   6.72320e-06
      157.800   6.73772e-06
      157.900   6.75206e-06
      158.000   6.76631e-06
      158.100   6.78046e-06
      158.200   6.79444e-06
      158.300   6.80828e-06
      158.400   6.82203e-06
      158.500   6.83563e-06
      158.600   6.84909e-06
      158.700   6.86238e-06
      158.800   6.87561e-06
      158.900   6.88865e-06
      159.000   6.90154e-06
      159.100   6.91423e-06
      159.200   6.92681e-06
      159.300   6.93919e-06
      159.400   6.95140e-06
      159.500   6.96347e-06
      159.600   6.97539e-06
      159.700   6.98712e-06
      159.800   6.99866e-06
      159.900   7.01006e-06
      160.000   7.02124e-06
      160.100   7.03225e-06
      160.200   7.04305e-06
      160.300   7.05368e-06
      160.400   7.06415e-06
      160.500   7.07439e-06
      160.600   7.08444e-06
      160.700   7.09432e-06
      160.800   7.10398e-06
      160.900   7.11345e-06
      161.000   7.12271e-06
      161.100   7.13183e-06
      161.200   7.14074e-06
      161.300   7.14944e-06
      161.400   7.15795e-06
      161.500   7.16633e-06
      161.600   7.17446e-06
      161.700   7.18234e-06
      161.800   7.19007e-06
      161.900   7.19762e-06
      162.000   7.20495e-06
      162.100   7.21213e-06
      162.200   7.21918e-06
      162.300   7.22603e-06
      162.400   7.23271e-06
      162.500   7.23922e-06
      162.600   7.24559e-06
      162.700   7.25182e-06
      162.800   7.25784e-06
      162.900   7.26370e-06
      163.000   7.26941e-06
      163.100   7.27497e-06
      163.200   7.28033e-06
      163.300   7.28552e-06
      163.400   7.29055e-06
      163.500   7.29540e-06
      163.600   7.30006e-06
      163.700   7.30454e-06
      163.800   7.30889e-06
      163.900   7.31300e-06
      164.000   7.31692e-06
      164.100   7.32069e-06
      164.200   7.32424e-06
      164.300   7.32804e-06
      164.400   7.33165e-06
      164.500   7.33509e-06
      164.600   7.33835e-06
      164.700   7.34140e-06
      164.800   7.34425e-06
      164.900   7.34693e-06
      165.000   7.34944e-06
      165.100   7.35176e-06
      165.200   7.35388e-06
      165.300   7.35584e-06
      165.400   7.35767e-06
      165.500   7.35929e-06
      165.600   7.36074e-06
      165.700   7.36207e-06
      165.800   7.36323e-06
      165.900   7.36421e-06
      166.000   7.36506e-06
      166.100   7.36578e-06
      166.200   7.36638e-06
      166.300   7.36684e-06
      166.400   7.36712e-06
      166.500   7.36731e-06
      166.600   7.36739e-06
      166.700   7.36731e-06
      166.800   7.36704e-06
      166.900   7.36665e-06
      167.000   7.36623e-06
      167.100   7.36557e-06
      167.200   7.36478e-06
      167.300   7.36388e-06
      167.400   7.36286e-06
      167.500   7.36168e-06
      167.600   7.36039e-06
      167.700   7.35898e-06
      167.800   7.35742e-06
      167.900   7.35571e-06
      168.000   7.35386e-06
      168.100   7.35187e-06
      168.200   7.34972e-06
      168.300   7.34740e-06
      168.400   7.34492e-06
      168.500   7.34233e-06
      168.600   7.33951e-06
      168.700   7.33652e-06
      168.800   7.33336e-06
      168.900   7.33004e-06
      169.000   7.32655e-06
      169.100   7.32285e-06
      169.200   7.31899e-06
      169.300   7.31493e-06
      169.400   7.31068e-06
      169.500   7.30583e-06
      169.600   7.29893e-06
      169.700   7.28970e-06
      169.800   7.27967e-06
      169.900   7.26937e-06
      170.000   7.25880e-06
      170.100   7.24802e-06
      170.200   7.23699e-06
      170.300   1.32102e-05
      170.400   6.61099e-05
      170.500   0.000216451
      170.600   0.000455578
      170.700   0.000720146
      170.800   0.000875763
      170.900   0.000904327
      171.000   0.000897886
      171.100   0.000891390
      171.200   0.000884837
      171.300   0.000878227
      171.400   0.000871566
      171.500   0.000864858
      171.600   0.000858109
      171.700   0.000851332
      171.800   0.000844539
      171.900   0.000837745
      172.000   0.000830967
      172.100   0.000824214
      172.200   0.000817507
      172.300   0.000810838
      172.400   0.000804129
      172.500   0.000797461
      172.600   0.000790858
      172.700   0.000784324
      172.800   0.000777857
      172.900   0.000771458
      173.000   0.000765133
      173.100   0.000758880
      173.200   0.000752696
      173.300   0.000746584
      173.400   0.000740539
      173.500   0.000734564
      173.600   0.000728658
      173.700   0.000722816
      173.800   0.000717037
      173.900   0.000711321
      174.000   0.000705663
      174.100   0.000700061
      174.200   0.000694514
      174.300   0.000689020
      174.400   0.000683575
      174.500   0.000678179
      174.600   0.000672824
      174.700   0.000667515
      174.800   0.000662249
      174.900   0.000657022
      175.000   0.000651829
      175.100   0.000646670
      175.200   0.000641565
      175.300   0.000636488
      175.400   0.000631445
      175.500   0.000626439
      175.600   0.000621468
      175.700   0.000616532
      175.800   0.000611629
      175.900   0.000606762
      176.000   0.000601930
      176.100   0.000597134
      176.200   0.000592371
      176.300   0.000587641
      176.400   0.000582947
      176.500   0.000578285
      176.600   0.000573656
      176.700   0.000569058
      176.800   0.000564493
      176.900   0.000559959
      177.000   0.000555454
      177.100   0.000550977
      177.200   0.000546530
      177.300   0.000542111
      177.400   0.000537716
      177.500   0.000533345
      177.600   0.000529001
      177.700   0.000524680
      177.800   0.000520384
      177.900   0.000516104
      178.000   0.000511879
      178.100   0.000507679
      178.200   0.000503498
      178.300   0.000499340
      178.400   0.000495206
      178.500   0.000491093
      178.600   0.000487002
      178.700   0.000482931
      178.800   0.000478885
      178.900   0.000474862
      179.000   0.000470862
      179.100   0.000466884
      179.200   0.000462932
      179.300   0.000459005
      179.400   0.000455104
      179.500   0.000451231
      179.600   0.000447383
      179.700   0.000443565
      179.800   0.000439774
      179.900   0.000436012
      180.000   0.000432278
      180.100   0.000428576
      180.200   0.000424904
      180.300   0.000421263
      180.400   0.000417652
      180.500   0.000414073
      180.600   0.000410526
      180.700   0.000407010
      180.800   0.000403528
      180.900   0.000400077
      181.000   0.000396657
      181.100   0.000393270
      181.200   0.000389913
      181.300   0.000386587
      181.400   0.000383292
      181.500   0.000380028
      181.600   0.000376794
      181.700   0.000373589
      181.800   0.000370415
      181.900   0.000367270
      182.000   0.000364155
      182.100   0.000361068
      182.200   0.000358012
      182.300   0.000354983
      182.400   0.000351983
      182.500   0.000349012
      182.600   0.000346067
      182.700   0.000343150
      182.800   0.000340261
      182.900   0.000337399
      183.000   0.000334564
      183.100   0.000331756
      183.200   0.000328974
      183.300   0.000326217
      183.400   0.000323486
      183.500   0.000320781
      183.600   0.000318101
      183.700   0.000315447
      183.800   0.000312825
      183.900   0.000310230
      184.000   0.000307658
      184.100   0.000305110
      184.200   0.000302584
      184.300   0.000300079
      184.400   0.000297596
      184.500   0.000295135
      184.600   0.000292694
      184.700   0.000290273
      184.800   0.000287872
      184.900   0.000285490
      185.000   0.000283126
      185.100   0.000280781
      185.200   0.000278453
      185.300   0.000276144
      185.400   0.000273851
      185.500   0.000271575
      185.600   0.000269316
      185.700   0.000267071
      185.800   0.000264843
      185.900   0.000262631
      186.000   0.000260432
      186.100   0.000258249
      186.200   0.000256080
      186.300   0.000253925
      186.400   0.000251785
      186.500   0.000249658
      186.600   0.000247545
      186.700   0.000245445
      186.800   0.000243357
      186.900   0.000241282
      187.000   0.000239221
      187.100   0.000237172
      187.200   0.000235138
      187.300   0.000233116
      187.400   0.000231106
      187.500   0.000229111
      187.600   0.000227128
      187.700   0.000225158
      187.800   0.000223201
      187.900   0.000221257
      188.000   0.000219326
      188.100   0.000217409
      188.200   0.000215503
      188.300   0.000213611
      188.400   0.000211731
      188.500   0.000209866
      188.600   0.000208013
      188.700   0.000206174
      188.800   0.000204348
      188.900   0.000202536
      189.000   0.000200737
      189.100   0.000198951
      189.200   0.000197178
      189.300   0.000195420
      189.400   0.000193675
      189.500   0.000191944
      189.600   0.000190226
      189.700   0.000188523
      189.800   0.000186848
      189.900   0.000185190
      190.000   0.000183545
      190.100   0.000181914
      190.200   0.000180296
      190.300   0.000178693
      190.400   0.000177102
      190.500   0.000175525
      190.600   0.000173963
      190.700   0.000172413
      190.800   0.000170878
      190.900   0.000169356
      191.000   0.000167847
      191.100   0.000166353
      191.200   0.000164871
      191.300   0.000163403
      191.400   0.000161948
      191.500   0.000160506
      191.600   0.000159078
      191.700   0.000157662
      191.800   0.000156258
      191.900   0.000154868
      192.000   0.000153490
      192.100   0.000152125
      192.200   0.000150773
      192.300   0.000149433
      192.400   0.000148105
      192.500   0.000146790
      192.600   0.000145486
      192.700   0.000144194
      192.800   0.000142913
      192.900   0.000141641
      193.000   0.000140380
      193.100   0.000139132
      193.200   0.000137895
      193.300   0.000136669
      193.400   0.000135456
      193.500   0.000134253
      193.600   0.000133062
      193.700   0.000131882
      193.800   0.000130713
      193.900   0.000129556
      194.000   0.000128409
      194.100   0.000127274
      194.200   0.000126150
      194.300   0.000125037
      194.400   0.000123934
      194.500   0.000122842
      194.600   0.000121761
      194.700   0.000120689
      194.800   0.000119629
      194.900   0.000118578
      195.000   0.000117537
      195.100   0.000116506
      195.200   0.000115485
      195.300   0.000114473
      195.400   0.000113471
      195.500   0.000112477
      195.600   0.000111492
      195.700   0.000110516
      195.800   0.000109549
      195.900   0.000108588
      196.000   0.000107594
      196.100   0.000106608
      196.200   0.000105631
      196.300   0.000104662
      196.400   0.000103701
      196.500   0.000102747
      196.600   0.000101801
      196.700   0.000100863
      196.800   9.99323e-05
      196.900   9.90084e-05
      197.000   9.80918e-05
      197.100   9.71820e-05
      197.200   9.62789e-05
      197.300   9.53823e-05
      197.400   9.44918e-05
      197.500   9.36081e-05
      197.600   9.27308e-05
      197.700   9.18598e-05
      197.800   9.09953e-05
      197.900   9.01366e-05
      198.000   8.92841e-05
      198.100   8.84380e-05
      198.200   8.75979e-05
      198.300   8.67635e-05
      198.400   8.59359e-05
      198.500   8.51143e-05
      198.600   8.42990e-05
      198.700   8.34898e-05
      198.800   8.26867e-05
      198.900   8.18901e-05
      199.000   8.10995e-05
      199.100   8.03152e-05
      199.200   7.95373e-05
      199.300   7.87659e-05
      199.400   7.80010e-05
      199.500   7.72426e-05
      199.600   7.64904e-05
      199.700   7.57445e-05
      199.800   7.50050e-05
      199.900   7.42721e-05
      200.000   7.35454e-05
      200.100   7.28290e-05
      200.200   7.21151e-05
      200.300   7.14079e-05
      200.400   7.07069e-05
      200.500   7.00121e-05
      200.600   6.93237e-05
      200.700   6.86415e-05
      200.800   6.79652e-05
      200.900   6.72952e-05
      201.000   6.66316e-05
      201.100   6.59737e-05
      201.200   6.53218e-05
      201.300   6.46759e-05
      201.400   6.40362e-05
      201.500   6.34019e-05
      201.600   6.27736e-05
      201.700   6.21513e-05
      201.800   6.15343e-05
      201.900   6.09230e-05
      202.000   6.03178e-05
      202.100   5.97179e-05
      202.200   5.91237e-05
      202.300   5.85487e-05
      202.400   5.80081e-05
      202.500   5.74802e-05
      202.600   5.69559e-05
      202.700   5.64365e-05
      202.800   5.59217e-05
      202.900   5.54114e-05
      203.000   5.49059e-05
      203.100   5.44052e-05
      203.200   5.39089e-05
      203.300   5.34171e-05
      203.400   5.29299e-05
      203.500   5.24474e-05
      203.600   5.19695e-05
      203.700   5.14962e-05
      203.800   5.10276e-05
      203.900   5.05637e-05
      204.000   5.01044e-05
      204.100   4.96496e-05
      204.200   4.91996e-05
      204.300   4.87539e-05
      204.400   4.83129e-05
      204.500   4.78764e-05
      204.600   4.74442e-05
      204.700   4.70165e-05
      204.800   4.65936e-05
      204.900   4.61749e-05
      205.000   4.57605e-05
      205.100   4.53505e-05
      205.200   4.49446e-05
      205.300   4.45430e-05
      205.400   4.41456e-05
      205.500   4.37520e-05
      205.600   4.33686e-05
      205.700   4.29954e-05
      205.800   4.26264e-05
      205.900   4.22610e-05
      206.000   4.18994e-05
      206.100   4.15411e-05
      206.200   4.11860e-05
      206.300   4.08344e-05
      206.400   4.04861e-05
      206.500   4.01408e-05
      206.600   3.97988e-05
      206.700   3.94599e-05
      206.800   3.91238e-05
      206.900   3.87907e-05
      207.000   3.84606e-05
      207.100   3.81331e-05
      207.200   3.78087e-05
      207.300   3.74869e-05
      207.400   3.71677e-05
      207.500   3.68511e-05
      207.600   3.65372e-05
      207.700   3.62257e-05
      207.800   3.59166e-05
      207.900   3.56101e-05
      208.000   3.53060e-05
      208.100   3.50043e-05
      208.200   3.47050e-05
      208.300   3.44080e-05
      208.400   3.41132e-05
      208.500   3.38209e-05
      208.600   3.35307e-05
      208.700   3.32427e-05
      208.800   3.29570e-05
      208.900   3.26722e-05
      209.000   3.23858e-05
      209.100   3.21012e-05
      209.200   3.18189e-05
      209.300   3.15387e-05
      209.400   3.12609e-05
      209.500   3.09852e-05
      209.600   3.07117e-05
      209.700   3.04403e-05
      209.800   3.01712e-05
      209.900   2.99041e-05
      210.000   2.96392e-05
      210.100   2.93763e-05
      210.200   2.91155e-05
      210.300   2.88568e-05
      210.400   2.86001e-05
      210.500   2.83454e-05
      210.600   2.80926e-05
      210.700   2.78419e-05
      210.800   2.75931e-05
      210.900   2.73462e-05
      211.000   2.71012e-05
      211.100   2.68581e-05
      211.200   2.66168e-05
      211.300   2.63774e-05
      211.400   2.61400e-05
      211.500   2.59042e-05
      211.600   2.56702e-05
      211.700   2.54381e-05
      211.800   2.52076e-05
      211.900   2.49788e-05
      212.000   2.47518e-05
      212.100   2.45265e-05
      212.200   2.43029e-05
      212.300   2.40810e-05
      212.400   2.38609e-05
      212.500   2.36424e-05
      212.600   2.34256e-05
      212.700   2.32104e-05
      212.800   2.29969e-05
      212.900   2.27850e-05
      213.000   2.25747e-05
      213.100   2.23661e-05
      213.200   2.21591e-05
      213.300   2.19537e-05
      213.400   2.17499e-05
      213.500   2.15477e-05
      213.600   2.13471e-05
      213.700   2.11482e-05
      213.800   2.09509e-05
      213.900   2.07553e-05
      214.000   2.05612e-05
      214.100   2.03688e-05
      214.200   2.01780e-05
      214.300   1.99889e-05
      214.400   1.98013e-05
      214.500   1.96154e-05
      214.600   1.94312e-05
      214.700   1.92486e-05
      214.800   1.90677e-05
      214.900   1.88884e-05
      215.000   1.87107e-05
      215.100   1.85346e-05
      215.200   1.83602e-05
      215.300   1.81875e-05
      215.400   1.80164e-05
      215.500   1.78469e-05
      215.600   1.76791e-05
      215.700   1.75128e-05
      215.800   1.73481e-05
      215.900   1.71850e-05
      216.000   1.70235e-05
      216.100   1.68636e-05
      216.200   1.67052e-05
      216.300   1.65484e-05
      216.400   1.63932e-05
      216.500   1.62395e-05
      216.600   1.60873e-05
      216.700   1.59366e-05
      216.800   1.57874e-05
      216.900   1.56398e-05
      217.000   1.54936e-05
      217.100   1.53488e-05
      217.200   1.52054e-05
      217.300   1.50635e-05
      217.400   1.49230e-05
      217.500   1.47840e-05
      217.600   1.46462e-05
      217.700   1.45098e-05
      217.800   1.43748e-05
      217.900   1.42412e-05
      218.000   1.41088e-05
      218.100   1.39777e-05
      218.200   1.38479e-05
      218.300   1.37195e-05
      218.400   1.35922e-05
      218.500   1.34662e-05
      218.600   1.33414e-05
      218.700   1.32179e-05
      218.800   1.30955e-05
      218.900   1.29743e-05
      219.000   1.28543e-05
      219.100   1.27354e-05
      219.200   1.26177e-05
      219.300   1.25010e-05
      219.400   1.23855e-05
      219.500   1.22711e-05
      219.600   1.21578e-05
      219.700   1.20455e-05
      219.800   1.19343e-05
      219.900   1.18242e-05
      220.000   1.17151e-05
      220.100   1.16071e-05
      220.200   1.15000e-05
      220.300   1.13940e-05
      220.400   1.12889e-05
      220.500   1.11849e-05
      220.600   1.10819e-05
      220.700   1.09797e-05
      220.800   1.08785e-05
      220.900   1.07783e-05
      221.000   1.06791e-05
      221.100   1.05807e-05
      221.200   1.04832e-05
      221.300   1.03867e-05
      221.400   1.02910e-05
      221.500   1.01962e-05
      221.600   1.01023e-05
      221.700   1.00092e-05
      221.800   9.91698e-06
      221.900   9.82560e-06
      222.000   9.73509e-06
      222.100   9.64533e-06
      222.200   9.55643e-06
      222.300   9.46829e-06
      222.400   9.38097e-06
      222.500   9.29438e-06
      222.600   9.20861e-06
      222.700   9.12358e-06
      222.800   9.03925e-06
      222.900   8.95566e-06
      223.000   8.87280e-06
      223.100   8.79064e-06
      223.200   8.70922e-06
      223.300   8.62849e-06
      223.400   8.54849e-06
      223.500   8.46913e-06
      223.600   8.39051e-06
      223.700   8.31253e-06
      223.800   8.23521e-06
      223.900   8.15862e-06
      224.000   8.08263e-06
      224.100   8.00728e-06
      224.200   7.93256e-06
      224.300   7.85850e-06
      224.400   7.78504e-06
      224.500   7.71221e-06
      224.600   7.63996e-06
      224.700   7.56837e-06
      224.800   7.49736e-06
      224.900   7.42692e-06
      225.000   7.35708e-06
      225.100   7.28782e-06
      225.200   7.21912e-06
      225.300   7.15102e-06
      225.400   7.08346e-06
      225.500   7.01646e-06
      225.600   6.95001e-06
      225.700   6.88413e-06
      225.800   6.81877e-06
      225.900   6.75396e-06
      226.000   6.68971e-06
      226.100   6.62598e-06
      226.200   6.56283e-06
      226.300   6.50061e-06
      226.400   6.43930e-06
      226.500   6.37840e-06
      226.600   6.31786e-06
      226.700   6.25776e-06
      226.800   6.19807e-06
      226.900   6.13883e-06
      227.000   6.08009e-06
      227.100   6.02182e-06
      227.200   5.96405e-06
      227.300   5.90677e-06
      227.400   5.84999e-06
      227.500   5.79368e-06
      227.600   5.73785e-06
      227.700   5.68251e-06
      227.800   5.62765e-06
      227.900   5.57327e-06
      228.000   5.51937e-06
      228.100   5.46593e-06
      228.200   5.41295e-06
      228.300   5.36044e-06
      228.400   5.30842e-06
      228.500   5.25685e-06
      228.600   5.20575e-06
      228.700   5.15511e-06
      228.800   5.10491e-06
      228.900   5.05520e-06
      229.000   5.00594e-06
      229.100   4.95713e-06
      229.200   4.90877e-06
      229.300   4.86086e-06
      229.400   4.81341e-06
      229.500   4.76640e-06
      229.600   4.71984e-06
      229.700   4.67372e-06
      229.800   4.62803e-06
      229.900   4.58279e-06
      230.000   4.53795e-06
      230.100   4.49299e-06
      230.200   4.44849e-06
      230.300   4.40445e-06
      230.400   4.36083e-06
      230.500   4.31765e-06
      230.600   4.27490e-06
      230.700   4.23256e-06
      230.800   4.19065e-06
      230.900   4.14917e-06
      231.000   4.10809e-06
      231.100   4.06743e-06
      231.200   4.02717e-06
      231.300   3.98733e-06
      231.400   3.94790e-06
      231.500   3.90885e-06
      231.600   3.87018e-06
      231.700   3.83192e-06
      231.800   3.79405e-06
      231.900   3.75656e-06
      232.000   3.71944e-06
      232.100   3.68269e-06
      232.200   3.64633e-06
      232.300   3.61033e-06
      232.400   3.57470e-06
      232.500   3.53941e-06
      232.600   3.50449e-06
      232.700   3.46993e-06
      232.800   3.43570e-06
      232.900   3.40183e-06
      233.000   3.36829e-06
      233.100   3.33511e-06
      233.200   3.30224e-06
      233.300   3.26971e-06
      233.400   3.23751e-06
      233.500   3.20563e-06
      233.600   3.17407e-06
      233.700   3.14282e-06
      233.800   3.10887e-06
      233.900   3.07480e-06
      234.000   3.04113e-06
      234.100   3.00784e-06
      234.200   2.97493e-06
      234.300   2.94237e-06
      234.400   2.91017e-06
      234.500   2.87832e-06
      234.600   2.84682e-06
      234.700   2.81567e-06
      234.800   2.78487e-06
      234.900   2.75440e-06
      235.000   2.72426e-06
      235.100   2.69446e-06
      235.200   2.66499e-06
      235.300   2.63583e-06
      235.400   2.60700e-06
      235.500   2.57849e-06
      235.600   2.55030e-06
      235.700   2.52240e-06
      235.800   2.49483e-06
      235.900   2.46756e-06
      236.000   2.44059e-06
      236.100   2.41391e-06
      236.200   2.38752e-06
      236.300   2.36143e-06
      236.400   2.33563e-06
      236.500   2.31010e-06
      236.600   2.28486e-06
      236.700   2.25989e-06
      236.800   2.23519e-06
      236.900   2.21077e-06
      237.000   2.18662e-06
      237.100   2.16272e-06
      237.200   2.13909e-06
      237.300   2.11571e-06
      237.400   2.09259e-06
      237.500   2.06972e-06
      237.600   2.04707e-06
      237.700   2.02467e-06
      237.800   2.00252e-06
      237.900   1.98060e-06
      238.000   1.95892e-06
      238.100   1.93747e-06
      238.200   1.91625e-06
      238.300   1.89526e-06
      238.400   1.87449e-06
      238.500   1.85394e-06
      238.600   1.83361e-06
      238.700   1.81349e-06
      238.800   1.79359e-06
      238.900   1.77390e-06
      239.000   1.75441e-06
      239.100   1.73512e-06
      239.200   1.71605e-06
      239.300   1.69716e-06
      239.400   1.67848e-06
      239.500   1.65999e-06
      239.600   1.64169e-06
      239.700   1.62359e-06
      239.800   1.60567e-06
      239.900   1.58793e-06
      240.000   1.57038e-06
      240.100   1.55300e-06
      240.200   1.53580e-06
      240.300   1.51878e-06
      240.400   1.50192e-06
      240.500   1.48525e-06
      240.600   1.46875e-06
      240.700   1.45241e-06
      240.800   1.43624e-06
      240.900   1.42023e-06
      241.000   1.40439e-06
      241.100   1.38870e-06
      241.200   1.37318e-06
      241.300   1.35782e-06
      241.400   1.34261e-06
      241.500   1.32755e-06
      241.600   1.31265e-06
      241.700   1.29790e-06
      241.800   1.28329e-06
      241.900   1.26884e-06
      242.000   1.25453e-06
      242.100   1.24038e-06
      242.200   1.22637e-06
      242.300   1.21251e-06
      242.400   1.19878e-06
      242.500   1.18520e-06
      242.600   1.17177e-06
      242.700   1.15846e-06
      242.800   1.14530e-06
      242.900   1.13228e-06
      243.000   1.11939e-06
      243.100   1.10664e-06
      243.200   1.09401e-06
      243.300   1.08152e-06
      243.400   1.06917e-06
      243.500   1.05695e-06
      243.600   1.04486e-06
      243.700   1.03289e-06
      243.800   1.02105e-06
      243.900   1.00934e-06
      244.000   9.97755e-07
      244.100   9.86292e-07
      244.200   9.74954e-07
      244.300   9.63735e-07
      244.400   9.52638e-07
      244.500   9.41661e-07
      244.600   9.30800e-07
      244.700   9.20062e-07
      244.800   9.09441e-07
      244.900   8.98936e-07
      245.000   8.88541e-07
      245.100   8.78260e-07
      245.200   8.68095e-07
      245.300   8.58041e-07
      245.400   8.48092e-07
      245.500   8.38257e-07
      245.600   8.28529e-07
      245.700   8.18904e-07
      245.800   8.09384e-07
      245.900   7.99975e-07
      246.000   7.90672e-07
      246.100   7.81469e-07
      246.200   7.72369e-07
      246.300   7.63368e-07
      246.400   7.54470e-07
      246.500   7.45668e-07
      246.600   7.36963e-07
      246.700   7.28358e-07
      246.800   7.19844e-07
      246.900   7.11426e-07
      247.000   7.03106e-07
      247.100   6.94878e-07
      247.200   6.86744e-07
      247.300   6.78701e-07
      247.400   6.70747e-07
      247.500   6.62882e-07
      247.600   6.55105e-07
      247.700   6.47417e-07
      247.800   6.39814e-07
      247.900   6.32296e-07
      248.000   6.24864e-07
      248.100   6.17524e-07
      248.200   6.10264e-07
      248.300   6.03086e-07
      248.400   5.95990e-07
      248.500   5.88973e-07
      248.600   5.82036e-07
      248.700   5.75180e-07
      248.800   5.68402e-07
      248.900   5.61703e-07
      249.000   5.55080e-07
      249.100   5.48534e-07
      249.200   5.42067e-07
      249.300   5.35674e-07
      249.400   5.29355e-07
      249.500   5.23109e-07
      249.600   5.16935e-07
      249.700   5.10832e-07
      249.800   5.04800e-07
      249.900   4.98839e-07
      250.000   4.92949e-07
      250.100   4.87130e-07
      250.200   4.81376e-07
      250.300   4.75694e-07
      250.400   4.70078e-07
      250.500   4.64528e-07
      250.600   4.59045e-07
      250.700   4.53626e-07
      250.800   4.48270e-07
      250.900   4.42978e-07
      251.000   4.37748e-07
      251.100   4.32580e-07
      251.200   4.27475e-07
      251.300   4.22433e-07
      251.400   4.17451e-07
      251.500   4.12526e-07
      251.600   4.07660e-07
      251.700   4.02854e-07
      251.800   3.98105e-07
      251.900   3.93411e-07
      252.000   3.88772e-07
      252.100   3.84192e-07
      252.200   3.79662e-07
      252.300   3.75191e-07
      252.400   3.70770e-07
      252.500   3.66405e-07
      252.600   3.62091e-07
      252.700   3.57827e-07
      252.800   3.53615e-07
      252.900   3.49452e-07
      253.000   3.45339e-07
      253.100   3.41275e-07
      253.200   3.37259e-07
      253.300   3.33436e-07
      253.400   3.29726e-07
      253.500   3.26059e-07
      253.600   3.22433e-07
      253.700   3.18847e-07
      253.800   3.15303e-07
      253.900   3.11798e-07
      254.000   3.08332e-07
      254.100   3.04904e-07
      254.200   3.01513e-07
      254.300   2.98161e-07
      254.400   2.94845e-07
      254.500   2.91566e-07
      254.600   2.88323e-07
      254.700   2.85117e-07
      254.800   2.81946e-07
      254.900   2.78810e-07
      255.000   2.75709e-07
      255.100   2.72640e-07
      255.200   2.69605e-07
      255.300   2.66603e-07
      255.400   2.63634e-07
      255.500   2.60698e-07
      255.600   2.57794e-07
      255.700   2.54921e-07
      255.800   2.52079e-07
      255.900   2.49268e-07
      256.000   2.46487e-07
      256.100   2.43737e-07
      256.200   2.41016e-07
      256.300   2.38324e-07
      256.400   2.35664e-07
      256.500   2.33029e-07
      256.600   2.30425e-07
      256.700   2.27849e-07
      256.800   2.25299e-07
      256.900   2.22777e-07
      257.000   2.20283e-07
      257.100   2.17815e-07
      257.200   2.15374e-07
      257.300   2.12960e-07
      257.400   2.10631e-07
      257.500   2.08348e-07
      257.600   2.06092e-07
      257.700   2.03858e-07
      257.800   2.01647e-07
      257.900   1.99460e-07
      258.000   1.97295e-07
      258.100   1.95153e-07
      258.200   1.93033e-07
      258.300   1.90936e-07
      258.400   1.88859e-07
      258.500   1.86804e-07
      258.600   1.84771e-07
      258.700   1.82759e-07
      258.800   1.80767e-07
      258.900   1.78798e-07
      259.000   1.76848e-07
      259.100   1.74918e-07
      259.200   1.73008e-07
      259.300   1.71120e-07
      259.400   1.69250e-07
      259.500   1.67400e-07
      259.600   1.65569e-07
      259.700   1.63758e-07
      259.800   1.61965e-07
      259.900   1.60190e-07
      260.000   1.58435e-07
      260.100   1.56698e-07
      260.200   1.54979e-07
      260.300   1.53278e-07
      260.400   1.51595e-07
      260.500   1.49930e-07
      260.600   1.48282e-07
      260.700   1.46651e-07
      260.800   1.45038e-07
      260.900   1.43441e-07
      261.000   1.41861e-07
      261.100   1.40298e-07
      261.200   1.38751e-07
      261.300   1.37220e-07
      261.400   1.35706e-07
      261.500   1.34214e-07
      261.600   1.32758e-07
      261.700   1.31321e-07
      261.800   1.29900e-07
      261.900   1.28492e-07
      262.000   1.27099e-07
      262.100   1.25720e-07
      262.200   1.24356e-07
      262.300   1.23005e-07
      262.400   1.21668e-07
      262.500   1.20345e-07
      262.600   1.19036e-07
      262.700   1.17740e-07
      262.800   1.16458e-07
      262.900   1.15188e-07
      263.000   1.13932e-07
      263.100   1.12689e-07
      263.200   1.11459e-07
      263.300   1.10241e-07
      263.400   1.09036e-07
      263.500   1.07844e-07
      263.600   1.06664e-07
      263.700   1.05496e-07
      263.800   1.04339e-07
      263.900   1.03196e-07
      264.000   1.02064e-07
      264.100   1.00943e-07
      264.200   9.98343e-08
      264.300   9.87376e-08
      264.400   9.76521e-08
      264.500   9.65777e-08
      264.600   9.55143e-08
      264.700   9.44624e-08
      264.800   9.34208e-08
      264.900   9.23908e-08
      265.000   9.13715e-08
      265.100   9.03625e-08
      265.200   8.93643e-08
      265.300   8.83764e-08
      265.400   8.73992e-08
      265.500   8.64321e-08
      265.600   8.54756e-08
      265.700   8.45285e-08
      265.800   8.35938e-08
      265.900   8.26684e-08
      266.000   8.17535e-08
      266.100   8.08481e-08
      266.200   7.99525e-08
      266.300   7.90660e-08
      266.400   7.81894e-08
      266.500   7.73216e-08
      266.600   7.64634e-08
      266.700   7.56143e-08
      266.800   7.47746e-08
      266.900   7.39438e-08
      267.000   7.31215e-08
      267.100   7.23081e-08
      267.200   7.15042e-08
      267.300   7.07086e-08
      267.400   6.99212e-08
      267.500   6.91426e-08
      267.600   6.83724e-08
      267.700   6.76105e-08
      267.800   6.68566e-08
      267.900   6.61111e-08
      268.000   6.53739e-08
      268.100   6.46446e-08
      268.200   6.39234e-08
      268.300   6.32102e-08
      268.400   6.25045e-08
      268.500   6.18064e-08
      268.600   6.11160e-08
      268.700   6.04334e-08
      268.800   5.97581e-08
      268.900   5.90904e-08
      269.000   5.84301e-08
      269.100   5.77769e-08
      269.200   5.71311e-08
      269.300   5.64924e-08
      269.400   5.58604e-08
      269.500   5.52354e-08
      269.600   5.46176e-08
      269.700   5.40067e-08
      269.800   5.34025e-08
      269.900   5.28049e-08
      270.000   5.22141e-08
      270.100   5.16312e-08
      270.200   5.10556e-08
      270.300   5.04863e-08
      270.400   4.99231e-08
      270.500   4.93664e-08
      270.600   4.88156e-08
      270.700   4.82711e-08
      270.800   4.77327e-08
      270.900   4.71999e-08
      271.000   4.66734e-08
      271.100   4.61526e-08
      271.200   4.56374e-08
      271.300   4.51282e-08
      271.400   4.46245e-08
      271.500   4.41265e-08
      271.600   4.36338e-08
      271.700   4.31466e-08
      271.800   4.26651e-08
      271.900   4.21887e-08
      272.000   4.17178e-08
      272.100   4.12519e-08
      272.200   4.07913e-08
      272.300   4.03356e-08
      272.400   3.98850e-08
      272.500   3.94396e-08
      272.600   3.89989e-08
      272.700   3.85632e-08
      272.800   3.81323e-08
      272.900   3.77062e-08
      273.000   3.72850e-08
      273.100   3.68682e-08
      273.200   3.64560e-08
      273.300   3.60486e-08
      273.400   3.56455e-08
      273.500   3.52470e-08
      273.600   3.48528e-08
      273.700   3.44629e-08
      273.800   3.40774e-08
      273.900   3.36963e-08
      274.000   3.33193e-08
      274.100   3.29464e-08
      274.200   3.25777e-08
      274.300   3.22130e-08
      274.400   3.18424e-08
      274.500   3.14490e-08
      274.600   3.10558e-08
      274.700   3.06679e-08
      274.800   3.02845e-08
      274.900   2.99058e-08
      275.000   2.95317e-08
      275.100   2.91622e-08
      275.200   2.87973e-08
      275.300   2.84367e-08
      275.400   2.80806e-08
      275.500   2.77290e-08
      275.600   2.73813e-08
      275.700   2.70381e-08
      275.800   2.66992e-08
      275.900   2.63643e-08
      276.000   2.60335e-08
      276.100   2.57067e-08
      276.200   2.53840e-08
      276.300   2.50650e-08
      276.400   2.47501e-08
      276.500   2.44388e-08
      276.600   2.41316e-08
      276.700   2.38280e-08
      276.800   2.35282e-08
      276.900   2.32319e-08
      277.000   2.29393e-08
      277.100   2.26502e-08
      277.200   2.23647e-08
      277.300   2.20827e-08
      277.400   2.18042e-08
      277.500   2.15289e-08
      277.600   2.12572e-08
      277.700   2.09887e-08
      277.800   2.07234e-08
      277.900   2.04614e-08
      278.000   2.02027e-08
      278.100   1.99471e-08
      278.200   1.96946e-08
      278.300   1.94453e-08
      278.400   1.91990e-08
      278.500   1.89556e-08
      278.600   1.87152e-08
      278.700   1.84778e-08
      278.800   1.82433e-08
      278.900   1.80099e-08
      279.000   1.77788e-08
      279.100   1.75505e-08
      279.200   1.73251e-08
      279.300   1.71025e-08
      279.400   1.68826e-08
      279.500   1.66654e-08
      279.600   1.64510e-08
      279.700   1.62392e-08
      279.800   1.60301e-08
      279.900   1.58234e-08
      280.000   1.56194e-08
      280.100   1.54179e-08
      280.200   1.52190e-08
      280.300   1.50224e-08
      280.400   1.48283e-08
      280.500   1.46367e-08
      280.600   1.44475e-08
      280.700   1.42606e-08
      280.800   1.40760e-08
      280.900   1.38937e-08
      281.000   1.37137e-08
      281.100   1.35359e-08
      281.200   1.33603e-08
      281.300   1.31869e-08
      281.400   1.30158e-08
      281.500   1.28467e-08
      281.600   1.26797e-08
      281.700   1.25148e-08
      281.800   1.23520e-08
      281.900   1.21912e-08
      282.000   1.20324e-08
      282.100   1.18756e-08
      282.200   1.17209e-08
      282.300   1.15680e-08
      282.400   1.14170e-08
      282.500   1.12679e-08
      282.600   1.11207e-08
      282.700   1.09754e-08
      282.800   1.08317e-08
      282.900   1.06901e-08
      283.000   1.05501e-08
      283.100   1.04120e-08
      283.200   1.02755e-08
      283.300   1.01408e-08
      283.400   1.00078e-08
      283.500   9.87649e-09
      283.600   9.74677e-09
      283.700   9.61866e-09
      283.800   9.49221e-09
      283.900   9.36741e-09
      284.000   9.24413e-09
      284.100   9.12240e-09
      284.200   9.00221e-09
      284.300   8.88358e-09
      284.400   8.76642e-09
      284.500   8.65076e-09
      284.600   8.53655e-09
      284.700   8.42384e-09
      284.800   8.31254e-09
      284.900   8.20264e-09
      285.000   8.09411e-09
      285.100   7.98696e-09
      285.200   7.88123e-09
      285.300   7.77680e-09
      285.400   7.67369e-09
      285.500   7.57191e-09
      285.600   7.47147e-09
      285.700   7.37227e-09
      285.800   7.27438e-09
      285.900   7.17769e-09
      286.000   7.08227e-09
      286.100   6.98811e-09
      286.200   6.89509e-09
      286.300   6.80331e-09
      286.400   6.71273e-09
      286.500   6.62326e-09
      286.600   6.53496e-09
      286.700   6.44778e-09
      286.800   6.36174e-09
      286.900   6.27679e-09
      287.000   6.19295e-09
      287.100   6.11017e-09
      287.200   6.02849e-09
      287.300   5.94785e-09
      287.400   5.86824e-09
      287.500   5.78966e-09
      287.600   5.71210e-09
      287.700   5.63553e-09
      287.800   5.55998e-09
      287.900   5.48541e-09
      288.000   5.41182e-09
      288.100   5.33916e-09
      288.200   5.26748e-09
      288.300   5.19675e-09
      288.400   5.12690e-09
      288.500   5.05800e-09
      288.600   4.98994e-09
      288.700   4.92280e-09
      288.800   4.85653e-09
      288.900   4.79115e-09
      289.000   4.72660e-09
      289.100   4.66288e-09
      289.200   4.60002e-09
      289.300   4.53797e-09
      289.400   4.47672e-09
      289.500   4.41629e-09
      289.600   4.35664e-09
      289.700   4.29781e-09
      289.800   4.23971e-09
      289.900   4.18237e-09
      290.000   4.12580e-09
      290.100   4.06995e-09
      290.200   4.01488e-09
      290.300   3.96052e-09
      290.400   3.90687e-09
      290.500   3.85396e-09
      290.600   3.80171e-09
      290.700   3.75016e-09
      290.800   3.69931e-09
      290.900   3.64912e-09
      291.000   3.59957e-09
      291.100   3.55067e-09
      291.200   3.50244e-09
      291.300   3.45483e-09
      291.400   3.40787e-09
      291.500   3.36152e-09
      291.600   3.31578e-09
      291.700   3.27067e-09
      291.800   3.22614e-09
      291.900   3.18222e-09
      292.000   3.13888e-09
      292.100   3.09611e-09
      292.200   3.05393e-09
      292.300   3.01228e-09
      292.400   2.97119e-09
      292.500   2.93064e-09
      292.600   2.89063e-09
      292.700   2.85117e-09
      292.800   2.81223e-09
      292.900   2.77381e-09
      293.000   2.73590e-09
      293.100   2.69849e-09
      293.200   2.66157e-09
      293.300   2.62516e-09
      293.400   2.58924e-09
      293.500   2.55379e-09
      293.600   2.51882e-09
      293.700   2.48432e-09
      293.800   2.45027e-09
      293.900   2.41670e-09
      294.000   2.38356e-09
      294.100   2.35086e-09
      294.200   2.31861e-09
      294.300   2.28680e-09
      294.400   2.25538e-09
      294.500   2.22441e-09
      294.600   2.19384e-09
      294.700   2.16369e-09
      294.800   2.13394e-09
      294.900   2.10459e-09
      295.000   2.07563e-09
      295.100   2.04708e-09
      295.200   2.01890e-09
      295.300   1.99110e-09
      295.400   1.96368e-09
      295.500   1.93663e-09
      295.600   1.90994e-09
      295.700   1.88361e-09
      295.800   1.85763e-09
      295.900   1.83199e-09
      296.000   1.80670e-09
      296.100   1.78175e-09
      296.200   1.75714e-09
      296.300   1.73286e-09
      296.400   1.70893e-09
      296.500   1.68531e-09
      296.600   1.66200e-09
      296.700   1.63901e-09
      296.800   1.61634e-09
      296.900   1.59396e-09
      297.000   1.57189e-09
      297.100   1.55012e-09
      297.200   1.52864e-09
      297.300   1.50745e-09
      297.400   1.48654e-09
      297.500   1.46591e-09
      297.600   1.44557e-09
      297.700   1.42550e-09
      297.800   1.40571e-09
      297.900   1.38619e-09
      298.000   1.36693e-09
      298.100   1.34793e-09
      298.200   1.32919e-09
      298.300   1.31071e-09
      298.400   1.29247e-09
      298.500   1.27448e-09
      298.600   1.25673e-09
      298.700   1.23922e-09
      298.800   1.22194e-09
      298.900   1.20492e-09
      299.000   1.18813e-09
      299.100   1.17156e-09
      299.200   1.15521e-09
      299.300   1.13909e-09
      299.400   1.12319e-09
      299.500   1.10750e-09
      299.600   1.09203e-09
      299.700   1.07677e-09
      299.800   1.06170e-09
      299.900   1.04686e-09
      300.000   1.03221e-09
      300.100   1.01776e-09
      300.192   1.00464e-09
      300.285   9.91545e-10
      300.377   9.78757e-10
      300.470   9.65999e-10
      300.562   9.53535e-10
      300.654   9.41224e-10
      300.747   9.28934e-10
      300.839   9.16939e-10
      300.932   9.04956e-10
      301.025   8.93131e-10
      301.117   8.81583e-10
      301.210   8.70052e-10
      301.303   8.58671e-10
      301.395   8.47566e-10
      301.488   8.36461e-10
      301.581   8.25516e-10
      301.674   8.14700e-10
      301.766   8.04139e-10
      301.859   7.93596e-10
      301.952   7.83194e-10
      302.045   7.72917e-10
      302.138   7.62792e-10
      302.231   7.52827e-10
      302.324   7.42995e-10
      302.417   7.33283e-10
      302.510   7.23690e-10
      302.603   7.14232e-10
      302.696   7.04887e-10
      302.789   6.95658e-10
      302.882   6.86546e-10
      302.976   6.77461e-10
      303.069   6.68583e-10
      303.162   6.59821e-10
      303.255   6.51165e-10
      303.349   6.42532e-10
      303.442   6.34094e-10
      303.535   6.25774e-10
      303.629   6.17469e-10
      303.722   6.09358e-10
      303.816   6.01264e-10
      303.909   5.93358e-10
      304.003   5.85471e-10
      304.096   5.77764e-10
      304.190   5.70076e-10
      304.283   5.62567e-10
      304.377   5.55081e-10
      304.471   5.47685e-10
      304.564   5.40463e-10
      304.658   5.33263e-10
      304.752   5.26146e-10
      304.846   5.19129e-10
      304.939   5.12273e-10
      305.033   5.05432e-10
      305.127   4.98682e-10
      305.221   4.92018e-10
      305.315   4.85442e-10
      305.409   4.78949e-10
      305.503   4.72543e-10
      305.597   4.66220e-10
      305.691   4.59977e-10
      305.785   4.53814e-10
      305.879   4.47731e-10
      305.973   4.41732e-10
      306.067   4.35805e-10
      306.161   4.29961e-10
      306.255   4.24190e-10
      306.350   4.18434e-10
      306.444   4.12813e-10
      306.538   4.07264e-10
      306.633   4.01734e-10
      306.727   3.96330e-10
      306.821   3.90997e-10
      306.916   3.85678e-10
      307.010   3.80488e-10
      307.105   3.75315e-10
      307.199   3.70263e-10
      307.294   3.65224e-10
      307.388   3.60304e-10
      307.483   3.55398e-10
      307.577   3.50607e-10
      307.672   3.45829e-10
      307.767   3.41115e-10
      307.861   3.36512e-10
      307.956   3.31918e-10
      308.051   3.27387e-10
      308.146   3.22917e-10
      308.240   3.18553e-10
      308.335   3.14200e-10
      308.430   3.09903e-10
      308.525   3.05663e-10
      308.620   3.01482e-10
      308.715   2.97356e-10
      308.810   2.93285e-10
      308.905   2.89267e-10
      309.000   2.85304e-10
      309.095   2.81393e-10
      309.190   2.77536e-10
      309.285   2.73728e-10
      309.380   2.69971e-10
      309.476   2.66228e-10
      309.571   2.62572e-10
      309.666   2.58964e-10
      309.761   2.55405e-10
      309.857   2.51857e-10
      309.952   2.48393e-10
      310.047   2.44977e-10
      310.143   2.41570e-10
      310.238   2.38245e-10
      310.334   2.34930e-10
      310.429   2.31692e-10
      310.525   2.28466e-10
      310.620   2.25316e-10
      310.716   2.22176e-10
      310.811   2.19111e-10
      310.907   2.16057e-10
      311.003   2.13043e-10
      311.098   2.10100e-10
      311.194   2.07167e-10
      311.290   2.04275e-10
      311.386   2.01422e-10
      311.481   1.98636e-10
      311.577   1.95861e-10
      311.673   1.93122e-10
      311.769   1.90421e-10
      311.865   1.87757e-10
      311.961   1.85144e-10
      312.057   1.82630e-10
      312.153   1.80175e-10
      312.249   1.77750e-10
      312.345   1.75357e-10
      312.441   1.72994e-10
      312.537   1.70663e-10
      312.633   1.68364e-10
      312.730   1.66069e-10
      312.826   1.63830e-10
      312.922   1.61620e-10
      313.018   1.59440e-10
      313.115   1.57266e-10
      313.211   1.55142e-10
      313.307   1.53047e-10
      313.404   1.50958e-10
      313.500   1.48918e-10
      313.597   1.46885e-10
      313.693   1.44900e-10
      313.790   1.42920e-10
      313.886   1.40987e-10
      313.983   1.39059e-10
      314.079   1.37177e-10
      314.176   1.35301e-10
      314.273   1.33449e-10
      314.369   1.31642e-10
      314.466   1.29840e-10
      314.563   1.28062e-10
      314.660   1.26309e-10
      314.756   1.24596e-10
      314.853   1.22888e-10
      314.950   1.21204e-10
      315.047   1.19542e-10
      315.144   1.17902e-10
      315.241   1.16285e-10
      315.338   1.14689e-10
      315.435   1.13115e-10
      315.532   1.11562e-10
      315.629   1.10030e-10
      315.726   1.08519e-10
      315.823   1.07026e-10
      315.921   1.05541e-10
      316.018   1.04090e-10
      316.115   1.02658e-10
      316.212   1.01245e-10
      316.310   9.98380e-11
      316.407   9.84638e-11
      316.504   9.71075e-11
      316.602   9.57563e-11
      316.699   9.44373e-11
      316.796   9.31361e-11
      316.894   9.18392e-11
      316.991   9.05781e-11
      317.089   8.93536e-11
      317.187   8.81652e-11
      317.284   8.70025e-11
      317.382   8.58429e-11
      317.479   8.47097e-11
      317.577   8.35803e-11
      317.675   8.24659e-11
      317.773   8.13657e-11
      317.870   8.02911e-11
      317.968   7.92189e-11
      318.066   7.81609e-11
      318.164   7.71168e-11
      318.262   7.60865e-11
      318.360   7.50694e-11
      318.458   7.40660e-11
      318.556   7.30761e-11
      318.654   7.20989e-11
      318.752   7.11342e-11
      318.850   7.01824e-11
      318.948   6.92428e-11
      319.046   6.83155e-11
      319.144   6.74002e-11
      319.242   6.64972e-11
      319.341   6.55970e-11
      319.439   6.47175e-11
      319.537   6.38498e-11
      319.635   6.29933e-11
      319.734   6.21394e-11
      319.832   6.13056e-11
      319.930   6.04823e-11
      320.029   5.96618e-11
      320.127   5.88604e-11
      320.226   5.80614e-11
      320.324   5.72806e-11
      320.423   5.65020e-11
      320.522   5.57347e-11
      320.620   5.49850e-11
      320.719   5.42372e-11
      320.818   5.34996e-11
      320.916   5.27791e-11
      321.015   5.20606e-11
      321.114   5.13517e-11
      321.213   5.06523e-11
      321.311   4.99692e-11
      321.410   4.92885e-11
      321.509   4.86164e-11
      321.608   4.79537e-11
      321.707   4.72996e-11
      321.806   4.66540e-11
      321.905   4.60173e-11
      322.004   4.53888e-11
      322.103   4.47690e-11
      322.202   4.41572e-11
      322.301   4.35537e-11
      322.401   4.29525e-11
      322.500   4.23651e-11
      322.599   4.17856e-11
      322.698   4.12139e-11
      322.798   4.06440e-11
      322.897   4.00873e-11
      322.996   3.95383e-11
      323.096   3.89908e-11
      323.195   3.84562e-11
      323.294   3.79288e-11
      323.394   3.74035e-11
      323.493   3.68901e-11
      323.593   3.63786e-11
      323.692   3.58790e-11
      323.792   3.53813e-11
      323.892   3.48902e-11
      323.991   3.44103e-11
      324.091   3.39324e-11
      324.191   3.34609e-11
      324.291   3.29957e-11
      324.390   3.25416e-11
      324.490   3.20888e-11
      324.590   3.16424e-11
      324.690   3.12020e-11
      324.790   3.07675e-11
      324.890   3.03390e-11
      324.990   2.99161e-11
      325.090   2.94989e-11
      325.190   2.90875e-11
      325.290   2.86820e-11
      325.390   2.82814e-11
      325.490   2.78867e-11
      325.590   2.74973e-11
      325.690   2.71130e-11
      325.790   2.67340e-11
      325.891   2.63565e-11
      325.991   2.59878e-11
      326.091   2.56240e-11
      326.192   2.52618e-11
      326.292   2.49079e-11
      326.392   2.45590e-11
      326.493   2.42114e-11
      326.593   2.38719e-11
      326.694   2.35339e-11
      326.794   2.32037e-11
      326.895   2.28747e-11
      326.995   2.25534e-11
      327.096   2.22335e-11
      327.197   2.19179e-11
      327.297   2.16097e-11
      327.398   2.13027e-11
      327.499   2.10000e-11
      327.599   2.07043e-11
      327.700   2.04098e-11
      327.801   2.01194e-11
      327.902   1.98331e-11
      328.003   1.95506e-11
      328.104   1.92721e-11
      328.205   1.89974e-11
      328.306   1.87265e-11
      328.407   1.84595e-11
      328.508   1.81960e-11
      328.609   1.79362e-11
      328.710   1.76801e-11
      328.811   1.74275e-11
      328.912   1.71784e-11
      329.013   1.69327e-11
      329.115   1.66882e-11
      329.216   1.64494e-11
      329.317   1.62138e-11
      329.419   1.59795e-11
      329.520   1.57504e-11
      329.621   1.55246e-11
      329.723   1.52997e-11
      329.824   1.50803e-11
      329.926   1.48618e-11
      330.027   1.46484e-11
      330.129   1.44359e-11
      330.230   1.42286e-11
      330.332   1.40220e-11
      330.434   1.38184e-11
      330.535   1.36195e-11
      330.637   1.34215e-11
      330.739   1.32264e-11
      330.840   1.30359e-11
      330.942   1.28462e-11
      331.044   1.26592e-11
      331.146   1.24748e-11
      331.248   1.22931e-11
      331.350   1.21139e-11
      331.452   1.19376e-11
      331.554   1.17702e-11
      331.656   1.16151e-11
      331.758   1.14620e-11
      331.860   1.13108e-11
      331.962   1.11615e-11
      332.064   1.10141e-11
      332.166   1.08687e-11
      332.268   1.07250e-11
      332.371   1.05820e-11
      332.473   1.04420e-11
      332.575   1.03037e-11
      332.677   1.01674e-11
      332.780   1.00315e-11
      332.882   9.89853e-12
      332.985   9.76608e-12
      333.087   9.63652e-12
      333.190   9.50743e-12
      333.292   9.37841e-12
      333.395   9.24234e-12
      333.497   9.10665e-12
      333.600   8.97157e-12
      333.702   8.83972e-12
      333.805   8.70861e-12
      333.908   8.57922e-12
      334.011   8.45179e-12
      334.113   8.32741e-12
      334.216   8.20357e-12
      334.319   8.08158e-12
      334.422   7.96133e-12
      334.525   7.84283e-12
      334.628   7.72604e-12
      334.731   7.61101e-12
      334.834   7.49763e-12
      334.937   7.38587e-12
      335.040   7.27569e-12
      335.143   7.16721e-12
      335.246   7.06025e-12
      335.349   6.95487e-12
      335.452   6.85102e-12
      335.555   6.74872e-12
      335.659   6.64689e-12
      335.762   6.54752e-12
      335.865   6.44967e-12
      335.969   6.35226e-12
      336.072   6.25717e-12
      336.175   6.16355e-12
      336.279   6.07041e-12
      336.382   5.97951e-12
      336.486   5.88904e-12
      336.589   5.80076e-12
      336.693   5.71301e-12
      336.796   5.62737e-12
      336.900   5.54215e-12
      337.004   5.45814e-12
      337.107   5.37627e-12
      337.211   5.29476e-12
      337.315   5.21454e-12
      337.419   5.13545e-12
      337.523   5.05751e-12
      337.626   4.98151e-12
      337.730   4.90592e-12
      337.834   4.83143e-12
      337.938   4.75808e-12
      338.042   4.68609e-12
      338.146   4.61639e-12
      338.250   4.54779e-12
      338.354   4.48019e-12
      338.458   4.41354e-12
      338.562   4.34788e-12
      338.667   4.28259e-12
      338.771   4.21883e-12
      338.875   4.15603e-12
      338.979   4.09413e-12
      339.084   4.03261e-12
      339.188   3.97254e-12
      339.292   3.91337e-12
      339.397   3.85448e-12
      339.501   3.79706e-12
      339.606   3.73988e-12
      339.710   3.68412e-12
      339.815   3.62864e-12
      339.919   3.57453e-12
      340.024   3.52066e-12
      340.128   3.46816e-12
      340.233   3.41587e-12
      340.338   3.36442e-12
      340.442   3.31417e-12
      340.547   3.26422e-12
      340.652   3.21498e-12
      340.757   3.16650e-12
      340.862   3.11873e-12
      340.966   3.07213e-12
      341.071   3.02577e-12
      341.176   2.98011e-12
      341.281   2.93512e-12
      341.386   2.89083e-12
      341.491   2.84717e-12
      341.596   2.80419e-12
      341.702   2.76144e-12
      341.807   2.71972e-12
      341.912   2.67863e-12
      342.017   2.63816e-12
      342.122   2.59827e-12
      342.228   2.55865e-12
      342.333   2.51997e-12
      342.438   2.48187e-12
      342.544   2.44401e-12
      342.649   2.40704e-12
      342.754   2.37066e-12
      342.860   2.33446e-12
      342.965   2.29911e-12
      343.071   2.26403e-12
      343.176   2.22978e-12
      343.282   2.19570e-12
      343.388   2.16217e-12
      343.493   2.12969e-12
      343.599   2.09967e-12
      343.705   2.07028e-12
      343.810   2.04155e-12
      343.916   2.01298e-12
      344.022   1.98479e-12
      344.128   1.95700e-12
      344.234   1.92958e-12
      344.340   1.90255e-12
      344.446   1.87589e-12
      344.552   1.84960e-12
      344.658   1.82369e-12
      344.764   1.79815e-12
      344.870   1.77293e-12
      344.976   1.74809e-12
      345.082   1.72359e-12
      345.188   1.69943e-12
      345.294   1.67559e-12
      345.401   1.65188e-12
      345.507   1.62872e-12
      345.613   1.60588e-12
      345.719   1.58335e-12
      345.826   1.56094e-12
      345.932   1.53903e-12
      346.039   1.51724e-12
      346.145   1.49595e-12
      346.252   1.47476e-12
      346.358   1.45406e-12
      346.465   1.43347e-12
      346.571   1.41334e-12
      346.678   1.39331e-12
      346.785   1.37356e-12
      346.891   1.35427e-12
      346.998   1.33509e-12
      347.105   1.31616e-12
      347.212   1.29750e-12
      347.319   1.27910e-12
      347.425   1.26112e-12
      347.532   1.24323e-12
      347.639   1.22560e-12
      347.746   1.20821e-12
      347.853   1.19105e-12
      347.960   1.17415e-12
      348.067   1.15749e-12
      348.174   1.14107e-12
      348.281   1.12486e-12
      348.389   1.10874e-12
      348.496   1.09299e-12
      348.603   1.07748e-12
      348.710   1.06217e-12
      348.818   1.04694e-12
      348.925   1.03205e-12
      349.032   1.01739e-12
      349.140   1.00273e-12
      349.247   9.88410e-13
      349.355   9.74168e-13
      349.462   9.60251e-13
      349.570   9.46389e-13
      349.677   9.32866e-13
      349.785   9.19400e-13
      349.892   9.06253e-13
      350.000   8.93175e-13
      350.100   8.81232e-13
      350.193   8.70265e-13
      350.287   8.59309e-13
      350.380   8.48612e-13
      350.473   8.38044e-13
      350.567   8.27487e-13
      350.660   8.17177e-13
      350.754   8.06886e-13
      350.847   7.96833e-13
      350.941   7.86794e-13
      351.034   7.76984e-13
      351.128   7.67192e-13
      351.221   7.57626e-13
      351.315   7.48070e-13
      351.409   7.38632e-13
      351.502   7.29415e-13
      351.596   7.20214e-13
      351.690   7.11118e-13
      351.783   7.02242e-13
      351.877   6.93378e-13
      351.971   6.84621e-13
      352.065   6.75973e-13
      352.159   6.67432e-13
      352.252   6.59085e-13
      352.346   6.50750e-13
      352.440   6.42524e-13
      352.534   6.34405e-13
      352.628   6.26377e-13
      352.722   6.18448e-13
      352.816   6.10622e-13
      352.910   6.02895e-13
      353.004   5.95264e-13
      353.098   5.87722e-13
      353.192   5.80274e-13
      353.287   5.72844e-13
      353.381   5.65578e-13
      353.475   5.58411e-13
      353.569   5.51325e-13
      353.663   5.44332e-13
      353.758   5.37355e-13
      353.852   5.30536e-13
      353.946   5.23798e-13
      354.041   5.17075e-13
      354.135   5.10506e-13
      354.229   5.04016e-13
      354.324   4.97541e-13
      354.418   4.91214e-13
      354.513   4.84897e-13
      354.607   4.78732e-13
      354.702   4.72543e-13
      354.796   4.66374e-13
      354.891   4.60204e-13
      354.985   4.54182e-13
      355.080   4.48174e-13
      355.175   4.42239e-13
      355.269   4.36445e-13
      355.364   4.30662e-13
      355.459   4.24958e-13
      355.553   4.19381e-13
      355.648   4.13822e-13
      355.743   4.08335e-13
      355.838   4.02911e-13
      355.933   3.97566e-13
      356.027   3.92342e-13
      356.122   3.87128e-13
      356.217   3.81983e-13
      356.312   3.76908e-13
      356.407   3.71894e-13
      356.502   3.66946e-13
      356.597   3.62061e-13
      356.692   3.57241e-13
      356.787   3.52483e-13
      356.882   3.47783e-13
      356.977   3.43149e-13
      357.073   3.38527e-13
      357.168   3.34007e-13
      357.263   3.29550e-13
      357.358   3.25149e-13
      357.453   3.20807e-13
      357.549   3.16476e-13
      357.644   3.12245e-13
      357.739   3.08071e-13
      357.835   3.03904e-13
      357.930   2.99837e-13
      358.025   2.95822e-13
      358.121   2.91818e-13
      358.216   2.87907e-13
      358.312   2.84005e-13
      358.407   2.80197e-13
      358.503   2.76398e-13
      358.598   2.72689e-13
      358.694   2.68989e-13
      358.790   2.65336e-13
      358.885   2.61768e-13
      358.981   2.58211e-13
      359.076   2.54738e-13
      359.172   2.51275e-13
      359.268   2.47854e-13
      359.364   2.44479e-13
      359.459   2.41187e-13
      359.555   2.37900e-13
      359.651   2.34657e-13
      359.747   2.31457e-13
      359.843   2.28299e-13
      359.939   2.25182e-13
      360.035   2.22108e-13
      360.131   2.19076e-13
      360.227   2.16079e-13
      360.323   2.13125e-13
      360.419   2.10211e-13
      360.515   2.07335e-13
      360.611   2.04495e-13
      360.707   2.01691e-13
      360.803   1.98929e-13
      360.899   1.96200e-13
      360.995   1.93510e-13
      361.092   1.90827e-13
      361.188   1.88206e-13
      361.284   1.85621e-13
      361.380   1.83070e-13
      361.477   1.80526e-13
      361.573   1.78042e-13
      361.669   1.75593e-13
      361.766   1.73149e-13
      361.862   1.70764e-13
      361.959   1.68387e-13
      362.055   1.66062e-13
      362.152   1.63749e-13
      362.248   1.61488e-13
      362.345   1.59234e-13
      362.441   1.57034e-13
      362.538   1.54842e-13
      362.635   1.52679e-13
      362.731   1.50565e-13
      362.828   1.48459e-13
      362.925   1.46382e-13
      363.021   1.44353e-13
      363.118   1.42332e-13
      363.215   1.40337e-13
      363.312   1.38369e-13
      363.409   1.36428e-13
      363.505   1.34533e-13
      363.602   1.32643e-13
      363.699   1.30780e-13
      363.796   1.28942e-13
      363.893   1.27129e-13
      363.990   1.25341e-13
      364.087   1.23576e-13
      364.184   1.21836e-13
      364.281   1.20119e-13
      364.378   1.18426e-13
      364.475   1.16756e-13
      364.573   1.15092e-13
      364.670   1.13467e-13
      364.767   1.11864e-13
      364.864   1.10284e-13
      364.961   1.08724e-13
      365.059   1.07171e-13
      365.156   1.05655e-13
      365.253   1.04159e-13
      365.351   1.02668e-13
      365.448   1.01213e-13
      365.545   9.97787e-14
      365.643   9.83488e-14
      365.740   9.69525e-14
      365.838   9.55620e-14
      365.935   9.42049e-14
      366.033   9.28528e-14
      366.130   9.15323e-14
      366.228   9.02173e-14
      366.326   8.89207e-14
      366.423   8.76550e-14
      366.521   8.63941e-14
      366.618   8.51625e-14
      366.716   8.39359e-14
      366.814   8.27272e-14
      366.912   8.15354e-14
      367.010   8.03592e-14
      367.107   7.92115e-14
      367.205   7.80679e-14
      367.303   7.69407e-14
      367.401   7.58293e-14
      367.499   7.47330e-14
      367.597   7.36524e-14
      367.695   7.25871e-14
      367.793   7.15369e-14
      367.891   7.05015e-14
      367.989   6.94797e-14
      368.087   6.84729e-14
      368.185   6.74805e-14
      368.283   6.65015e-14
      368.381   6.55361e-14
      368.480   6.45752e-14
      368.578   6.36373e-14
      368.676   6.27129e-14
      368.774   6.18016e-14
      368.873   6.08939e-14
      368.971   6.00081e-14
      369.069   5.91347e-14
      369.168   5.82646e-14
      369.266   5.74159e-14
      369.364   5.65792e-14
      369.463   5.57461e-14
      369.561   5.49332e-14
      369.660   5.41237e-14
      369.758   5.33336e-14
      369.857   5.25472e-14
      369.955   5.17798e-14
      370.054   5.10153e-14
      370.153   5.02619e-14
      370.251   4.95270e-14
      370.350   4.87952e-14
      370.449   4.80742e-14
      370.547   4.73704e-14
      370.646   4.66692e-14
      370.745   4.59788e-14
      370.844   4.52982e-14
      370.943   4.46274e-14
      371.041   4.39730e-14
      371.140   4.33210e-14
      371.239   4.26786e-14
      371.338   4.20458e-14
      371.437   4.14222e-14
      371.536   4.08076e-14
      371.635   4.02015e-14
      371.734   3.96045e-14
      371.833   3.90163e-14
      371.932   3.84365e-14
      372.032   3.78594e-14
      372.131   3.72962e-14
      372.230   3.67417e-14
      372.329   3.61952e-14
      372.428   3.56563e-14
      372.528   3.51203e-14
      372.627   3.45976e-14
      372.726   3.40823e-14
      372.826   3.35694e-14
      372.925   3.30691e-14
      373.024   3.25760e-14
      373.124   3.20851e-14
      373.223   3.16067e-14
      373.323   3.11306e-14
      373.422   3.06659e-14
      373.522   3.02034e-14
      373.621   2.97526e-14
      373.721   2.93038e-14
      373.820   2.88660e-14
      373.920   2.84303e-14
      374.020   2.80008e-14
      374.119   2.75823e-14
      374.219   2.71655e-14
      374.319   2.67552e-14
      374.419   2.63512e-14
      374.518   2.59567e-14
      374.618   2.55643e-14
      374.718   2.51773e-14
      374.818   2.47967e-14
      374.918   2.44218e-14
      375.018   2.40521e-14
      375.118   2.36882e-14
      375.218   2.33294e-14
      375.318   2.29762e-14
      375.418   2.26280e-14
      375.518   2.22855e-14
      375.618   2.19479e-14
      375.718   2.16152e-14
      375.818   2.12876e-14
      375.918   2.09649e-14
      376.019   2.06440e-14
      376.119   2.03309e-14
      376.219   2.00226e-14
      376.319   1.97187e-14
      376.420   1.94167e-14
      376.520   1.91220e-14
      376.620   1.88319e-14
      376.721   1.85431e-14
      376.821   1.82617e-14
      376.922   1.79817e-14
      377.022   1.77085e-14
      377.122   1.74396e-14
      377.223   1.71721e-14
      377.323   1.69114e-14
      377.424   1.66518e-14
      377.525   1.63963e-14
      377.625   1.61471e-14
      377.726   1.58993e-14
      377.827   1.56553e-14
      377.927   1.54172e-14
      378.028   1.51806e-14
      378.129   1.49474e-14
      378.230   1.47180e-14
      378.330   1.44947e-14
      378.431   1.42725e-14
      378.532   1.40540e-14
      378.633   1.38385e-14
      378.734   1.36264e-14
      378.835   1.34175e-14
      378.936   1.32119e-14
      379.037   1.30094e-14
      379.138   1.28098e-14
      379.239   1.26134e-14
      379.340   1.24200e-14
      379.441   1.22296e-14
      379.542   1.20420e-14
      379.643   1.18573e-14
      379.745   1.16737e-14
      379.846   1.14945e-14
      379.947   1.13181e-14
      380.048   1.11445e-14
      380.150   1.09718e-14
      380.251   1.08034e-14
      380.352   1.06377e-14
      380.454   1.04729e-14
      380.555   1.03121e-14
      380.656   1.01538e-14
      380.758   9.99637e-15
      380.859   9.84291e-15
      380.961   9.69040e-15
      381.062   9.54164e-15
      381.164   9.39368e-15
      381.266   9.24803e-15
      381.367   9.10602e-15
      381.469   8.96483e-15
      381.570   8.82721e-15
      381.672   8.69034e-15
      381.774   8.55554e-15
      381.876   8.42284e-15
      381.977   8.29349e-15
      382.079   8.16488e-15
      382.181   8.03822e-15
      382.283   7.91362e-15
      382.385   7.79087e-15
      382.487   7.66993e-15
      382.589   7.55099e-15
      382.691   7.43385e-15
      382.793   7.31854e-15
      382.895   7.20501e-15
      382.997   7.09320e-15
      383.099   6.98313e-15
      383.201   6.87482e-15
      383.303   6.76811e-15
      383.405   6.66308e-15
      383.507   6.55965e-15
      383.610   6.45689e-15
      383.712   6.35665e-15
      383.814   6.25806e-15
      383.916   6.16095e-15
      384.019   6.06438e-15
      384.121   5.97024e-15
      384.223   5.87756e-15
      384.326   5.78548e-15
      384.428   5.69560e-15
      384.531   5.60624e-15
      384.633   5.51914e-15
      384.736   5.43254e-15
      384.838   5.34809e-15
      384.941   5.26417e-15
      385.043   5.18233e-15
      385.146   5.10102e-15
      385.249   5.02097e-15
      385.351   4.94292e-15
      385.454   4.86532e-15
      385.557   4.78897e-15
      385.660   4.71378e-15
      385.762   4.64051e-15
      385.865   4.56766e-15
      385.968   4.49593e-15
      386.071   4.42531e-15
      386.174   4.35581e-15
      386.277   4.28743e-15
      386.380   4.22009e-15
      386.483   4.15379e-15
      386.586   4.08858e-15
      386.689   4.02435e-15
      386.792   3.96112e-15
      386.895   3.89889e-15
      386.998   3.83763e-15
      387.101   3.77734e-15
      387.204   3.71793e-15
      387.308   3.65893e-15
      387.411   3.60141e-15
      387.514   3.54479e-15
      387.617   3.48906e-15
      387.721   3.43369e-15
      387.824   3.37969e-15
      387.927   3.32650e-15
      388.031   3.27367e-15
      388.134   3.22218e-15
      388.238   3.17102e-15
      388.341   3.12111e-15
      388.445   3.07152e-15
      388.548   3.02314e-15
      388.652   2.97511e-15
      388.755   2.92828e-15
      388.859   2.88172e-15
      388.962   2.83635e-15
      389.066   2.79122e-15
      389.170   2.74686e-15
      389.274   2.70316e-15
      389.377   2.66056e-15
      389.481   2.61820e-15
      389.585   2.57655e-15
      389.689   2.53553e-15
      389.793   2.49515e-15
      389.897   2.45543e-15
      390.000   2.41669e-15
      390.104   2.37821e-15
      390.208   2.34030e-15
      390.312   2.30301e-15
      390.416   2.26629e-15
      390.520   2.23012e-15
      390.625   2.19416e-15
      390.729   2.15915e-15
      390.833   2.12467e-15
      390.937   2.09073e-15
      391.041   2.05734e-15
      391.145   2.02448e-15
      391.250   1.99181e-15
      391.354   1.95998e-15
      391.458   1.92864e-15
      391.563   1.89750e-15
      391.667   1.86715e-15
      391.771   1.83728e-15
      391.876   1.80758e-15
      391.980   1.77864e-15
      392.085   1.74989e-15
      392.189   1.72186e-15
      392.294   1.69400e-15
      392.398   1.66686e-15
      392.503   1.63988e-15
      392.607   1.61359e-15
      392.712   1.58747e-15
      392.817   1.56174e-15
      392.921   1.53669e-15
      393.026   1.51178e-15
      393.131   1.48728e-15
      393.236   1.46314e-15
      393.340   1.43963e-15
      393.445   1.41628e-15
      393.550   1.39329e-15
      393.655   1.37066e-15
      393.760   1.34840e-15
      393.865   1.32649e-15
      393.970   1.30494e-15
      394.075   1.28371e-15
      394.180   1.26284e-15
      394.285   1.24230e-15
      394.390   1.22208e-15
      394.495   1.20217e-15
      394.600   1.18260e-15
      394.706   1.16315e-15
      394.811   1.14420e-15
      394.916   1.12553e-15
      395.021   1.10717e-15
      395.126   1.08911e-15
      395.232   1.07116e-15
      395.337   1.05366e-15
      395.443   1.03629e-15
      395.548   1.01935e-15
      395.653   1.00269e-15
      395.759   9.86131e-16
      395.864   9.70000e-16
      395.970   9.53973e-16
      396.075   9.38352e-16
      396.181   9.22831e-16
      396.286   9.07699e-16
      396.392   8.92685e-16
      396.498   8.77908e-16
      396.603   8.63491e-16
      396.709   8.49184e-16
      396.815   8.35101e-16
      396.921   8.21242e-16
      397.026   8.07748e-16
      397.132   7.94336e-16
      397.238   7.81151e-16
      397.344   7.68162e-16
      397.450   7.55408e-16
      397.556   7.42839e-16
      397.662   7.30478e-16
      397.768   7.18324e-16
      397.874   7.06362e-16
      397.980   6.94593e-16
      398.086   6.83011e-16
      398.192   6.71625e-16
      398.298   6.60417e-16
      398.404   6.49393e-16
      398.510   6.38545e-16
      398.617   6.27783e-16
      398.723   6.17288e-16
      398.829   6.06960e-16
      398.935   5.96801e-16
      399.042   5.86719e-16
      399.148   5.76886e-16
      399.255   5.67132e-16
      399.361   5.57625e-16
      399.467   5.48261e-16
      399.574   5.38978e-16
      399.680   5.29924e-16
      399.787   5.20934e-16
      399.893       0.00000
      400.000       0.00000
