Filter Al-thick
observation_date 2021-09-22 22:45:45
wavelength effective area
      1.00000   2.52796e-10
      1.10000   6.99231e-10
      1.20000   1.75056e-09
      1.30000   4.00500e-09
      1.40000   8.63385e-09
      1.50000   1.73695e-08
      1.60000   3.28989e-08
      1.70000   5.92532e-08
      1.80000   1.01463e-07
      1.90000   1.66197e-07
      2.00000   2.60863e-07
      2.10000   3.93888e-07
      2.20000   5.74568e-07
      2.30000   8.08491e-07
      2.40000   1.09910e-06
      2.50000   1.43835e-06
      2.60000   1.85768e-06
      2.70000   2.31638e-06
      2.80000   2.80058e-06
      2.90000   3.30649e-06
      3.00000   3.79657e-06
      3.10000   4.24847e-06
      3.20000   4.64048e-06
      3.30000   4.95015e-06
      3.40000   5.15619e-06
      3.50000   5.24844e-06
      3.60000   5.23830e-06
      3.70000   5.10667e-06
      3.80000   4.88309e-06
      3.90000   4.57778e-06
      4.00000   4.20501e-06
      4.10000   3.78882e-06
      4.20000   3.35201e-06
      4.30000   2.91303e-06
      4.40000   2.48762e-06
      4.50000   2.08731e-06
      4.60000   1.71981e-06
      4.70000   1.39612e-06
      4.80000   1.11485e-06
      4.90000   8.65841e-07
      5.00000   6.79650e-07
      5.10000   5.18301e-07
      5.20000   3.90631e-07
      5.30000   2.87429e-07
      5.40000   2.08102e-07
      5.50000   1.48870e-07
      5.60000   1.01589e-07
      5.70000   7.18554e-08
      5.80000   4.51249e-08
      5.90000   3.65401e-08
      6.00000   2.57044e-08
      6.10000   1.69541e-08
      6.20000   1.07826e-08
      6.30000   6.46303e-09
      6.40000   3.64746e-09
      6.50000   1.94485e-09
      6.60000   9.73458e-10
      6.70000   4.69442e-10
      6.80000   2.19317e-10
      6.90000   1.32079e-10
      7.00000   6.59245e-11
      7.10000   3.13970e-11
      7.20000   1.44809e-11
      7.30000   6.58458e-12
      7.40000   3.04849e-12
      7.50000   1.35204e-12
      7.60000   5.72506e-13
      7.70000   2.49925e-13
      7.80000   1.03047e-13
      7.90000   4.15240e-14
      8.00000     0.0716876
      8.10000     0.0717347
      8.20000     0.0664619
      8.30000     0.0611581
      8.40000     0.0562264
      8.50000     0.0515413
      8.60000     0.0471350
      8.70000     0.0429609
      8.80000     0.0390596
      8.90000     0.0353858
      9.00000     0.0319679
      9.10000     0.0287983
      9.20000     0.0258490
      9.30000     0.0231609
      9.40000     0.0206838
      9.50000     0.0184061
      9.60000     0.0163570
      9.70000     0.0144883
      9.80000     0.0127824
      9.90000     0.0112477
      10.0000    0.00986815
      10.1000    0.00862448
      10.2000    0.00750812
      10.3000    0.00652191
      10.4000    0.00565378
      10.5000    0.00488486
      10.6000    0.00420646
      10.7000    0.00361012
      10.8000    0.00309055
      10.9000    0.00264212
      11.0000    0.00225156
      11.1000    0.00191263
      11.2000    0.00161953
      11.3000    0.00136703
      11.4000    0.00115025
      11.5000   0.000964785
      11.6000   0.000806679
      11.7000   0.000673708
      11.8000   0.000561079
      11.9000   0.000466834
      12.0000   0.000387419
      12.1000   0.000322087
      12.2000   0.000272109
      12.3000   0.000226242
      12.4000   0.000185866
      12.5000   0.000152101
      12.6000   0.000124036
      12.7000   0.000100805
      12.8000   8.16620e-05
      12.9000   6.59536e-05
      13.0000   5.31028e-05
      13.1000   4.26197e-05
      13.2000   3.40955e-05
      13.3000   2.71855e-05
      13.4000   2.16031e-05
      13.5000   1.71172e-05
      13.6000   1.35812e-05
      13.7000   1.07424e-05
      13.8000   8.46924e-06
      13.9000   6.65444e-06
      14.0000   5.20969e-06
      14.1000   4.06293e-06
      14.2000   3.15566e-06
      14.3000   2.44053e-06
      14.4000   1.87914e-06
      14.5000   1.44636e-06
      14.6000   1.11637e-06
      14.7000   8.57607e-07
      14.8000   6.55461e-07
      14.9000   4.98215e-07
      15.0000   3.76492e-07
      15.1000   2.82764e-07
      15.2000   2.14348e-07
      15.3000   1.61909e-07
      15.4000   1.21432e-07
      15.5000   9.03997e-08
      15.6000   6.67800e-08
      15.7000   4.95232e-08
      15.8000   3.69530e-08
      15.9000   2.73273e-08
      16.0000   2.00275e-08
      16.1000   1.45465e-08
      16.2000   1.07325e-08
      16.3000   7.89767e-09
      16.4000   5.74253e-09
      16.5000   4.12643e-09
      16.6000   2.98528e-09
      16.7000   2.17823e-09
      16.8000   1.56497e-09
      16.9000   1.10778e-09
      17.0000   7.92205e-10
      17.1000   5.70887e-10
      17.2000   4.03615e-10
      17.3000   2.80369e-10
      17.4000   2.01164e-10
      17.5000   1.43454e-10
      17.6000   1.00574e-10
      17.7000   7.07260e-11
      17.8000   5.13566e-11
      17.9000   3.64433e-11
      18.0000   2.52770e-11
      18.1000   1.82151e-11
      18.2000   1.27957e-11
      18.3000   8.70311e-12
      18.4000   6.05073e-12
      18.5000   4.14727e-12
      18.6000   2.72463e-12
      18.7000   1.82045e-12
      18.8000   1.21382e-12
      18.9000   7.73541e-13
      19.0000   5.11203e-13
      19.1000   3.36884e-13
      19.2000   2.11473e-13
      19.3000   1.40407e-13
      19.4000   9.15726e-14
      19.5000   5.68048e-14
      19.6000   3.83346e-14
      19.7000   2.46933e-14
      19.8000   1.53206e-14
      19.9000   1.03984e-14
      20.0000   6.55958e-15
      20.1000   4.19963e-15
      20.2000   2.75402e-15
      20.3000   1.68042e-15
      20.4000   1.11086e-15
      20.5000   6.98429e-16
      20.6000   4.25632e-16
      20.7000   2.80564e-16
      20.8000   1.68170e-16
      20.9000   1.08268e-16
      21.0000   6.70460e-17
      21.1000   3.97789e-17
      21.2000   2.59097e-17
      21.3000   1.50617e-17
      21.4000   9.66468e-18
      21.5000   5.79079e-18
      21.6000   3.45852e-18
      21.7000   2.16640e-18
      21.8000   1.20233e-18
      21.9000   7.89065e-19
      22.0000   4.48864e-19
      22.1000   2.78987e-19
      22.2000   1.63410e-19
      22.3000   9.48912e-20
      22.4000   5.73582e-20
      22.5000   2.97360e-20
      22.6000   1.80331e-20
      22.7000   8.43366e-21
      22.8000   6.35309e-21
      22.9000   4.66204e-21
      23.0000   3.62064e-21
      23.1000   2.61969e-21
      23.2000   1.66716e-21
      23.3000   1.04788e-21
      23.4000   5.95227e-22
      23.5000   3.68995e-22
      23.6000   1.98131e-22
      23.7000   1.26958e-22
      23.8000   6.52666e-23
      23.9000   4.26203e-23
      24.0000   2.19495e-23
      24.1000   1.40385e-23
      24.2000   7.22667e-24
      24.3000   4.54007e-24
      24.4000   2.34092e-24
      24.5000   1.44954e-24
      24.6000   7.48749e-25
      24.7000   4.58104e-25
      24.8000   2.36344e-25
      24.9000   1.43868e-25
      25.0000   7.42835e-26
      25.1000   4.49903e-26
      25.2000   2.30078e-26
      25.3000   1.39508e-26
      25.4000   7.05953e-27
      25.5000   4.29206e-27
      25.6000   2.12953e-27
      25.7000   1.30401e-27
      25.8000   6.31926e-28
      25.9000   3.90991e-28
      26.0000   1.84043e-28
      26.1000   1.15444e-28
      26.2000   5.25722e-29
      26.3000   3.35193e-29
      26.4000   1.47102e-29
      26.5000   9.55277e-30
      26.6000   4.42377e-30
      26.7000   2.66737e-30
      26.8000   1.31589e-30
      26.9000   7.28896e-31
      27.0000   3.82143e-31
      27.1000   1.94595e-31
      27.2000   1.07983e-31
      27.3000   5.06730e-32
      27.4000   2.97317e-32
      27.5000   1.29848e-32
      27.6000   7.97773e-33
      27.7000   3.21408e-33
      27.8000   2.06140e-33
      27.9000   9.15056e-34
      28.0000   5.14290e-34
      28.1000   2.59569e-34
      28.2000   1.24886e-34
      28.3000   7.01301e-35
      28.4000   3.02446e-35
      28.5000   1.83454e-35
      28.6000   7.16221e-36
      28.7000   4.67448e-36
      28.8000   2.20074e-36
      28.9000   1.21666e-36
      29.0000   6.58417e-37
      29.1000   3.04905e-37
      29.2000   1.82328e-37
      29.3000   7.36692e-38
      29.4000   4.74827e-38
      29.5000   2.14466e-38
      29.6000   1.17304e-38
      29.7000   6.32424e-39
      29.8000   2.76404e-39
      29.9000   1.67333e-39
      30.0000   6.23312e-40
      30.1000   4.09609e-40
      30.2000   1.97132e-40
      30.3000   9.45582e-41
      30.4000   5.47641e-41
      30.5000   2.18659e-41
      30.6000   1.39233e-41
      30.7000   6.03259e-42
      30.8000   3.11509e-42
      30.9000   1.70678e-42
      31.0000   6.58610e-43
      31.1000   4.11982e-43
      31.2000   1.66755e-43
      31.3000   9.24857e-44
      31.4000   4.48416e-44
      31.5000   1.96182e-44
      31.6000   9.80909e-45
      31.7000   2.80260e-45
      31.8000   2.80260e-45
      31.9000   2.80260e-45
      32.0000       0.00000
      32.1000       0.00000
      32.2000       0.00000
      32.3000       0.00000
      32.4000       0.00000
      32.5000       0.00000
      32.6000       0.00000
      32.7000       0.00000
      32.8000       0.00000
      32.9000       0.00000
      33.0000       0.00000
      33.1000       0.00000
      33.2000       0.00000
      33.3000       0.00000
      33.4000       0.00000
      33.5000       0.00000
      33.6000       0.00000
      33.7000       0.00000
      33.8000       0.00000
      33.9000       0.00000
      34.0000       0.00000
      34.1000       0.00000
      34.2000       0.00000
      34.3000       0.00000
      34.4000       0.00000
      34.5000       0.00000
      34.6000       0.00000
      34.7000       0.00000
      34.8000       0.00000
      34.9000       0.00000
      35.0000       0.00000
      35.1000       0.00000
      35.2000       0.00000
      35.3000       0.00000
      35.4000       0.00000
      35.5000       0.00000
      35.6000       0.00000
      35.7000       0.00000
      35.8000       0.00000
      35.9000       0.00000
      36.0000       0.00000
      36.1000       0.00000
      36.2000       0.00000
      36.3000       0.00000
      36.4000       0.00000
      36.5000       0.00000
      36.6000       0.00000
      36.7000       0.00000
      36.8000       0.00000
      36.9000       0.00000
      37.0000       0.00000
      37.1000       0.00000
      37.2000       0.00000
      37.3000       0.00000
      37.4000       0.00000
      37.5000       0.00000
      37.6000       0.00000
      37.7000       0.00000
      37.8000       0.00000
      37.9000       0.00000
      38.0000       0.00000
      38.1000       0.00000
      38.2000       0.00000
      38.3000       0.00000
      38.4000       0.00000
      38.5000       0.00000
      38.6000       0.00000
      38.7000       0.00000
      38.8000       0.00000
      38.9000       0.00000
      39.0000       0.00000
      39.1000       0.00000
      39.2000       0.00000
      39.3000       0.00000
      39.4000       0.00000
      39.5000       0.00000
      39.6000       0.00000
      39.7000       0.00000
      39.8000       0.00000
      39.9000       0.00000
      40.0000       0.00000
      40.1000       0.00000
      40.2000       0.00000
      40.3000       0.00000
      40.4000       0.00000
      40.5000       0.00000
      40.6000       0.00000
      40.7000       0.00000
      40.8000       0.00000
      40.9000       0.00000
      41.0000       0.00000
      41.1000       0.00000
      41.2000       0.00000
      41.3000       0.00000
      41.4000       0.00000
      41.5000       0.00000
      41.6000       0.00000
      41.7000       0.00000
      41.8000       0.00000
      41.9000       0.00000
      42.0000       0.00000
      42.1000       0.00000
      42.2000       0.00000
      42.3000       0.00000
      42.4000       0.00000
      42.5000       0.00000
      42.6000       0.00000
      42.7000       0.00000
      42.8000       0.00000
      42.9000       0.00000
      43.0000       0.00000
      43.1000       0.00000
      43.2000       0.00000
      43.3000       0.00000
      43.4000       0.00000
      43.5000       0.00000
      43.6000       0.00000
      43.7000       0.00000
      43.8000       0.00000
      43.9000       0.00000
      44.0000       0.00000
      44.1000       0.00000
      44.2000       0.00000
      44.3000       0.00000
      44.4000       0.00000
      44.5000       0.00000
      44.6000       0.00000
      44.7000       0.00000
      44.8000       0.00000
      44.9000       0.00000
      45.0000       0.00000
      45.1000       0.00000
      45.2000       0.00000
      45.3000       0.00000
      45.4000       0.00000
      45.5000       0.00000
      45.6000       0.00000
      45.7000       0.00000
      45.8000       0.00000
      45.9000       0.00000
      46.0000       0.00000
      46.1000       0.00000
      46.2000       0.00000
      46.3000       0.00000
      46.4000       0.00000
      46.5000       0.00000
      46.6000       0.00000
      46.7000       0.00000
      46.8000       0.00000
      46.9000       0.00000
      47.0000       0.00000
      47.1000       0.00000
      47.2000       0.00000
      47.3000       0.00000
      47.4000       0.00000
      47.5000       0.00000
      47.6000       0.00000
      47.7000       0.00000
      47.8000       0.00000
      47.9000       0.00000
      48.0000       0.00000
      48.1000       0.00000
      48.2000       0.00000
      48.3000       0.00000
      48.4000       0.00000
      48.5000       0.00000
      48.6000       0.00000
      48.7000       0.00000
      48.8000       0.00000
      48.9000       0.00000
      49.0000       0.00000
      49.1000       0.00000
      49.2000       0.00000
      49.3000       0.00000
      49.4000       0.00000
      49.5000       0.00000
      49.6000       0.00000
      49.7000       0.00000
      49.8000       0.00000
      49.9000       0.00000
      50.0000       0.00000
      50.1000       0.00000
      50.2000       0.00000
      50.3000       0.00000
      50.4000       0.00000
      50.5000       0.00000
      50.6000       0.00000
      50.7000       0.00000
      50.8000       0.00000
      50.9000       0.00000
      51.0000       0.00000
      51.1000       0.00000
      51.2000       0.00000
      51.3000       0.00000
      51.4000       0.00000
      51.5000       0.00000
      51.6000       0.00000
      51.7000       0.00000
      51.8000       0.00000
      51.9000       0.00000
      52.0000       0.00000
      52.1000       0.00000
      52.2000       0.00000
      52.3000       0.00000
      52.4000       0.00000
      52.5000       0.00000
      52.6000       0.00000
      52.7000       0.00000
      52.8000       0.00000
      52.9000       0.00000
      53.0000       0.00000
      53.1000       0.00000
      53.2000       0.00000
      53.3000       0.00000
      53.4000       0.00000
      53.5000       0.00000
      53.6000       0.00000
      53.7000       0.00000
      53.8000       0.00000
      53.9000       0.00000
      54.0000       0.00000
      54.1000       0.00000
      54.2000       0.00000
      54.3000       0.00000
      54.4000       0.00000
      54.5000       0.00000
      54.6000       0.00000
      54.7000       0.00000
      54.8000       0.00000
      54.9000       0.00000
      55.0000       0.00000
      55.1000       0.00000
      55.2000       0.00000
      55.3000       0.00000
      55.4000       0.00000
      55.5000       0.00000
      55.6000       0.00000
      55.7000       0.00000
      55.8000       0.00000
      55.9000       0.00000
      56.0000       0.00000
      56.1000       0.00000
      56.2000       0.00000
      56.3000       0.00000
      56.4000       0.00000
      56.5000       0.00000
      56.6000       0.00000
      56.7000       0.00000
      56.8000       0.00000
      56.9000       0.00000
      57.0000       0.00000
      57.1000       0.00000
      57.2000       0.00000
      57.3000       0.00000
      57.4000       0.00000
      57.5000       0.00000
      57.6000       0.00000
      57.7000       0.00000
      57.8000       0.00000
      57.9000       0.00000
      58.0000       0.00000
      58.1000       0.00000
      58.2000       0.00000
      58.3000       0.00000
      58.4000       0.00000
      58.5000       0.00000
      58.6000       0.00000
      58.7000       0.00000
      58.8000       0.00000
      58.9000       0.00000
      59.0000       0.00000
      59.1000       0.00000
      59.2000       0.00000
      59.3000       0.00000
      59.4000       0.00000
      59.5000       0.00000
      59.6000       0.00000
      59.7000       0.00000
      59.8000       0.00000
      59.9000       0.00000
      60.0000       0.00000
      60.1000       0.00000
      60.2000       0.00000
      60.3000       0.00000
      60.4000       0.00000
      60.5000       0.00000
      60.6000       0.00000
      60.7000       0.00000
      60.8000       0.00000
      60.9000       0.00000
      61.0000       0.00000
      61.1000       0.00000
      61.2000       0.00000
      61.3000       0.00000
      61.4000       0.00000
      61.5000       0.00000
      61.6000       0.00000
      61.7000       0.00000
      61.8000       0.00000
      61.9000       0.00000
      62.0000       0.00000
      62.1000       0.00000
      62.2000       0.00000
      62.3000       0.00000
      62.4000       0.00000
      62.5000       0.00000
      62.6000       0.00000
      62.7000       0.00000
      62.8000       0.00000
      62.9000       0.00000
      63.0000       0.00000
      63.1000       0.00000
      63.2000       0.00000
      63.3000       0.00000
      63.4000       0.00000
      63.5000       0.00000
      63.6000       0.00000
      63.7000       0.00000
      63.8000       0.00000
      63.9000       0.00000
      64.0000       0.00000
      64.1000       0.00000
      64.2000       0.00000
      64.3000       0.00000
      64.4000       0.00000
      64.5000       0.00000
      64.6000       0.00000
      64.7000       0.00000
      64.8000       0.00000
      64.9000       0.00000
      65.0000       0.00000
      65.1000       0.00000
      65.2000       0.00000
      65.3000       0.00000
      65.4000       0.00000
      65.5000       0.00000
      65.6000       0.00000
      65.7000       0.00000
      65.8000       0.00000
      65.9000       0.00000
      66.0000       0.00000
      66.1000       0.00000
      66.2000       0.00000
      66.3000       0.00000
      66.4000       0.00000
      66.5000       0.00000
      66.6000       0.00000
      66.7000       0.00000
      66.8000       0.00000
      66.9000       0.00000
      67.0000       0.00000
      67.1000       0.00000
      67.2000       0.00000
      67.3000       0.00000
      67.4000       0.00000
      67.5000       0.00000
      67.6000       0.00000
      67.7000       0.00000
      67.8000       0.00000
      67.9000       0.00000
      68.0000       0.00000
      68.1000       0.00000
      68.2000       0.00000
      68.3000       0.00000
      68.4000       0.00000
      68.5000       0.00000
      68.6000       0.00000
      68.7000       0.00000
      68.8000       0.00000
      68.9000       0.00000
      69.0000       0.00000
      69.1000       0.00000
      69.2000       0.00000
      69.3000       0.00000
      69.4000       0.00000
      69.5000       0.00000
      69.6000       0.00000
      69.7000       0.00000
      69.8000       0.00000
      69.9000       0.00000
      70.0000       0.00000
      70.1000       0.00000
      70.2000       0.00000
      70.3000       0.00000
      70.4000       0.00000
      70.5000       0.00000
      70.6000       0.00000
      70.7000       0.00000
      70.8000       0.00000
      70.9000       0.00000
      71.0000       0.00000
      71.1000       0.00000
      71.2000       0.00000
      71.3000       0.00000
      71.4000       0.00000
      71.5000       0.00000
      71.6000       0.00000
      71.7000       0.00000
      71.8000       0.00000
      71.9000       0.00000
      72.0000       0.00000
      72.1000       0.00000
      72.2000       0.00000
      72.3000       0.00000
      72.4000       0.00000
      72.5000       0.00000
      72.6000       0.00000
      72.7000       0.00000
      72.8000       0.00000
      72.9000       0.00000
      73.0000       0.00000
      73.1000       0.00000
      73.2000       0.00000
      73.3000       0.00000
      73.4000       0.00000
      73.5000       0.00000
      73.6000       0.00000
      73.7000       0.00000
      73.8000       0.00000
      73.9000       0.00000
      74.0000       0.00000
      74.1000       0.00000
      74.2000       0.00000
      74.3000       0.00000
      74.4000       0.00000
      74.5000       0.00000
      74.6000       0.00000
      74.7000       0.00000
      74.8000       0.00000
      74.9000       0.00000
      75.0000       0.00000
      75.1000       0.00000
      75.2000       0.00000
      75.3000       0.00000
      75.4000       0.00000
      75.5000       0.00000
      75.6000       0.00000
      75.7000       0.00000
      75.8000       0.00000
      75.9000       0.00000
      76.0000       0.00000
      76.1000       0.00000
      76.2000       0.00000
      76.3000       0.00000
      76.4000       0.00000
      76.5000       0.00000
      76.6000       0.00000
      76.7000       0.00000
      76.8000       0.00000
      76.9000       0.00000
      77.0000       0.00000
      77.1000       0.00000
      77.2000       0.00000
      77.3000       0.00000
      77.4000       0.00000
      77.5000       0.00000
      77.6000       0.00000
      77.7000       0.00000
      77.8000       0.00000
      77.9000       0.00000
      78.0000       0.00000
      78.1000       0.00000
      78.2000       0.00000
      78.3000       0.00000
      78.4000       0.00000
      78.5000       0.00000
      78.6000       0.00000
      78.7000       0.00000
      78.8000       0.00000
      78.9000       0.00000
      79.0000       0.00000
      79.1000       0.00000
      79.2000       0.00000
      79.3000       0.00000
      79.4000       0.00000
      79.5000       0.00000
      79.6000       0.00000
      79.7000       0.00000
      79.8000       0.00000
      79.9000       0.00000
      80.0000       0.00000
      80.1000       0.00000
      80.2000       0.00000
      80.3000       0.00000
      80.4000       0.00000
      80.5000       0.00000
      80.6000       0.00000
      80.7000       0.00000
      80.8000       0.00000
      80.9000       0.00000
      81.0000       0.00000
      81.1000       0.00000
      81.2000       0.00000
      81.3000       0.00000
      81.4000       0.00000
      81.5000       0.00000
      81.6000       0.00000
      81.7000       0.00000
      81.8000       0.00000
      81.9000       0.00000
      82.0000       0.00000
      82.1000       0.00000
      82.2000       0.00000
      82.3000       0.00000
      82.4000       0.00000
      82.5000       0.00000
      82.6000       0.00000
      82.7000       0.00000
      82.8000       0.00000
      82.9000       0.00000
      83.0000       0.00000
      83.1000       0.00000
      83.2000       0.00000
      83.3000       0.00000
      83.4000       0.00000
      83.5000       0.00000
      83.6000       0.00000
      83.7000       0.00000
      83.8000       0.00000
      83.9000       0.00000
      84.0000       0.00000
      84.1000       0.00000
      84.2000       0.00000
      84.3000       0.00000
      84.4000       0.00000
      84.5000       0.00000
      84.6000       0.00000
      84.7000       0.00000
      84.8000       0.00000
      84.9000       0.00000
      85.0000       0.00000
      85.1000       0.00000
      85.2000       0.00000
      85.3000       0.00000
      85.4000       0.00000
      85.5000       0.00000
      85.6000       0.00000
      85.7000       0.00000
      85.8000       0.00000
      85.9000       0.00000
      86.0000       0.00000
      86.1000       0.00000
      86.2000       0.00000
      86.3000       0.00000
      86.4000       0.00000
      86.5000       0.00000
      86.6000       0.00000
      86.7000       0.00000
      86.8000       0.00000
      86.9000       0.00000
      87.0000       0.00000
      87.1000       0.00000
      87.2000       0.00000
      87.3000       0.00000
      87.4000       0.00000
      87.5000       0.00000
      87.6000       0.00000
      87.7000       0.00000
      87.8000       0.00000
      87.9000       0.00000
      88.0000       0.00000
      88.1000       0.00000
      88.2000       0.00000
      88.3000       0.00000
      88.4000       0.00000
      88.5000       0.00000
      88.6000       0.00000
      88.7000       0.00000
      88.8000       0.00000
      88.9000       0.00000
      89.0000       0.00000
      89.1000       0.00000
      89.2000       0.00000
      89.3000       0.00000
      89.4000       0.00000
      89.5000       0.00000
      89.6000       0.00000
      89.7000       0.00000
      89.8000       0.00000
      89.9000       0.00000
      90.0000       0.00000
      90.1000       0.00000
      90.2000       0.00000
      90.3000       0.00000
      90.4000       0.00000
      90.5000       0.00000
      90.6000       0.00000
      90.7000       0.00000
      90.8000       0.00000
      90.9000       0.00000
      91.0000       0.00000
      91.1000       0.00000
      91.2000       0.00000
      91.3000       0.00000
      91.4000       0.00000
      91.5000       0.00000
      91.6000       0.00000
      91.7000       0.00000
      91.8000       0.00000
      91.9000       0.00000
      92.0000       0.00000
      92.1000       0.00000
      92.2000       0.00000
      92.3000       0.00000
      92.4000       0.00000
      92.5000       0.00000
      92.6000       0.00000
      92.7000       0.00000
      92.8000       0.00000
      92.9000       0.00000
      93.0000       0.00000
      93.1000       0.00000
      93.2000       0.00000
      93.3000       0.00000
      93.4000       0.00000
      93.5000       0.00000
      93.6000       0.00000
      93.7000       0.00000
      93.8000       0.00000
      93.9000       0.00000
      94.0000       0.00000
      94.1000       0.00000
      94.2000       0.00000
      94.3000       0.00000
      94.4000       0.00000
      94.5000       0.00000
      94.6000       0.00000
      94.7000       0.00000
      94.8000       0.00000
      94.9000       0.00000
      95.0000       0.00000
      95.1000       0.00000
      95.2000       0.00000
      95.3000       0.00000
      95.4000       0.00000
      95.5000       0.00000
      95.6000       0.00000
      95.7000       0.00000
      95.8000       0.00000
      95.9000       0.00000
      96.0000       0.00000
      96.1000       0.00000
      96.2000       0.00000
      96.3000       0.00000
      96.4000       0.00000
      96.5000       0.00000
      96.6000       0.00000
      96.7000       0.00000
      96.8000       0.00000
      96.9000       0.00000
      97.0000       0.00000
      97.1000       0.00000
      97.2000       0.00000
      97.3000       0.00000
      97.4000       0.00000
      97.5000       0.00000
      97.6000       0.00000
      97.7000       0.00000
      97.8000       0.00000
      97.9000       0.00000
      98.0000       0.00000
      98.1000       0.00000
      98.2000       0.00000
      98.3000       0.00000
      98.4000       0.00000
      98.5000       0.00000
      98.6000       0.00000
      98.7000       0.00000
      98.8000       0.00000
      98.9000       0.00000
      99.0000       0.00000
      99.1000       0.00000
      99.2000       0.00000
      99.3000       0.00000
      99.4000       0.00000
      99.5000       0.00000
      99.6000       0.00000
      99.7000       0.00000
      99.8000       0.00000
      99.9000       0.00000
      100.000       0.00000
      100.100       0.00000
      100.200       0.00000
      100.300       0.00000
      100.400       0.00000
      100.500       0.00000
      100.600       0.00000
      100.700       0.00000
      100.800       0.00000
      100.900       0.00000
      101.000       0.00000
      101.100       0.00000
      101.200       0.00000
      101.300       0.00000
      101.400       0.00000
      101.500       0.00000
      101.600       0.00000
      101.700       0.00000
      101.800       0.00000
      101.900       0.00000
      102.000       0.00000
      102.100       0.00000
      102.200       0.00000
      102.300       0.00000
      102.400       0.00000
      102.500       0.00000
      102.600       0.00000
      102.700       0.00000
      102.800       0.00000
      102.900       0.00000
      103.000       0.00000
      103.100       0.00000
      103.200       0.00000
      103.300       0.00000
      103.400       0.00000
      103.500       0.00000
      103.600       0.00000
      103.700       0.00000
      103.800       0.00000
      103.900       0.00000
      104.000       0.00000
      104.100       0.00000
      104.200       0.00000
      104.300       0.00000
      104.400       0.00000
      104.500       0.00000
      104.600       0.00000
      104.700       0.00000
      104.800       0.00000
      104.900       0.00000
      105.000       0.00000
      105.100       0.00000
      105.200       0.00000
      105.300       0.00000
      105.400       0.00000
      105.500       0.00000
      105.600       0.00000
      105.700       0.00000
      105.800       0.00000
      105.900       0.00000
      106.000       0.00000
      106.100       0.00000
      106.200       0.00000
      106.300       0.00000
      106.400       0.00000
      106.500       0.00000
      106.600       0.00000
      106.700       0.00000
      106.800       0.00000
      106.900       0.00000
      107.000       0.00000
      107.100       0.00000
      107.200       0.00000
      107.300       0.00000
      107.400       0.00000
      107.500       0.00000
      107.600       0.00000
      107.700       0.00000
      107.800       0.00000
      107.900       0.00000
      108.000       0.00000
      108.100       0.00000
      108.200       0.00000
      108.300       0.00000
      108.400       0.00000
      108.500       0.00000
      108.600       0.00000
      108.700       0.00000
      108.800       0.00000
      108.900       0.00000
      109.000       0.00000
      109.100       0.00000
      109.200       0.00000
      109.300       0.00000
      109.400       0.00000
      109.500       0.00000
      109.600       0.00000
      109.700       0.00000
      109.800       0.00000
      109.900       0.00000
      110.000       0.00000
      110.100       0.00000
      110.200       0.00000
      110.300       0.00000
      110.400       0.00000
      110.500       0.00000
      110.600       0.00000
      110.700       0.00000
      110.800       0.00000
      110.900       0.00000
      111.000       0.00000
      111.100       0.00000
      111.200       0.00000
      111.300       0.00000
      111.400       0.00000
      111.500       0.00000
      111.600       0.00000
      111.700       0.00000
      111.800       0.00000
      111.900       0.00000
      112.000       0.00000
      112.100       0.00000
      112.200       0.00000
      112.300       0.00000
      112.400       0.00000
      112.500       0.00000
      112.600       0.00000
      112.700       0.00000
      112.800       0.00000
      112.900       0.00000
      113.000       0.00000
      113.100       0.00000
      113.200       0.00000
      113.300       0.00000
      113.400       0.00000
      113.500       0.00000
      113.600       0.00000
      113.700       0.00000
      113.800       0.00000
      113.900       0.00000
      114.000       0.00000
      114.100       0.00000
      114.200       0.00000
      114.300       0.00000
      114.400       0.00000
      114.500       0.00000
      114.600       0.00000
      114.700       0.00000
      114.800       0.00000
      114.900       0.00000
      115.000       0.00000
      115.100       0.00000
      115.200       0.00000
      115.300       0.00000
      115.400       0.00000
      115.500       0.00000
      115.600       0.00000
      115.700       0.00000
      115.800       0.00000
      115.900       0.00000
      116.000       0.00000
      116.100       0.00000
      116.200       0.00000
      116.300       0.00000
      116.400       0.00000
      116.500       0.00000
      116.600       0.00000
      116.700       0.00000
      116.800       0.00000
      116.900       0.00000
      117.000       0.00000
      117.100       0.00000
      117.200       0.00000
      117.300       0.00000
      117.400       0.00000
      117.500       0.00000
      117.600       0.00000
      117.700       0.00000
      117.800       0.00000
      117.900       0.00000
      118.000       0.00000
      118.100       0.00000
      118.200       0.00000
      118.300       0.00000
      118.400       0.00000
      118.500       0.00000
      118.600       0.00000
      118.700       0.00000
      118.800       0.00000
      118.900       0.00000
      119.000       0.00000
      119.100       0.00000
      119.200       0.00000
      119.300       0.00000
      119.400       0.00000
      119.500       0.00000
      119.600       0.00000
      119.700       0.00000
      119.800       0.00000
      119.900       0.00000
      120.000       0.00000
      120.100       0.00000
      120.200       0.00000
      120.300       0.00000
      120.400       0.00000
      120.500       0.00000
      120.600       0.00000
      120.700       0.00000
      120.800       0.00000
      120.900       0.00000
      121.000       0.00000
      121.100       0.00000
      121.200       0.00000
      121.300       0.00000
      121.400       0.00000
      121.500       0.00000
      121.600       0.00000
      121.700       0.00000
      121.800       0.00000
      121.900       0.00000
      122.000       0.00000
      122.100       0.00000
      122.200       0.00000
      122.300       0.00000
      122.400       0.00000
      122.500       0.00000
      122.600       0.00000
      122.700       0.00000
      122.800       0.00000
      122.900       0.00000
      123.000       0.00000
      123.100       0.00000
      123.200       0.00000
      123.300       0.00000
      123.400       0.00000
      123.500       0.00000
      123.600       0.00000
      123.700       0.00000
      123.800       0.00000
      123.900       0.00000
      124.000       0.00000
      124.100       0.00000
      124.200       0.00000
      124.300       0.00000
      124.400       0.00000
      124.500       0.00000
      124.600       0.00000
      124.700       0.00000
      124.800       0.00000
      124.900       0.00000
      125.000       0.00000
      125.100       0.00000
      125.200       0.00000
      125.300       0.00000
      125.400       0.00000
      125.500       0.00000
      125.600       0.00000
      125.700       0.00000
      125.800       0.00000
      125.900       0.00000
      126.000       0.00000
      126.100       0.00000
      126.200       0.00000
      126.300       0.00000
      126.400       0.00000
      126.500       0.00000
      126.600       0.00000
      126.700       0.00000
      126.800       0.00000
      126.900       0.00000
      127.000       0.00000
      127.100       0.00000
      127.200       0.00000
      127.300       0.00000
      127.400       0.00000
      127.500       0.00000
      127.600       0.00000
      127.700       0.00000
      127.800       0.00000
      127.900       0.00000
      128.000       0.00000
      128.100       0.00000
      128.200       0.00000
      128.300       0.00000
      128.400       0.00000
      128.500       0.00000
      128.600       0.00000
      128.700       0.00000
      128.800       0.00000
      128.900       0.00000
      129.000       0.00000
      129.100       0.00000
      129.200       0.00000
      129.300       0.00000
      129.400       0.00000
      129.500       0.00000
      129.600       0.00000
      129.700       0.00000
      129.800       0.00000
      129.900       0.00000
      130.000       0.00000
      130.100       0.00000
      130.200       0.00000
      130.300       0.00000
      130.400       0.00000
      130.500       0.00000
      130.600       0.00000
      130.700       0.00000
      130.800       0.00000
      130.900       0.00000
      131.000       0.00000
      131.100       0.00000
      131.200       0.00000
      131.300       0.00000
      131.400       0.00000
      131.500       0.00000
      131.600       0.00000
      131.700       0.00000
      131.800       0.00000
      131.900       0.00000
      132.000       0.00000
      132.100       0.00000
      132.200       0.00000
      132.300       0.00000
      132.400       0.00000
      132.500       0.00000
      132.600       0.00000
      132.700       0.00000
      132.800       0.00000
      132.900       0.00000
      133.000       0.00000
      133.100       0.00000
      133.200       0.00000
      133.300       0.00000
      133.400       0.00000
      133.500       0.00000
      133.600       0.00000
      133.700       0.00000
      133.800       0.00000
      133.900       0.00000
      134.000       0.00000
      134.100       0.00000
      134.200       0.00000
      134.300       0.00000
      134.400       0.00000
      134.500       0.00000
      134.600       0.00000
      134.700       0.00000
      134.800       0.00000
      134.900       0.00000
      135.000       0.00000
      135.100       0.00000
      135.200       0.00000
      135.300       0.00000
      135.400       0.00000
      135.500       0.00000
      135.600       0.00000
      135.700       0.00000
      135.800       0.00000
      135.900       0.00000
      136.000       0.00000
      136.100       0.00000
      136.200       0.00000
      136.300       0.00000
      136.400       0.00000
      136.500       0.00000
      136.600       0.00000
      136.700       0.00000
      136.800       0.00000
      136.900       0.00000
      137.000       0.00000
      137.100       0.00000
      137.200       0.00000
      137.300       0.00000
      137.400       0.00000
      137.500       0.00000
      137.600       0.00000
      137.700       0.00000
      137.800       0.00000
      137.900       0.00000
      138.000       0.00000
      138.100       0.00000
      138.200       0.00000
      138.300       0.00000
      138.400       0.00000
      138.500       0.00000
      138.600       0.00000
      138.700       0.00000
      138.800       0.00000
      138.900       0.00000
      139.000       0.00000
      139.100       0.00000
      139.200       0.00000
      139.300       0.00000
      139.400       0.00000
      139.500       0.00000
      139.600       0.00000
      139.700       0.00000
      139.800       0.00000
      139.900       0.00000
      140.000       0.00000
      140.100       0.00000
      140.200       0.00000
      140.300       0.00000
      140.400       0.00000
      140.500       0.00000
      140.600       0.00000
      140.700       0.00000
      140.800       0.00000
      140.900       0.00000
      141.000       0.00000
      141.100       0.00000
      141.200       0.00000
      141.300       0.00000
      141.400       0.00000
      141.500       0.00000
      141.600       0.00000
      141.700       0.00000
      141.800       0.00000
      141.900       0.00000
      142.000       0.00000
      142.100       0.00000
      142.200       0.00000
      142.300       0.00000
      142.400       0.00000
      142.500       0.00000
      142.600       0.00000
      142.700       0.00000
      142.800       0.00000
      142.900       0.00000
      143.000       0.00000
      143.100       0.00000
      143.200       0.00000
      143.300       0.00000
      143.400       0.00000
      143.500       0.00000
      143.600       0.00000
      143.700       0.00000
      143.800       0.00000
      143.900       0.00000
      144.000       0.00000
      144.100       0.00000
      144.200       0.00000
      144.300       0.00000
      144.400       0.00000
      144.500       0.00000
      144.600       0.00000
      144.700       0.00000
      144.800       0.00000
      144.900       0.00000
      145.000       0.00000
      145.100       0.00000
      145.200       0.00000
      145.300       0.00000
      145.400       0.00000
      145.500       0.00000
      145.600       0.00000
      145.700       0.00000
      145.800       0.00000
      145.900       0.00000
      146.000       0.00000
      146.100       0.00000
      146.200       0.00000
      146.300       0.00000
      146.400       0.00000
      146.500       0.00000
      146.600       0.00000
      146.700       0.00000
      146.800       0.00000
      146.900       0.00000
      147.000       0.00000
      147.100       0.00000
      147.200       0.00000
      147.300       0.00000
      147.400       0.00000
      147.500       0.00000
      147.600       0.00000
      147.700       0.00000
      147.800       0.00000
      147.900       0.00000
      148.000       0.00000
      148.100       0.00000
      148.200       0.00000
      148.300       0.00000
      148.400       0.00000
      148.500       0.00000
      148.600       0.00000
      148.700       0.00000
      148.800       0.00000
      148.900       0.00000
      149.000       0.00000
      149.100       0.00000
      149.200       0.00000
      149.300       0.00000
      149.400       0.00000
      149.500       0.00000
      149.600       0.00000
      149.700       0.00000
      149.800       0.00000
      149.900       0.00000
      150.000       0.00000
      150.100       0.00000
      150.200       0.00000
      150.300       0.00000
      150.400       0.00000
      150.500       0.00000
      150.600       0.00000
      150.700       0.00000
      150.800       0.00000
      150.900       0.00000
      151.000       0.00000
      151.100       0.00000
      151.200       0.00000
      151.300       0.00000
      151.400       0.00000
      151.500       0.00000
      151.600       0.00000
      151.700       0.00000
      151.800       0.00000
      151.900       0.00000
      152.000       0.00000
      152.100       0.00000
      152.200       0.00000
      152.300       0.00000
      152.400       0.00000
      152.500       0.00000
      152.600       0.00000
      152.700       0.00000
      152.800       0.00000
      152.900       0.00000
      153.000       0.00000
      153.100       0.00000
      153.200       0.00000
      153.300       0.00000
      153.400       0.00000
      153.500       0.00000
      153.600       0.00000
      153.700       0.00000
      153.800       0.00000
      153.900       0.00000
      154.000       0.00000
      154.100       0.00000
      154.200       0.00000
      154.300       0.00000
      154.400       0.00000
      154.500       0.00000
      154.600       0.00000
      154.700       0.00000
      154.800       0.00000
      154.900       0.00000
      155.000       0.00000
      155.100       0.00000
      155.200       0.00000
      155.300       0.00000
      155.400       0.00000
      155.500       0.00000
      155.600       0.00000
      155.700       0.00000
      155.800       0.00000
      155.900       0.00000
      156.000       0.00000
      156.100       0.00000
      156.200       0.00000
      156.300       0.00000
      156.400       0.00000
      156.500       0.00000
      156.600       0.00000
      156.700       0.00000
      156.800       0.00000
      156.900       0.00000
      157.000       0.00000
      157.100       0.00000
      157.200       0.00000
      157.300       0.00000
      157.400       0.00000
      157.500       0.00000
      157.600       0.00000
      157.700       0.00000
      157.800       0.00000
      157.900       0.00000
      158.000       0.00000
      158.100       0.00000
      158.200       0.00000
      158.300       0.00000
      158.400       0.00000
      158.500       0.00000
      158.600       0.00000
      158.700       0.00000
      158.800       0.00000
      158.900       0.00000
      159.000       0.00000
      159.100       0.00000
      159.200       0.00000
      159.300       0.00000
      159.400       0.00000
      159.500       0.00000
      159.600       0.00000
      159.700       0.00000
      159.800       0.00000
      159.900       0.00000
      160.000       0.00000
      160.100       0.00000
      160.200       0.00000
      160.300       0.00000
      160.400       0.00000
      160.500       0.00000
      160.600       0.00000
      160.700       0.00000
      160.800       0.00000
      160.900       0.00000
      161.000       0.00000
      161.100       0.00000
      161.200       0.00000
      161.300       0.00000
      161.400       0.00000
      161.500       0.00000
      161.600       0.00000
      161.700       0.00000
      161.800       0.00000
      161.900       0.00000
      162.000       0.00000
      162.100       0.00000
      162.200       0.00000
      162.300       0.00000
      162.400       0.00000
      162.500       0.00000
      162.600       0.00000
      162.700       0.00000
      162.800       0.00000
      162.900       0.00000
      163.000       0.00000
      163.100       0.00000
      163.200       0.00000
      163.300       0.00000
      163.400       0.00000
      163.500       0.00000
      163.600       0.00000
      163.700       0.00000
      163.800       0.00000
      163.900       0.00000
      164.000       0.00000
      164.100       0.00000
      164.200       0.00000
      164.300       0.00000
      164.400       0.00000
      164.500       0.00000
      164.600       0.00000
      164.700       0.00000
      164.800       0.00000
      164.900       0.00000
      165.000       0.00000
      165.100       0.00000
      165.200       0.00000
      165.300       0.00000
      165.400       0.00000
      165.500       0.00000
      165.600       0.00000
      165.700       0.00000
      165.800       0.00000
      165.900       0.00000
      166.000       0.00000
      166.100       0.00000
      166.200       0.00000
      166.300       0.00000
      166.400       0.00000
      166.500       0.00000
      166.600       0.00000
      166.700       0.00000
      166.800       0.00000
      166.900       0.00000
      167.000       0.00000
      167.100       0.00000
      167.200       0.00000
      167.300       0.00000
      167.400       0.00000
      167.500       0.00000
      167.600       0.00000
      167.700       0.00000
      167.800       0.00000
      167.900       0.00000
      168.000       0.00000
      168.100       0.00000
      168.200       0.00000
      168.300       0.00000
      168.400       0.00000
      168.500       0.00000
      168.600       0.00000
      168.700       0.00000
      168.800       0.00000
      168.900       0.00000
      169.000       0.00000
      169.100       0.00000
      169.200       0.00000
      169.300       0.00000
      169.400       0.00000
      169.500       0.00000
      169.600       0.00000
      169.700       0.00000
      169.800       0.00000
      169.900       0.00000
      170.000       0.00000
      170.100       0.00000
      170.200       0.00000
      170.300       0.00000
      170.400       0.00000
      170.500       0.00000
      170.600   6.02432e-40
      170.700   7.49348e-25
      170.800   1.00360e-20
      170.900   1.66726e-20
      171.000   1.70433e-20
      171.100   1.74207e-20
      171.200   1.78048e-20
      171.300   1.81961e-20
      171.400   1.85939e-20
      171.500   1.89986e-20
      171.600   1.94105e-20
      171.700   1.98300e-20
      171.800   2.02571e-20
      171.900   2.06917e-20
      172.000   2.11346e-20
      172.100   2.15866e-20
      172.200   2.20471e-20
      172.300   2.25158e-20
      172.400   2.29898e-20
      172.500   2.34723e-20
      172.600   2.39649e-20
      172.700   2.44672e-20
      172.800   2.49794e-20
      172.900   2.55027e-20
      173.000   2.60360e-20
      173.100   2.65799e-20
      173.200   2.71349e-20
      173.300   2.77013e-20
      173.400   2.82797e-20
      173.500   2.88695e-20
      173.600   2.94712e-20
      173.700   3.00850e-20
      173.800   3.07120e-20
      173.900   3.13505e-20
      174.000   3.20021e-20
      174.100   3.26678e-20
      174.200   3.33458e-20
      174.300   3.40365e-20
      174.400   3.47417e-20
      174.500   3.54600e-20
      174.600   3.61932e-20
      174.700   3.69403e-20
      174.800   3.77012e-20
      174.900   3.84769e-20
      175.000   3.92681e-20
      175.100   4.00728e-20
      175.200   4.08954e-20
      175.300   4.17323e-20
      175.400   4.25861e-20
      175.500   4.34554e-20
      175.600   4.43402e-20
      175.700   4.52420e-20
      175.800   4.61616e-20
      175.900   4.70975e-20
      176.000   4.80500e-20
      176.100   4.90207e-20
      176.200   5.00093e-20
      176.300   5.10170e-20
      176.400   5.20425e-20
      176.500   5.30865e-20
      176.600   5.41511e-20
      176.700   5.52344e-20
      176.800   5.63369e-20
      176.900   5.74594e-20
      177.000   5.86035e-20
      177.100   5.97685e-20
      177.200   6.09533e-20
      177.300   6.21592e-20
      177.400   6.33880e-20
      177.500   6.46386e-20
      177.600   6.59107e-20
      177.700   6.72052e-20
      177.800   6.85220e-20
      177.900   6.98633e-20
      178.000   7.12329e-20
      178.100   7.26251e-20
      178.200   7.40425e-20
      178.300   7.54859e-20
      178.400   7.69529e-20
      178.500   7.84454e-20
      178.600   7.99644e-20
      178.700   8.15117e-20
      178.800   8.30839e-20
      178.900   8.46823e-20
      179.000   8.63081e-20
      179.100   8.79631e-20
      179.200   8.96480e-20
      179.300   9.13602e-20
      179.400   9.31021e-20
      179.500   9.48748e-20
      179.600   9.66826e-20
      179.700   9.85182e-20
      179.800   1.00386e-19
      179.900   1.02286e-19
      180.000   1.04223e-19
      180.100   1.06191e-19
      180.200   1.08194e-19
      180.300   1.10232e-19
      180.400   1.12309e-19
      180.500   1.14422e-19
      180.600   1.16570e-19
      180.700   1.18756e-19
      180.800   1.21003e-19
      180.900   1.23330e-19
      181.000   1.25716e-19
      181.100   1.28144e-19
      181.200   1.30618e-19
      181.300   1.33141e-19
      181.400   1.35706e-19
      181.500   1.38317e-19
      181.600   1.40977e-19
      181.700   1.43688e-19
      181.800   1.46445e-19
      181.900   1.49252e-19
      182.000   1.52113e-19
      182.100   1.55022e-19
      182.200   1.57991e-19
      182.300   1.61010e-19
      182.400   1.64081e-19
      182.500   1.67209e-19
      182.600   1.70396e-19
      182.700   1.73636e-19
      182.800   1.76930e-19
      182.900   1.80287e-19
      183.000   1.83702e-19
      183.100   1.87175e-19
      183.200   1.90708e-19
      183.300   1.94304e-19
      183.400   1.97964e-19
      183.500   2.01685e-19
      183.600   2.05470e-19
      183.700   2.09449e-19
      183.800   2.14047e-19
      183.900   2.19081e-19
      184.000   2.24217e-19
      184.100   2.29476e-19
      184.200   2.34849e-19
      184.300   2.40346e-19
      184.400   2.45961e-19
      184.500   2.51694e-19
      184.600   2.57552e-19
      184.700   2.63543e-19
      184.800   2.69661e-19
      184.900   2.75909e-19
      185.000   2.82291e-19
      185.100   2.88814e-19
      185.200   2.95480e-19
      185.300   3.02282e-19
      185.400   3.09229e-19
      185.500   3.16322e-19
      185.600   3.23568e-19
      185.700   3.30977e-19
      185.800   3.38546e-19
      185.900   3.46270e-19
      186.000   3.54173e-19
      186.100   3.62231e-19
      186.200   3.70453e-19
      186.300   3.78847e-19
      186.400   3.87420e-19
      186.500   3.96174e-19
      186.600   4.05100e-19
      186.700   4.14202e-19
      186.800   4.23489e-19
      186.900   4.32972e-19
      187.000   4.42649e-19
      187.100   4.52507e-19
      187.200   4.62574e-19
      187.300   4.72864e-19
      187.400   4.83357e-19
      187.500   4.94056e-19
      187.600   5.04967e-19
      187.700   5.16095e-19
      187.800   5.27456e-19
      187.900   5.39043e-19
      188.000   5.50846e-19
      188.100   5.62882e-19
      188.200   5.75163e-19
      188.300   5.87693e-19
      188.400   6.00474e-19
      188.500   6.13502e-19
      188.600   6.26797e-19
      188.700   6.40383e-19
      188.800   6.54229e-19
      188.900   6.68341e-19
      189.000   6.82736e-19
      189.100   6.97432e-19
      189.200   7.12416e-19
      189.300   7.27687e-19
      189.400   7.43258e-19
      189.500   7.59143e-19
      189.600   7.75364e-19
      189.700   7.91883e-19
      189.800   8.08806e-19
      189.900   8.26102e-19
      190.000   8.43769e-19
      190.100   8.61770e-19
      190.200   8.80131e-19
      190.300   8.98853e-19
      190.400   9.17959e-19
      190.500   9.37446e-19
      190.600   9.57306e-19
      190.700   9.77561e-19
      190.800   9.98211e-19
      190.900   1.01927e-18
      191.000   1.04080e-18
      191.100   1.06275e-18
      191.200   1.08513e-18
      191.300   1.10795e-18
      191.400   1.13122e-18
      191.500   1.15496e-18
      191.600   1.17914e-18
      191.700   1.20379e-18
      191.800   1.22895e-18
      191.900   1.25457e-18
      192.000   1.28066e-18
      192.100   1.30731e-18
      192.200   1.33451e-18
      192.300   1.36222e-18
      192.400   1.39049e-18
      192.500   1.41930e-18
      192.600   1.44864e-18
      192.700   1.47854e-18
      192.800   1.50776e-18
      192.900   1.53431e-18
      193.000   1.56096e-18
      193.100   1.58807e-18
      193.200   1.61568e-18
      193.300   1.64371e-18
      193.400   1.67218e-18
      193.500   1.70110e-18
      193.600   1.73051e-18
      193.700   1.76040e-18
      193.800   1.79074e-18
      193.900   1.82153e-18
      194.000   1.85285e-18
      194.100   1.88475e-18
      194.200   1.91713e-18
      194.300   1.95002e-18
      194.400   1.98345e-18
      194.500   2.01742e-18
      194.600   2.05194e-18
      194.700   2.08695e-18
      194.800   2.12251e-18
      194.900   2.15865e-18
      195.000   2.19536e-18
      195.100   2.23277e-18
      195.200   2.27069e-18
      195.300   2.30919e-18
      195.400   2.34830e-18
      195.500   2.38802e-18
      195.600   2.42834e-18
      195.700   2.46924e-18
      195.800   2.51041e-18
      195.900   2.54960e-18
      196.000   2.49959e-18
      196.100   2.44941e-18
      196.200   2.40021e-18
      196.300   2.35197e-18
      196.400   2.30467e-18
      196.500   2.25828e-18
      196.600   2.21280e-18
      196.700   2.16821e-18
      196.800   2.12451e-18
      196.900   2.08173e-18
      197.000   2.03978e-18
      197.100   1.99863e-18
      197.200   1.95829e-18
      197.300   1.91872e-18
      197.400   1.87991e-18
      197.500   1.84184e-18
      197.600   1.80452e-18
      197.700   1.76801e-18
      197.800   1.73224e-18
      197.900   1.69714e-18
      198.000   1.66273e-18
      198.100   1.62898e-18
      198.200   1.59589e-18
      198.300   1.56344e-18
      198.400   1.53164e-18
      198.500   1.50052e-18
      198.600   1.47003e-18
      198.700   1.44014e-18
      198.800   1.41084e-18
      198.900   1.38212e-18
      199.000   1.35396e-18
      199.100   1.32635e-18
      199.200   1.29930e-18
      199.300   1.27285e-18
      199.400   1.24694e-18
      199.500   1.22155e-18
      199.600   1.19665e-18
      199.700   1.17226e-18
      199.800   1.14835e-18
      199.900   1.12491e-18
      200.000   1.10194e-18
      200.100   1.07953e-18
      200.200   1.05753e-18
      200.300   1.03598e-18
      200.400   1.01486e-18
      200.500   9.94169e-19
      200.600   9.73901e-19
      200.700   9.54038e-19
      200.800   9.34566e-19
      200.900   9.15506e-19
      201.000   8.96836e-19
      201.100   8.78559e-19
      201.200   8.60654e-19
      201.300   8.43106e-19
      201.400   8.25923e-19
      201.500   8.09079e-19
      201.600   7.92577e-19
      201.700   7.76412e-19
      201.800   7.60575e-19
      201.900   7.45064e-19
      202.000   7.29888e-19
      202.100   7.15017e-19
      202.200   7.00450e-19
      202.300   6.86236e-19
      202.400   6.72425e-19
      202.500   6.58923e-19
      202.600   6.45683e-19
      202.700   6.32722e-19
      202.800   6.20024e-19
      202.900   6.07589e-19
      203.000   5.95407e-19
      203.100   5.83477e-19
      203.200   5.71780e-19
      203.300   5.60319e-19
      203.400   5.49089e-19
      203.500   5.38083e-19
      203.600   5.27302e-19
      203.700   5.16740e-19
      203.800   5.06398e-19
      203.900   4.96276e-19
      204.000   4.86356e-19
      204.100   4.76635e-19
      204.200   4.67115e-19
      204.300   4.57786e-19
      204.400   4.48646e-19
      204.500   4.39691e-19
      204.600   4.30915e-19
      204.700   4.22317e-19
      204.800   4.13903e-19
      204.900   4.05663e-19
      205.000   3.97588e-19
      205.100   3.89677e-19
      205.200   3.81924e-19
      205.300   3.74330e-19
      205.400   3.66888e-19
      205.500   3.59595e-19
      205.600   3.51842e-19
      205.700   3.43704e-19
      205.800   3.35674e-19
      205.900   3.27840e-19
      206.000   3.20196e-19
      206.100   3.12728e-19
      206.200   3.05431e-19
      206.300   2.98308e-19
      206.400   2.91350e-19
      206.500   2.84550e-19
      206.600   2.77910e-19
      206.700   2.71425e-19
      206.800   2.65086e-19
      206.900   2.58894e-19
      207.000   2.52848e-19
      207.100   2.46946e-19
      207.200   2.41183e-19
      207.300   2.35551e-19
      207.400   2.30049e-19
      207.500   2.24672e-19
      207.600   2.19420e-19
      207.700   2.14288e-19
      207.800   2.09273e-19
      207.900   2.04372e-19
      208.000   1.99585e-19
      208.100   1.94908e-19
      208.200   1.90338e-19
      208.300   1.85873e-19
      208.400   1.81516e-19
      208.500   1.77259e-19
      208.600   1.73098e-19
      208.700   1.69033e-19
      208.800   1.65062e-19
      208.900   1.60718e-19
      209.000   1.55665e-19
      209.100   1.50572e-19
      209.200   1.45642e-19
      209.300   1.40870e-19
      209.400   1.36252e-19
      209.500   1.31783e-19
      209.600   1.27457e-19
      209.700   1.23273e-19
      209.800   1.19230e-19
      209.900   1.15316e-19
      210.000   1.11528e-19
      210.100   1.07864e-19
      210.200   1.04317e-19
      210.300   1.00885e-19
      210.400   9.75638e-20
      210.500   9.43503e-20
      210.600   9.12413e-20
      210.700   8.82327e-20
      210.800   8.53219e-20
      210.900   8.25055e-20
      211.000   7.97803e-20
      211.100   7.71452e-20
      211.200   7.45943e-20
      211.300   7.21311e-20
      211.400   6.97492e-20
      211.500   6.74438e-20
      211.600   6.52142e-20
      211.700   6.30574e-20
      211.800   6.09697e-20
      211.900   5.89503e-20
      212.000   5.69982e-20
      212.100   5.51091e-20
      212.200   5.32815e-20
      212.300   5.15140e-20
      212.400   4.98039e-20
      212.500   4.81503e-20
      212.600   4.65509e-20
      212.700   4.50038e-20
      212.800   4.35074e-20
      212.900   4.20606e-20
      213.000   4.06614e-20
      213.100   3.93098e-20
      213.200   3.80027e-20
      213.300   3.67383e-20
      213.400   3.55156e-20
      213.500   3.43332e-20
      213.600   3.31894e-20
      213.700   3.20838e-20
      213.800   3.10143e-20
      213.900   2.99805e-20
      214.000   2.89805e-20
      214.100   2.80137e-20
      214.200   2.70791e-20
      214.300   2.61751e-20
      214.400   2.53010e-20
      214.500   2.44560e-20
      214.600   2.36393e-20
      214.700   2.28494e-20
      214.800   2.20858e-20
      214.900   2.13478e-20
      215.000   2.06340e-20
      215.100   1.99443e-20
      215.200   1.92780e-20
      215.300   1.86342e-20
      215.400   1.80116e-20
      215.500   1.74098e-20
      215.600   1.68284e-20
      215.700   1.62660e-20
      215.800   1.57224e-20
      215.900   1.51972e-20
      216.000   1.46893e-20
      216.100   1.41983e-20
      216.200   1.37238e-20
      216.300   1.32652e-20
      216.400   1.28220e-20
      216.500   1.23934e-20
      216.600   1.19792e-20
      216.700   1.15790e-20
      216.800   1.11921e-20
      216.900   1.08181e-20
      217.000   1.04566e-20
      217.100   1.01071e-20
      217.200   9.76937e-21
      217.300   9.44291e-21
      217.400   9.12727e-21
      217.500   8.82236e-21
      217.600   8.52754e-21
      217.700   8.24242e-21
      217.800   7.96696e-21
      217.900   7.70077e-21
      218.000   7.44359e-21
      218.100   7.19492e-21
      218.200   6.95460e-21
      218.300   6.72232e-21
      218.400   6.49780e-21
      218.500   6.28063e-21
      218.600   6.07077e-21
      218.700   5.86785e-21
      218.800   5.67168e-21
      218.900   5.48212e-21
      219.000   5.29878e-21
      219.100   5.12150e-21
      219.200   4.95017e-21
      219.300   4.78449e-21
      219.400   4.62429e-21
      219.500   4.46942e-21
      219.600   4.31970e-21
      219.700   4.17498e-21
      219.800   4.03508e-21
      219.900   3.89980e-21
      220.000   3.76899e-21
      220.100   3.64255e-21
      220.200   3.52029e-21
      220.300   3.40212e-21
      220.400   3.28786e-21
      220.500   3.17744e-21
      220.600   3.07069e-21
      220.700   2.96745e-21
      220.800   2.86763e-21
      220.900   2.77119e-21
      221.000   2.67792e-21
      221.100   2.58774e-21
      221.200   2.50060e-21
      221.300   2.41636e-21
      221.400   2.33493e-21
      221.500   2.25621e-21
      221.600   2.18012e-21
      221.700   2.10656e-21
      221.800   2.03543e-21
      221.900   1.96670e-21
      222.000   1.90028e-21
      222.100   1.83604e-21
      222.200   1.77399e-21
      222.300   1.71398e-21
      222.400   1.65600e-21
      222.500   1.59994e-21
      222.600   1.54577e-21
      222.700   1.49341e-21
      222.800   1.44280e-21
      222.900   1.39389e-21
      223.000   1.34662e-21
      223.100   1.30092e-21
      223.200   1.25677e-21
      223.300   1.21409e-21
      223.400   1.17286e-21
      223.500   1.13298e-21
      223.600   1.09447e-21
      223.700   1.05724e-21
      223.800   1.02126e-21
      223.900   9.86518e-22
      224.000   9.52918e-22
      224.100   9.20453e-22
      224.200   8.89077e-22
      224.300   8.58765e-22
      224.400   8.29466e-22
      224.500   8.01160e-22
      224.600   7.73798e-22
      224.700   7.47376e-22
      224.800   7.21838e-22
      224.900   6.97159e-22
      225.000   6.73316e-22
      225.100   6.50274e-22
      225.200   6.28007e-22
      225.300   6.06511e-22
      225.400   5.85728e-22
      225.500   5.65646e-22
      225.600   5.46245e-22
      225.700   5.27509e-22
      225.800   5.09399e-22
      225.900   4.91907e-22
      226.000   4.75012e-22
      226.100   4.58686e-22
      226.200   4.42914e-22
      226.300   4.27714e-22
      226.400   4.13043e-22
      226.500   3.98857e-22
      226.600   3.85146e-22
      226.700   3.71901e-22
      226.800   3.59097e-22
      226.900   3.46729e-22
      227.000   3.34784e-22
      227.100   3.23242e-22
      227.200   3.12097e-22
      227.300   3.01333e-22
      227.400   2.90936e-22
      227.500   2.80895e-22
      227.600   2.71197e-22
      227.700   2.61831e-22
      227.800   2.52786e-22
      227.900   2.44053e-22
      228.000   2.35619e-22
      228.100   2.27474e-22
      228.200   2.19607e-22
      228.300   2.12012e-22
      228.400   2.04680e-22
      228.500   1.97597e-22
      228.600   1.90760e-22
      228.700   1.84157e-22
      228.800   1.77781e-22
      228.900   1.71628e-22
      229.000   1.65685e-22
      229.100   1.59948e-22
      229.200   1.54408e-22
      229.300   1.49060e-22
      229.400   1.43896e-22
      229.500   1.38912e-22
      229.600   1.34098e-22
      229.700   1.29452e-22
      229.800   1.24966e-22
      229.900   1.20635e-22
      230.000   1.16408e-22
      230.100   1.12008e-22
      230.200   1.07762e-22
      230.300   1.03678e-22
      230.400   9.97481e-23
      230.500   9.59671e-23
      230.600   9.23316e-23
      230.700   8.88323e-23
      230.800   8.54660e-23
      230.900   8.22269e-23
      231.000   7.91096e-23
      231.100   7.61101e-23
      231.200   7.32239e-23
      231.300   7.04473e-23
      231.400   6.77766e-23
      231.500   6.52048e-23
      231.600   6.27300e-23
      231.700   6.03497e-23
      231.800   5.80593e-23
      231.900   5.58552e-23
      232.000   5.37343e-23
      232.100   5.16932e-23
      232.200   4.97296e-23
      232.300   4.78405e-23
      232.400   4.60223e-23
      232.500   4.42724e-23
      232.600   4.25891e-23
      232.700   4.09694e-23
      232.800   3.94110e-23
      232.900   3.79112e-23
      233.000   3.64682e-23
      233.100   3.50801e-23
      233.200   3.37440e-23
      233.300   3.24588e-23
      233.400   3.12223e-23
      233.500   3.00334e-23
      233.600   2.88901e-23
      233.700   2.77895e-23
      233.800   2.65997e-23
      233.900   2.54435e-23
      234.000   2.43365e-23
      234.100   2.32774e-23
      234.200   2.22642e-23
      234.300   2.12946e-23
      234.400   2.03667e-23
      234.500   1.94789e-23
      234.600   1.86292e-23
      234.700   1.78164e-23
      234.800   1.70389e-23
      234.900   1.62947e-23
      235.000   1.55826e-23
      235.100   1.49014e-23
      235.200   1.42497e-23
      235.300   1.36262e-23
      235.400   1.30296e-23
      235.500   1.24588e-23
      235.600   1.19130e-23
      235.700   1.13909e-23
      235.800   1.08923e-23
      235.900   1.04153e-23
      236.000   9.95896e-24
      236.100   9.52235e-24
      236.200   9.10466e-24
      236.300   8.70505e-24
      236.400   8.32291e-24
      236.500   7.95728e-24
      236.600   7.60751e-24
      236.700   7.27294e-24
      236.800   6.95287e-24
      236.900   6.64672e-24
      237.000   6.35389e-24
      237.100   6.07375e-24
      237.200   5.80587e-24
      237.300   5.54963e-24
      237.400   5.30454e-24
      237.500   5.07010e-24
      237.600   4.84599e-24
      237.700   4.63206e-24
      237.800   4.42746e-24
      237.900   4.23176e-24
      238.000   4.04463e-24
      238.100   3.86560e-24
      238.200   3.69439e-24
      238.300   3.53066e-24
      238.400   3.37408e-24
      238.500   3.22430e-24
      238.600   3.08110e-24
      238.700   2.94420e-24
      238.800   2.81325e-24
      238.900   2.68804e-24
      239.000   2.56830e-24
      239.100   2.45382e-24
      239.200   2.34439e-24
      239.300   2.23990e-24
      239.400   2.14014e-24
      239.500   2.04475e-24
      239.600   1.95352e-24
      239.700   1.86635e-24
      239.800   1.78298e-24
      239.900   1.70326e-24
      240.000   1.62706e-24
      240.100   1.55419e-24
      240.200   1.48454e-24
      240.300   1.41795e-24
      240.400   1.35429e-24
      240.500   1.29346e-24
      240.600   1.23532e-24
      240.700   1.17975e-24
      240.800   1.12671e-24
      240.900   1.07609e-24
      241.000   1.02772e-24
      241.100   9.81484e-25
      241.200   9.37299e-25
      241.300   8.95061e-25
      241.400   8.54703e-25
      241.500   8.16134e-25
      241.600   7.79277e-25
      241.700   7.44055e-25
      241.800   7.10394e-25
      241.900   6.78228e-25
      242.000   6.47499e-25
      242.100   6.18145e-25
      242.200   5.90157e-25
      242.300   5.63459e-25
      242.400   5.37943e-25
      242.500   5.13563e-25
      242.600   4.90273e-25
      242.700   4.68019e-25
      242.800   4.46764e-25
      242.900   4.26458e-25
      243.000   4.07061e-25
      243.100   3.88533e-25
      243.200   3.70828e-25
      243.300   3.53921e-25
      243.400   3.37780e-25
      243.500   3.22390e-25
      243.600   3.07723e-25
      243.700   2.93706e-25
      243.800   2.80319e-25
      243.900   2.67538e-25
      244.000   2.55327e-25
      244.100   2.43667e-25
      244.200   2.32532e-25
      244.300   2.21895e-25
      244.400   2.11740e-25
      244.500   2.02043e-25
      244.600   1.92782e-25
      244.700   1.83954e-25
      244.800   1.75547e-25
      244.900   1.67520e-25
      245.000   1.59851e-25
      245.100   1.52529e-25
      245.200   1.45540e-25
      245.300   1.38867e-25
      245.400   1.32494e-25
      245.500   1.26411e-25
      245.600   1.20602e-25
      245.700   1.15056e-25
      245.800   1.09760e-25
      245.900   1.04722e-25
      246.000   9.99195e-26
      246.100   9.53323e-26
      246.200   9.09532e-26
      246.300   8.67716e-26
      246.400   8.27808e-26
      246.500   7.89703e-26
      246.600   7.53325e-26
      246.700   7.18603e-26
      246.800   6.85445e-26
      246.900   6.53801e-26
      247.000   6.23694e-26
      247.100   5.94992e-26
      247.200   5.67597e-26
      247.300   5.41447e-26
      247.400   5.16481e-26
      247.500   4.92647e-26
      247.600   4.69897e-26
      247.700   4.48182e-26
      247.800   4.27454e-26
      247.900   4.07668e-26
      248.000   3.88787e-26
      248.100   3.70866e-26
      248.200   3.53752e-26
      248.300   3.37414e-26
      248.400   3.21819e-26
      248.500   3.06930e-26
      248.600   2.92721e-26
      248.700   2.79161e-26
      248.800   2.66217e-26
      248.900   2.53865e-26
      249.000   2.42077e-26
      249.100   2.30875e-26
      249.200   2.20197e-26
      249.300   2.09999e-26
      249.400   2.00267e-26
      249.500   1.90980e-26
      249.600   1.82114e-26
      249.700   1.73653e-26
      249.800   1.65578e-26
      249.900   1.57873e-26
      250.000   1.50520e-26
      250.100   1.43527e-26
      250.200   1.36863e-26
      250.300   1.30510e-26
      250.400   1.24446e-26
      250.500   1.18661e-26
      250.600   1.13142e-26
      250.700   1.07875e-26
      250.800   1.02851e-26
      250.900   9.80582e-27
      251.000   9.34858e-27
      251.100   8.91234e-27
      251.200   8.49689e-27
      251.300   8.10140e-27
      251.400   7.72416e-27
      251.500   7.36408e-27
      251.600   7.02061e-27
      251.700   6.69317e-27
      251.800   6.38070e-27
      251.900   6.08263e-27
      252.000   5.79826e-27
      252.100   5.52715e-27
      252.200   5.26847e-27
      252.300   5.02213e-27
      252.400   4.78751e-27
      252.500   4.56386e-27
      252.600   4.35046e-27
      252.700   4.14694e-27
      252.800   3.95285e-27
      252.900   3.76773e-27
      253.000   3.59115e-27
      253.100   3.42276e-27
      253.200   3.26218e-27
      253.300   3.10974e-27
      253.400   2.96463e-27
      253.500   2.82641e-27
      253.600   2.69480e-27
      253.700   2.56921e-27
      253.800   2.44944e-27
      253.900   2.33519e-27
      254.000   2.22619e-27
      254.100   2.12219e-27
      254.200   2.02300e-27
      254.300   1.92839e-27
      254.400   1.83813e-27
      254.500   1.75205e-27
      254.600   1.66995e-27
      254.700   1.59166e-27
      254.800   1.51718e-27
      254.900   1.44616e-27
      255.000   1.37843e-27
      255.100   1.31379e-27
      255.200   1.25216e-27
      255.300   1.19339e-27
      255.400   1.13734e-27
      255.500   1.08388e-27
      255.600   1.03292e-27
      255.700   9.84308e-28
      255.800   9.37953e-28
      255.900   8.93741e-28
      256.000   8.51589e-28
      256.100   8.11448e-28
      256.200   7.73228e-28
      256.300   7.36783e-28
      256.400   7.02053e-28
      256.500   6.68911e-28
      256.600   6.37326e-28
      256.700   6.07215e-28
      256.800   5.78501e-28
      256.900   5.51123e-28
      257.000   5.25028e-28
      257.100   5.00149e-28
      257.200   4.76441e-28
      257.300   4.53834e-28
      257.400   4.35292e-28
      257.500   4.18578e-28
      257.600   4.02574e-28
      257.700   3.87183e-28
      257.800   3.72370e-28
      257.900   3.58120e-28
      258.000   3.44407e-28
      258.100   3.31210e-28
      258.200   3.18516e-28
      258.300   3.06306e-28
      258.400   2.94550e-28
      258.500   2.83239e-28
      258.600   2.72361e-28
      258.700   2.61895e-28
      258.800   2.51823e-28
      258.900   2.42141e-28
      259.000   2.32819e-28
      259.100   2.23854e-28
      259.200   2.15236e-28
      259.300   2.06958e-28
      259.400   1.98993e-28
      259.500   1.91328e-28
      259.600   1.83957e-28
      259.700   1.76868e-28
      259.800   1.70046e-28
      259.900   1.63483e-28
      260.000   1.57173e-28
      260.100   1.51104e-28
      260.200   1.45266e-28
      260.300   1.39651e-28
      260.400   1.34251e-28
      260.500   1.29059e-28
      260.600   1.24064e-28
      260.700   1.19259e-28
      260.800   1.14643e-28
      260.900   1.10199e-28
      261.000   1.05931e-28
      261.100   1.01829e-28
      261.200   9.78853e-29
      261.300   9.40918e-29
      261.400   9.04456e-29
      261.500   8.73170e-29
      261.600   8.55227e-29
      261.700   8.39776e-29
      261.800   8.24610e-29
      261.900   8.09707e-29
      262.000   7.95073e-29
      262.100   7.80702e-29
      262.200   7.66597e-29
      262.300   7.52737e-29
      262.400   7.39128e-29
      262.500   7.25768e-29
      262.600   7.12645e-29
      262.700   6.99761e-29
      262.800   6.87107e-29
      262.900   6.74669e-29
      263.000   6.62482e-29
      263.100   6.50502e-29
      263.200   6.38742e-29
      263.300   6.27199e-29
      263.400   6.15859e-29
      263.500   6.04725e-29
      263.600   5.93802e-29
      263.700   5.83068e-29
      263.800   5.72526e-29
      263.900   5.62185e-29
      264.000   5.52028e-29
      264.100   5.42051e-29
      264.200   5.32255e-29
      264.300   5.22643e-29
      264.400   5.13202e-29
      264.500   5.03932e-29
      264.600   4.94827e-29
      264.700   4.85890e-29
      264.800   4.77115e-29
      264.900   4.68505e-29
      265.000   4.60048e-29
      265.100   4.51741e-29
      265.200   4.43588e-29
      265.300   4.35582e-29
      265.400   4.27725e-29
      265.500   4.20010e-29
      265.600   4.12435e-29
      265.700   4.04996e-29
      265.800   3.97702e-29
      265.900   3.90539e-29
      266.000   3.83512e-29
      266.100   3.76614e-29
      266.200   3.69838e-29
      266.300   3.63186e-29
      266.400   3.56655e-29
      266.500   3.50243e-29
      266.600   3.43950e-29
      266.700   3.37766e-29
      266.800   3.31704e-29
      266.900   3.25747e-29
      267.000   3.19899e-29
      267.100   3.14159e-29
      267.200   3.08528e-29
      267.300   3.02996e-29
      267.400   2.97561e-29
      267.500   2.92228e-29
      267.600   2.86992e-29
      267.700   2.81851e-29
      267.800   2.76803e-29
      267.900   2.71849e-29
      268.000   2.66986e-29
      268.100   2.62212e-29
      268.200   2.57524e-29
      268.300   2.52924e-29
      268.400   2.48404e-29
      268.500   2.43967e-29
      268.600   2.39611e-29
      268.700   2.35337e-29
      268.800   2.31138e-29
      268.900   2.27017e-29
      269.000   2.22972e-29
      269.100   2.18998e-29
      269.200   2.15099e-29
      269.300   2.11270e-29
      269.400   2.07510e-29
      269.500   2.03816e-29
      269.600   2.00195e-29
      269.700   1.96634e-29
      269.800   1.93142e-29
      269.900   1.89710e-29
      270.000   1.86345e-29
      270.100   1.83038e-29
      270.200   1.79796e-29
      270.300   1.76610e-29
      270.400   1.73482e-29
      270.500   1.70411e-29
      270.600   1.67394e-29
      270.700   1.64433e-29
      270.800   1.61527e-29
      270.900   1.58671e-29
      271.000   1.55866e-29
      271.100   1.53112e-29
      271.200   1.50406e-29
      271.300   1.47752e-29
      271.400   1.45143e-29
      271.500   1.42584e-29
      271.600   1.40067e-29
      271.700   1.37597e-29
      271.800   1.35171e-29
      271.900   1.32789e-29
      272.000   1.30450e-29
      272.100   1.28152e-29
      272.200   1.25894e-29
      272.300   1.23677e-29
      272.400   1.21499e-29
      272.500   1.19360e-29
      272.600   1.17259e-29
      272.700   1.15196e-29
      272.800   1.13169e-29
      272.900   1.11177e-29
      273.000   1.09223e-29
      273.100   1.07302e-29
      273.200   1.05415e-29
      273.300   1.03562e-29
      273.400   1.01741e-29
      273.500   9.99525e-30
      273.600   9.81956e-30
      273.700   9.64688e-30
      273.800   9.47727e-30
      273.900   9.31079e-30
      274.000   9.14715e-30
      274.100   8.98644e-30
      274.200   8.82849e-30
      274.300   8.67336e-30
      274.400   8.51984e-30
      274.500   8.36673e-30
      274.600   8.21590e-30
      274.700   8.06779e-30
      274.800   7.92234e-30
      274.900   7.77945e-30
      275.000   7.63911e-30
      275.100   7.50133e-30
      275.200   7.36596e-30
      275.300   7.23301e-30
      275.400   7.10254e-30
      275.500   6.97438e-30
      275.600   6.84845e-30
      275.700   6.72478e-30
      275.800   6.60337e-30
      275.900   6.48414e-30
      276.000   6.36705e-30
      276.100   6.25200e-30
      276.200   6.13897e-30
      276.300   6.02801e-30
      276.400   5.91903e-30
      276.500   5.81201e-30
      276.600   5.70691e-30
      276.700   5.60364e-30
      276.800   5.50226e-30
      276.900   5.40263e-30
      277.000   5.30484e-30
      277.100   5.20874e-30
      277.200   5.11440e-30
      277.300   5.02174e-30
      277.400   4.93074e-30
      277.500   4.84128e-30
      277.600   4.75352e-30
      277.700   4.66728e-30
      277.800   4.58251e-30
      277.900   4.49934e-30
      278.000   4.41769e-30
      278.100   4.33747e-30
      278.200   4.25866e-30
      278.300   4.18126e-30
      278.400   4.10528e-30
      278.500   4.03058e-30
      278.600   3.95724e-30
      278.700   3.88526e-30
      278.800   3.81457e-30
      278.900   3.74497e-30
      279.000   3.67660e-30
      279.100   3.60947e-30
      279.200   3.54350e-30
      279.300   3.47877e-30
      279.400   3.41514e-30
      279.500   3.35268e-30
      279.600   3.29135e-30
      279.700   3.23114e-30
      279.800   3.17201e-30
      279.900   3.11391e-30
      280.000   3.05688e-30
      280.100   3.00084e-30
      280.200   2.94585e-30
      280.300   2.89181e-30
      280.400   2.83877e-30
      280.500   2.78673e-30
      280.600   2.73559e-30
      280.700   2.68535e-30
      280.800   2.63604e-30
      280.900   2.58761e-30
      281.000   2.54005e-30
      281.100   2.49335e-30
      281.200   2.44750e-30
      281.300   2.40249e-30
      281.400   2.35830e-30
      281.500   2.31489e-30
      281.600   2.27224e-30
      281.700   2.23039e-30
      281.800   2.18931e-30
      281.900   2.14896e-30
      282.000   2.10936e-30
      282.100   2.07045e-30
      282.200   2.03229e-30
      282.300   1.99479e-30
      282.400   1.95798e-30
      282.500   1.92182e-30
      282.600   1.88634e-30
      282.700   1.85148e-30
      282.800   1.81728e-30
      282.900   1.78372e-30
      283.000   1.75075e-30
      283.100   1.71839e-30
      283.200   1.68664e-30
      283.300   1.65545e-30
      283.400   1.62484e-30
      283.500   1.59481e-30
      283.600   1.56530e-30
      283.700   1.53634e-30
      283.800   1.50790e-30
      283.900   1.48001e-30
      284.000   1.45260e-30
      284.100   1.42569e-30
      284.200   1.39928e-30
      284.300   1.37337e-30
      284.400   1.34793e-30
      284.500   1.32296e-30
      284.600   1.29845e-30
      284.700   1.27439e-30
      284.800   1.25077e-30
      284.900   1.22759e-30
      285.000   1.20482e-30
      285.100   1.18247e-30
      285.200   1.16056e-30
      285.300   1.13903e-30
      285.400   1.11790e-30
      285.500   1.09716e-30
      285.600   1.07683e-30
      285.700   1.05684e-30
      285.800   1.03725e-30
      285.900   1.01801e-30
      286.000   9.99126e-31
      286.100   9.80613e-31
      286.200   9.62428e-31
      286.300   9.44595e-31
      286.400   9.27087e-31
      286.500   9.09897e-31
      286.600   8.93024e-31
      286.700   8.76465e-31
      286.800   8.60223e-31
      286.900   8.44280e-31
      287.000   8.28628e-31
      287.100   8.13266e-31
      287.200   7.98198e-31
      287.300   7.83406e-31
      287.400   7.68887e-31
      287.500   7.54642e-31
      287.600   7.40668e-31
      287.700   7.26945e-31
      287.800   7.13483e-31
      287.900   7.00270e-31
      288.000   6.87309e-31
      288.100   6.74583e-31
      288.200   6.62107e-31
      288.300   6.49865e-31
      288.400   6.37850e-31
      288.500   6.26061e-31
      288.600   6.14484e-31
      288.700   6.03131e-31
      288.800   5.91985e-31
      288.900   5.81055e-31
      289.000   5.70326e-31
      289.100   5.59793e-31
      289.200   5.49458e-31
      289.300   5.39320e-31
      289.400   5.29369e-31
      289.500   5.19602e-31
      289.600   5.10018e-31
      289.700   5.00622e-31
      289.800   4.91391e-31
      289.900   4.82328e-31
      290.000   4.73449e-31
      290.100   4.64723e-31
      290.200   4.56178e-31
      290.300   4.47784e-31
      290.400   4.39549e-31
      290.500   4.31474e-31
      290.600   4.23542e-31
      290.700   4.15758e-31
      290.800   4.08127e-31
      290.900   4.00633e-31
      291.000   3.93275e-31
      291.100   3.86054e-31
      291.200   3.78971e-31
      291.300   3.72019e-31
      291.400   3.65199e-31
      291.500   3.58502e-31
      291.600   3.51930e-31
      291.700   3.45483e-31
      291.800   3.39152e-31
      291.900   3.32947e-31
      292.000   3.26862e-31
      292.100   3.20887e-31
      292.200   3.15023e-31
      292.300   3.09264e-31
      292.400   3.03613e-31
      292.500   2.98066e-31
      292.600   2.92622e-31
      292.700   2.87280e-31
      292.800   2.82036e-31
      292.900   2.76889e-31
      293.000   2.71839e-31
      293.100   2.66881e-31
      293.200   2.62014e-31
      293.300   2.57235e-31
      293.400   2.52551e-31
      293.500   2.47952e-31
      293.600   2.43440e-31
      293.700   2.39009e-31
      293.800   2.34662e-31
      293.900   2.30394e-31
      294.000   2.26204e-31
      294.100   2.22091e-31
      294.200   2.18057e-31
      294.300   2.14096e-31
      294.400   2.10206e-31
      294.500   2.06387e-31
      294.600   2.02637e-31
      294.700   1.98959e-31
      294.800   1.95346e-31
      294.900   1.91800e-31
      295.000   1.88323e-31
      295.100   1.84911e-31
      295.200   1.81561e-31
      295.300   1.78268e-31
      295.400   1.75038e-31
      295.500   1.71868e-31
      295.600   1.68755e-31
      295.700   1.65698e-31
      295.800   1.62697e-31
      295.900   1.59749e-31
      296.000   1.56857e-31
      296.100   1.54015e-31
      296.200   1.51228e-31
      296.300   1.48491e-31
      296.400   1.45809e-31
      296.500   1.43170e-31
      296.600   1.40582e-31
      296.700   1.38040e-31
      296.800   1.35545e-31
      296.900   1.33095e-31
      297.000   1.30688e-31
      297.100   1.28325e-31
      297.200   1.26005e-31
      297.300   1.23727e-31
      297.400   1.21490e-31
      297.500   1.19292e-31
      297.600   1.17138e-31
      297.700   1.15022e-31
      297.800   1.12944e-31
      297.900   1.10905e-31
      298.000   1.08903e-31
      298.100   1.06935e-31
      298.200   1.05003e-31
      298.300   1.03107e-31
      298.400   1.01244e-31
      298.500   9.94141e-32
      298.600   9.76175e-32
      298.700   9.58530e-32
      298.800   9.41194e-32
      298.900   9.24194e-32
      299.000   9.07512e-32
      299.100   8.91126e-32
      299.200   8.75020e-32
      299.300   8.59210e-32
      299.400   8.43683e-32
      299.500   8.28435e-32
      299.600   8.13456e-32
      299.700   7.98744e-32
      299.800   7.84294e-32
      299.900   7.70110e-32
      300.000   7.56176e-32
      300.100   7.42493e-32
      300.192   7.30133e-32
      300.285   7.17827e-32
      300.377   7.05872e-32
      300.470   6.93992e-32
      300.562   6.82428e-32
      300.654   6.71053e-32
      300.747   6.59746e-32
      300.839   6.48751e-32
      300.932   6.37809e-32
      301.025   6.27057e-32
      301.117   6.16605e-32
      301.210   6.06195e-32
      301.303   5.95978e-32
      301.395   5.86038e-32
      301.488   5.76142e-32
      301.581   5.66420e-32
      301.674   5.56860e-32
      301.766   5.47553e-32
      301.859   5.38304e-32
      301.952   5.29214e-32
      302.045   5.20273e-32
      302.138   5.12243e-32
      302.231   5.06048e-32
      302.324   4.99999e-32
      302.417   4.94030e-32
      302.510   4.88119e-32
      302.603   4.82290e-32
      302.696   4.76516e-32
      302.789   4.70811e-32
      302.882   4.65172e-32
      302.976   4.59549e-32
      303.069   4.54043e-32
      303.162   4.48600e-32
      303.255   4.43218e-32
      303.349   4.37845e-32
      303.442   4.32588e-32
      303.535   4.27394e-32
      303.629   4.22205e-32
      303.722   4.17133e-32
      303.816   4.12069e-32
      303.909   4.07110e-32
      304.003   4.02160e-32
      304.096   3.97320e-32
      304.190   3.92484e-32
      304.283   3.87754e-32
      304.377   3.83032e-32
      304.471   3.78361e-32
      304.564   3.73795e-32
      304.658   3.69241e-32
      304.752   3.64732e-32
      304.846   3.60279e-32
      304.939   3.55925e-32
      305.033   3.51575e-32
      305.127   3.47275e-32
      305.221   3.43026e-32
      305.315   3.38833e-32
      305.409   3.34680e-32
      305.503   3.30582e-32
      305.597   3.26534e-32
      305.691   3.22530e-32
      305.785   3.18576e-32
      305.879   3.14665e-32
      305.973   3.10802e-32
      306.067   3.06983e-32
      306.161   3.03212e-32
      306.255   2.99485e-32
      306.350   2.95762e-32
      306.444   2.92121e-32
      306.538   2.88527e-32
      306.633   2.84938e-32
      306.727   2.81428e-32
      306.821   2.77960e-32
      306.916   2.74497e-32
      307.010   2.71179e-32
      307.105   2.68081e-32
      307.199   2.65085e-32
      307.294   2.62088e-32
      307.388   2.59157e-32
      307.483   2.56227e-32
      307.577   2.53360e-32
      307.672   2.50491e-32
      307.767   2.47656e-32
      307.861   2.44880e-32
      307.956   2.42102e-32
      308.051   2.39356e-32
      308.146   2.36644e-32
      308.240   2.33985e-32
      308.335   2.31327e-32
      308.430   2.28698e-32
      308.525   2.26100e-32
      308.620   2.23531e-32
      308.715   2.20989e-32
      308.810   2.18477e-32
      308.905   2.15990e-32
      309.000   2.13529e-32
      309.095   2.11098e-32
      309.190   2.08695e-32
      309.285   2.06317e-32
      309.380   2.03966e-32
      309.476   2.01618e-32
      309.571   1.99318e-32
      309.666   1.97044e-32
      309.761   1.94796e-32
      309.857   1.92550e-32
      309.952   1.90350e-32
      310.047   1.88177e-32
      310.143   1.86005e-32
      310.238   1.83880e-32
      310.334   1.81756e-32
      310.429   1.79679e-32
      310.525   1.77602e-32
      310.620   1.75572e-32
      310.716   1.73543e-32
      310.811   1.71560e-32
      310.907   1.69576e-32
      311.003   1.67615e-32
      311.098   1.65696e-32
      311.194   1.63780e-32
      311.290   1.61888e-32
      311.386   1.60016e-32
      311.481   1.58184e-32
      311.577   1.56353e-32
      311.673   1.54545e-32
      311.769   1.52757e-32
      311.865   1.50988e-32
      311.961   1.49246e-32
      312.057   1.47543e-32
      312.153   1.45866e-32
      312.249   1.44208e-32
      312.345   1.42570e-32
      312.441   1.40949e-32
      312.537   1.39348e-32
      312.633   1.37765e-32
      312.730   1.36182e-32
      312.826   1.34635e-32
      312.922   1.33104e-32
      313.018   1.31592e-32
      313.115   1.30082e-32
      313.211   1.28604e-32
      313.307   1.27143e-32
      313.404   1.25685e-32
      313.500   1.24257e-32
      313.597   1.22832e-32
      313.693   1.21438e-32
      313.790   1.20045e-32
      313.886   1.18683e-32
      313.983   1.17322e-32
      314.079   1.15991e-32
      314.176   1.14661e-32
      314.273   1.13347e-32
      314.369   1.12064e-32
      314.466   1.10781e-32
      314.563   1.09512e-32
      314.660   1.08258e-32
      314.756   1.07032e-32
      314.853   1.05807e-32
      314.950   1.04597e-32
      315.047   1.03401e-32
      315.144   1.02220e-32
      315.241   1.01051e-32
      315.338   9.98972e-33
      315.435   9.87561e-33
      315.532   9.76280e-33
      315.629   9.65135e-33
      315.726   9.54126e-33
      315.823   9.43236e-33
      315.921   9.32370e-33
      316.018   9.21745e-33
      316.115   9.11245e-33
      316.212   9.00862e-33
      316.310   8.90497e-33
      316.407   8.80358e-33
      316.504   8.70338e-33
      316.602   8.60338e-33
      316.699   8.50562e-33
      316.796   8.40885e-33
      316.894   8.31236e-33
      316.991   8.21813e-33
      317.089   8.12518e-33
      317.187   8.03389e-33
      317.284   7.94459e-33
      317.382   7.85540e-33
      317.479   7.76809e-33
      317.577   7.68092e-33
      317.675   7.59478e-33
      317.773   7.50962e-33
      317.870   7.42638e-33
      317.968   7.34318e-33
      318.066   7.26094e-33
      318.164   7.17967e-33
      318.262   7.09935e-33
      318.360   7.01998e-33
      318.458   6.94156e-33
      318.556   6.86410e-33
      318.654   6.78748e-33
      318.752   6.71169e-33
      318.850   6.63685e-33
      318.948   6.56285e-33
      319.046   6.48972e-33
      319.144   6.41741e-33
      319.242   6.34596e-33
      319.341   6.27463e-33
      319.439   6.20484e-33
      319.537   6.13591e-33
      319.635   6.06772e-33
      319.734   5.99963e-33
      319.832   5.93304e-33
      319.930   5.86717e-33
      320.029   5.80141e-33
      320.127   5.73711e-33
      320.226   5.67291e-33
      320.324   5.61005e-33
      320.423   5.54724e-33
      320.522   5.48530e-33
      320.620   5.42463e-33
      320.719   5.36400e-33
      320.818   5.30414e-33
      320.916   5.24554e-33
      321.015   5.18703e-33
      321.114   5.12916e-33
      321.213   5.07200e-33
      321.311   5.01609e-33
      321.410   4.96026e-33
      321.509   4.90499e-33
      321.608   4.85042e-33
      321.707   4.79648e-33
      321.806   4.74315e-33
      321.905   4.69045e-33
      322.004   4.63835e-33
      322.103   4.58685e-33
      322.202   4.53588e-33
      322.301   4.48557e-33
      322.401   4.43534e-33
      322.500   4.38617e-33
      322.599   4.33757e-33
      322.698   4.28948e-33
      322.798   4.24149e-33
      322.897   4.19453e-33
      322.996   4.14811e-33
      323.096   4.10173e-33
      323.195   4.05636e-33
      323.294   4.01147e-33
      323.394   3.96666e-33
      323.493   3.92282e-33
      323.593   3.87908e-33
      323.692   3.83622e-33
      323.792   3.79342e-33
      323.892   3.75109e-33
      323.991   3.70966e-33
      324.091   3.66835e-33
      324.191   3.62748e-33
      324.291   3.58704e-33
      324.390   3.54750e-33
      324.490   3.50800e-33
      324.590   3.46893e-33
      324.690   3.43030e-33
      324.790   3.39212e-33
      324.890   3.35438e-33
      324.990   3.31708e-33
      325.090   3.28018e-33
      325.190   3.24367e-33
      325.290   3.20761e-33
      325.390   3.17192e-33
      325.490   3.13666e-33
      325.590   3.10181e-33
      325.690   3.06728e-33
      325.790   3.03317e-33
      325.891   2.99912e-33
      325.991   2.96578e-33
      326.091   2.93280e-33
      326.192   2.89988e-33
      326.292   2.86765e-33
      326.392   2.83579e-33
      326.493   2.80396e-33
      326.593   2.77279e-33
      326.694   2.74168e-33
      326.794   2.71119e-33
      326.895   2.68075e-33
      326.995   2.65095e-33
      327.096   2.62119e-33
      327.197   2.59175e-33
      327.297   2.56293e-33
      327.398   2.53416e-33
      327.499   2.50571e-33
      327.599   2.47784e-33
      327.700   2.45000e-33
      327.801   2.42246e-33
      327.902   2.39526e-33
      328.003   2.36834e-33
      328.104   2.34172e-33
      328.205   2.31541e-33
      328.306   2.28938e-33
      328.407   2.26364e-33
      328.508   2.23816e-33
      328.609   2.21297e-33
      328.710   2.18805e-33
      328.811   2.16342e-33
      328.912   2.13907e-33
      329.013   2.11497e-33
      329.115   2.09093e-33
      329.216   2.06738e-33
      329.317   2.04405e-33
      329.419   2.02080e-33
      329.520   1.99800e-33
      329.621   1.97543e-33
      329.723   1.95292e-33
      329.824   1.93088e-33
      329.926   1.90887e-33
      330.027   1.88730e-33
      330.129   1.86576e-33
      330.230   1.84467e-33
      330.332   1.82360e-33
      330.434   1.80275e-33
      330.535   1.78236e-33
      330.637   1.76197e-33
      330.739   1.74180e-33
      330.840   1.72206e-33
      330.942   1.70234e-33
      331.044   1.68284e-33
      331.146   1.66355e-33
      331.248   1.64447e-33
      331.350   1.62562e-33
      331.452   1.60698e-33
      331.554   1.58892e-33
      331.656   1.57164e-33
      331.758   1.55454e-33
      331.860   1.53760e-33
      331.962   1.52085e-33
      332.064   1.50428e-33
      332.166   1.48790e-33
      332.268   1.47166e-33
      332.371   1.45545e-33
      332.473   1.43955e-33
      332.575   1.42381e-33
      332.677   1.40825e-33
      332.780   1.39269e-33
      332.882   1.37745e-33
      332.985   1.36223e-33
      333.087   1.34730e-33
      333.190   1.33239e-33
      333.292   1.31760e-33
      333.395   1.30236e-33
      333.497   1.28726e-33
      333.600   1.27219e-33
      333.702   1.25743e-33
      333.805   1.24269e-33
      333.908   1.22811e-33
      334.011   1.21370e-33
      334.113   1.19959e-33
      334.216   1.18549e-33
      334.319   1.17156e-33
      334.422   1.15777e-33
      334.525   1.14414e-33
      334.628   1.13066e-33
      334.731   1.11735e-33
      334.834   1.10418e-33
      334.937   1.09116e-33
      335.040   1.07827e-33
      335.143   1.06554e-33
      335.246   1.05295e-33
      335.349   1.04050e-33
      335.452   1.02819e-33
      335.555   1.01602e-33
      335.659   1.00387e-33
      335.762   9.91982e-34
      335.865   9.80233e-34
      335.969   9.68491e-34
      336.072   9.56983e-34
      336.175   9.45621e-34
      336.279   9.34281e-34
      336.382   9.23180e-34
      336.486   9.12088e-34
      336.589   9.01227e-34
      336.693   8.90405e-34
      336.796   8.79798e-34
      336.900   8.69216e-34
      337.004   8.58746e-34
      337.107   8.48501e-34
      337.211   8.38279e-34
      337.315   8.28186e-34
      337.419   8.18190e-34
      337.523   8.08306e-34
      337.626   7.98639e-34
      337.730   7.89007e-34
      337.834   7.79464e-34
      337.938   7.70049e-34
      338.042   7.60758e-34
      338.146   7.51666e-34
      338.250   7.42693e-34
      338.354   7.33825e-34
      338.458   7.25052e-34
      338.562   7.16386e-34
      338.667   7.07735e-34
      338.771   6.99263e-34
      338.875   6.90894e-34
      338.979   6.82618e-34
      339.084   6.74371e-34
      339.188   6.66285e-34
      339.292   6.58306e-34
      339.397   6.50331e-34
      339.501   6.42536e-34
      339.606   6.34753e-34
      339.710   6.27132e-34
      339.815   6.19536e-34
      339.919   6.12099e-34
      340.024   6.04674e-34
      340.128   5.97412e-34
      340.233   5.90164e-34
      340.338   5.83008e-34
      340.442   5.75995e-34
      340.547   5.69004e-34
      340.652   5.62096e-34
      340.757   5.55266e-34
      340.862   5.48519e-34
      340.966   5.41921e-34
      341.071   5.35325e-34
      341.176   5.28817e-34
      341.281   5.22388e-34
      341.386   5.16043e-34
      341.491   5.09763e-34
      341.596   5.03571e-34
      341.702   4.97389e-34
      341.807   4.91332e-34
      341.912   4.85358e-34
      342.017   4.79458e-34
      342.122   4.73622e-34
      342.228   4.67801e-34
      342.333   4.62110e-34
      342.438   4.56487e-34
      342.544   4.50882e-34
      342.649   4.45390e-34
      342.754   4.39977e-34
      342.860   4.34568e-34
      342.965   4.29276e-34
      343.071   4.24008e-34
      343.176   4.18849e-34
      343.282   4.13702e-34
      343.388   4.08623e-34
      343.493   4.03678e-34
      343.599   3.98961e-34
      343.705   3.94330e-34
      343.810   3.89786e-34
      343.916   3.85255e-34
      344.022   3.80785e-34
      344.128   3.76359e-34
      344.234   3.71986e-34
      344.340   3.67669e-34
      344.446   3.63394e-34
      344.552   3.59174e-34
      344.658   3.55012e-34
      344.764   3.50891e-34
      344.870   3.46820e-34
      344.976   3.42796e-34
      345.082   3.38820e-34
      345.188   3.34895e-34
      345.294   3.31012e-34
      345.401   3.27140e-34
      345.507   3.23350e-34
      345.613   3.19605e-34
      345.719   3.15905e-34
      345.826   3.12215e-34
      345.932   3.08601e-34
      346.039   3.05000e-34
      346.145   3.01469e-34
      346.252   2.97953e-34
      346.358   2.94512e-34
      346.465   2.91075e-34
      346.571   2.87714e-34
      346.678   2.84361e-34
      346.785   2.81048e-34
      346.891   2.77805e-34
      346.998   2.74572e-34
      347.105   2.71381e-34
      347.212   2.68222e-34
      347.319   2.65105e-34
      347.425   2.62049e-34
      347.532   2.59005e-34
      347.639   2.56000e-34
      347.746   2.53026e-34
      347.853   2.50094e-34
      347.960   2.47190e-34
      348.067   2.44328e-34
      348.174   2.41501e-34
      348.281   2.38700e-34
      348.389   2.35915e-34
      348.496   2.33181e-34
      348.603   2.30488e-34
      348.710   2.27821e-34
      348.818   2.25168e-34
      348.925   2.22565e-34
      349.032   2.19999e-34
      349.140   2.17432e-34
      349.247   2.14920e-34
      349.355   2.12420e-34
      349.462   2.09969e-34
      349.570   2.07523e-34
      349.677   2.05133e-34
      349.785   2.02746e-34
      349.892   2.00413e-34
      350.000   1.98087e-34
      350.100   1.95956e-34
      350.193   1.93999e-34
      350.287   1.92039e-34
      350.380   1.90119e-34
      350.473   1.88222e-34
      350.567   1.86322e-34
      350.660   1.84463e-34
      350.754   1.82603e-34
      350.847   1.80786e-34
      350.941   1.78965e-34
      351.034   1.77181e-34
      351.128   1.75400e-34
      351.221   1.73655e-34
      351.315   1.71912e-34
      351.409   1.70182e-34
      351.502   1.68492e-34
      351.596   1.66800e-34
      351.690   1.65126e-34
      351.783   1.63489e-34
      351.877   1.61853e-34
      351.971   1.60229e-34
      352.065   1.58625e-34
      352.159   1.57038e-34
      352.252   1.55484e-34
      352.346   1.53928e-34
      352.440   1.52389e-34
      352.534   1.50868e-34
      352.628   1.49363e-34
      352.722   1.47871e-34
      352.816   1.46395e-34
      352.910   1.44936e-34
      353.004   1.43491e-34
      353.098   1.42061e-34
      353.192   1.40646e-34
      353.287   1.39231e-34
      353.381   1.37846e-34
      353.475   1.36476e-34
      353.569   1.35117e-34
      353.663   1.33774e-34
      353.758   1.32432e-34
      353.852   1.31119e-34
      353.946   1.29818e-34
      354.041   1.28515e-34
      354.135   1.27241e-34
      354.229   1.25979e-34
      354.324   1.24719e-34
      354.418   1.23482e-34
      354.513   1.22246e-34
      354.607   1.21039e-34
      354.702   1.19824e-34
      354.796   1.18626e-34
      354.891   1.17425e-34
      354.985   1.16251e-34
      355.080   1.15075e-34
      355.175   1.13913e-34
      355.269   1.12774e-34
      355.364   1.11635e-34
      355.459   1.10508e-34
      355.553   1.09405e-34
      355.648   1.08301e-34
      355.743   1.07209e-34
      355.838   1.06127e-34
      355.933   1.05058e-34
      356.027   1.04011e-34
      356.122   1.02963e-34
      356.217   1.01926e-34
      356.312   1.00900e-34
      356.407   9.98844e-35
      356.502   9.88796e-35
      356.597   9.78834e-35
      356.692   9.69003e-35
      356.787   9.59261e-35
      356.882   9.49614e-35
      356.977   9.40073e-35
      357.073   9.30537e-35
      357.168   9.21179e-35
      357.263   9.11928e-35
      357.358   9.02774e-35
      357.453   8.93715e-35
      357.549   8.84655e-35
      357.644   8.75777e-35
      357.739   8.66993e-35
      357.835   8.58213e-35
      357.930   8.49608e-35
      358.025   8.41085e-35
      358.121   8.32563e-35
      358.216   8.24216e-35
      358.312   8.15865e-35
      358.407   8.07695e-35
      358.503   7.99515e-35
      358.598   7.91516e-35
      358.694   7.83506e-35
      358.790   7.75576e-35
      358.885   7.67803e-35
      358.981   7.60039e-35
      359.076   7.52425e-35
      359.172   7.44820e-35
      359.268   7.37278e-35
      359.364   7.29816e-35
      359.459   7.22518e-35
      359.555   7.15217e-35
      359.651   7.07979e-35
      359.747   7.00819e-35
      359.843   6.93734e-35
      359.939   6.86715e-35
      360.035   6.79772e-35
      360.131   6.72898e-35
      360.227   6.66091e-35
      360.323   6.59358e-35
      360.419   6.52694e-35
      360.515   6.46097e-35
      360.611   6.39564e-35
      360.707   6.33090e-35
      360.803   6.26690e-35
      360.899   6.20347e-35
      360.995   6.14082e-35
      361.092   6.07808e-35
      361.188   6.01658e-35
      361.284   5.95573e-35
      361.380   5.89551e-35
      361.477   5.83523e-35
      361.573   5.77622e-35
      361.669   5.71777e-35
      361.766   5.65923e-35
      361.862   5.60198e-35
      361.959   5.54471e-35
      362.055   5.48847e-35
      362.152   5.43235e-35
      362.248   5.37729e-35
      362.345   5.32220e-35
      362.441   5.26833e-35
      362.538   5.21441e-35
      362.635   5.16102e-35
      362.731   5.10864e-35
      362.828   5.05623e-35
      362.925   5.00442e-35
      363.021   4.95367e-35
      363.118   4.90288e-35
      363.215   4.85253e-35
      363.312   4.80272e-35
      363.409   4.75346e-35
      363.505   4.70514e-35
      363.602   4.65680e-35
      363.699   4.60902e-35
      363.796   4.56163e-35
      363.893   4.51473e-35
      363.990   4.46830e-35
      364.087   4.42233e-35
      364.184   4.37684e-35
      364.281   4.33178e-35
      364.378   4.28723e-35
      364.475   4.24306e-35
      364.573   4.19885e-35
      364.670   4.15555e-35
      364.767   4.11273e-35
      364.864   4.07032e-35
      364.961   4.02829e-35
      365.059   3.98629e-35
      365.156   3.94514e-35
      365.253   3.90438e-35
      365.351   3.86360e-35
      365.448   3.82364e-35
      365.545   3.78412e-35
      365.643   3.74454e-35
      365.740   3.70575e-35
      365.838   3.66698e-35
      365.935   3.62899e-35
      366.033   3.59101e-35
      366.130   3.55375e-35
      366.228   3.51650e-35
      366.326   3.47963e-35
      366.423   3.44348e-35
      366.521   3.40732e-35
      366.618   3.37187e-35
      366.716   3.33642e-35
      366.814   3.30134e-35
      366.912   3.26663e-35
      367.010   3.23227e-35
      367.107   3.19859e-35
      367.205   3.16487e-35
      367.303   3.13150e-35
      367.401   3.09848e-35
      367.499   3.06578e-35
      367.597   3.03341e-35
      367.695   3.00135e-35
      367.793   2.96964e-35
      367.891   2.93826e-35
      367.989   2.90718e-35
      368.087   2.87641e-35
      368.185   2.84594e-35
      368.283   2.81578e-35
      368.381   2.78592e-35
      368.480   2.75606e-35
      368.578   2.72681e-35
      368.676   2.69786e-35
      368.774   2.66921e-35
      368.873   2.64056e-35
      368.971   2.61248e-35
      369.069   2.58470e-35
      369.168   2.55689e-35
      369.266   2.52963e-35
      369.364   2.50267e-35
      369.463   2.47574e-35
      369.561   2.44932e-35
      369.660   2.42291e-35
      369.758   2.39703e-35
      369.857   2.37116e-35
      369.955   2.34582e-35
      370.054   2.32045e-35
      370.153   2.29535e-35
      370.251   2.27077e-35
      370.350   2.24621e-35
      370.449   2.22190e-35
      370.547   2.19807e-35
      370.646   2.17421e-35
      370.745   2.15064e-35
      370.844   2.12730e-35
      370.943   2.10421e-35
      371.041   2.08159e-35
      371.140   2.05895e-35
      371.239   2.03655e-35
      371.338   2.01441e-35
      371.437   1.99249e-35
      371.536   1.97078e-35
      371.635   1.94930e-35
      371.734   1.92806e-35
      371.833   1.90704e-35
      371.932   1.88622e-35
      372.032   1.86543e-35
      372.131   1.84503e-35
      372.230   1.82489e-35
      372.329   1.80495e-35
      372.428   1.78522e-35
      372.528   1.76550e-35
      372.627   1.74619e-35
      372.726   1.72708e-35
      372.826   1.70799e-35
      372.925   1.68928e-35
      373.024   1.67076e-35
      373.124   1.65225e-35
      373.223   1.63413e-35
      373.323   1.61602e-35
      373.422   1.59828e-35
      373.522   1.58054e-35
      373.621   1.56318e-35
      373.721   1.54583e-35
      373.820   1.52883e-35
      373.920   1.51183e-35
      374.020   1.49502e-35
      374.119   1.47856e-35
      374.219   1.46210e-35
      374.319   1.44583e-35
      374.419   1.42974e-35
      374.518   1.41396e-35
      374.618   1.39821e-35
      374.718   1.38260e-35
      374.818   1.36718e-35
      374.918   1.35193e-35
      375.018   1.33684e-35
      375.118   1.32192e-35
      375.218   1.30715e-35
      375.318   1.29255e-35
      375.418   1.27810e-35
      375.518   1.26382e-35
      375.618   1.24969e-35
      375.718   1.23569e-35
      375.818   1.22186e-35
      375.918   1.20818e-35
      376.019   1.19453e-35
      376.119   1.18115e-35
      376.219   1.16792e-35
      376.319   1.15483e-35
      376.420   1.14175e-35
      376.520   1.12895e-35
      376.620   1.11629e-35
      376.721   1.10364e-35
      376.821   1.09126e-35
      376.922   1.07888e-35
      377.022   1.06677e-35
      377.122   1.05480e-35
      377.223   1.04284e-35
      377.323   1.03112e-35
      377.424   1.01942e-35
      377.525   1.00786e-35
      377.625   9.96525e-36
      377.726   9.85211e-36
      377.827   9.74030e-36
      377.927   9.63073e-36
      378.028   9.52139e-36
      378.129   9.41325e-36
      378.230   9.32885e-36
      378.330   9.28049e-36
      378.431   9.23768e-36
      378.532   9.19513e-36
      378.633   9.15265e-36
      378.734   9.11043e-36
      378.835   9.06836e-36
      378.936   9.02648e-36
      379.037   8.98471e-36
      379.138   8.94302e-36
      379.239   8.90161e-36
      379.340   8.86047e-36
      379.441   8.81948e-36
      379.542   8.77858e-36
      379.643   8.73789e-36
      379.745   8.69696e-36
      379.846   8.65664e-36
      379.947   8.61635e-36
      380.048   8.57635e-36
      380.150   8.53614e-36
      380.251   8.49648e-36
      380.352   8.45701e-36
      380.454   8.41736e-36
      380.555   8.37819e-36
      380.656   8.33915e-36
      380.758   8.29999e-36
      380.859   8.26132e-36
      380.961   8.22249e-36
      381.062   8.18423e-36
      381.164   8.14576e-36
      381.266   8.10744e-36
      381.367   8.06969e-36
      381.469   8.03178e-36
      381.570   7.99440e-36
      381.672   7.95675e-36
      381.774   7.91933e-36
      381.876   7.88207e-36
      381.977   7.84538e-36
      382.079   7.80844e-36
      382.181   7.77170e-36
      382.283   7.73518e-36
      382.385   7.69879e-36
      382.487   7.66262e-36
      382.589   7.62657e-36
      382.691   7.59068e-36
      382.793   7.55500e-36
      382.895   7.51953e-36
      382.997   7.48423e-36
      383.099   7.44905e-36
      383.201   7.41404e-36
      383.303   7.37928e-36
      383.405   7.34457e-36
      383.507   7.31002e-36
      383.610   7.27540e-36
      383.712   7.24126e-36
      383.814   7.20729e-36
      383.916   7.17356e-36
      384.019   7.13958e-36
      384.121   7.10615e-36
      384.223   7.07278e-36
      384.326   7.04201e-36
      384.428   7.01832e-36
      384.531   6.99646e-36
      384.633   6.97492e-36
      384.736   6.95324e-36
      384.838   6.93176e-36
      384.941   6.91021e-36
      385.043   6.88893e-36
      385.146   6.86763e-36
      385.249   6.84628e-36
      385.351   6.82522e-36
      385.454   6.80410e-36
      385.557   6.78301e-36
      385.660   6.76205e-36
      385.762   6.74135e-36
      385.865   6.72052e-36
      385.968   6.69974e-36
      386.071   6.67908e-36
      386.174   6.65845e-36
      386.277   6.63791e-36
      386.380   6.61744e-36
      386.483   6.59704e-36
      386.586   6.57684e-36
      386.689   6.55663e-36
      386.792   6.53648e-36
      386.895   6.51639e-36
      386.998   6.49644e-36
      387.101   6.47649e-36
      387.204   6.45658e-36
      387.308   6.43670e-36
      387.411   6.41705e-36
      387.514   6.39744e-36
      387.617   6.37788e-36
      387.721   6.35824e-36
      387.824   6.33889e-36
      387.927   6.31959e-36
      388.031   6.30017e-36
      388.134   6.28099e-36
      388.238   6.26176e-36
      388.341   6.24275e-36
      388.445   6.22368e-36
      388.548   6.20478e-36
      388.652   6.18591e-36
      388.755   6.16722e-36
      388.859   6.14837e-36
      388.962   6.12980e-36
      389.066   6.11112e-36
      389.170   6.09254e-36
      389.274   6.07408e-36
      389.377   6.05589e-36
      389.481   6.03748e-36
      389.585   6.01919e-36
      389.689   6.00093e-36
      389.793   5.98282e-36
      389.897   5.96472e-36
      390.000   5.94694e-36
      390.104   5.92903e-36
      390.208   5.91114e-36
      390.312   5.89334e-36
      390.416   5.87557e-36
      390.520   5.85780e-36
      390.625   5.83999e-36
      390.729   5.82234e-36
      390.833   5.80480e-36
      390.937   5.78733e-36
      391.041   5.76993e-36
      391.145   5.75251e-36
      391.250   5.73510e-36
      391.354   5.71786e-36
      391.458   5.70068e-36
      391.563   5.68344e-36
      391.667   5.66644e-36
      391.771   5.64951e-36
      391.876   5.63249e-36
      391.980   5.61563e-36
      392.085   5.59872e-36
      392.189   5.58206e-36
      392.294   5.56529e-36
      392.398   5.54874e-36
      392.503   5.53209e-36
      392.607   5.51562e-36
      392.712   5.49916e-36
      392.817   5.48263e-36
      392.921   5.46646e-36
      393.026   5.45009e-36
      393.131   5.43382e-36
      393.236   5.41757e-36
      393.340   5.40163e-36
      393.445   5.38559e-36
      393.550   5.36952e-36
      393.655   5.35357e-36
      393.760   5.33766e-36
      393.865   5.32186e-36
      393.970   5.30604e-36
      394.075   5.29031e-36
      394.180   5.27471e-36
      394.285   5.25913e-36
      394.390   5.24352e-36
      394.495   5.22802e-36
      394.600   5.21261e-36
      394.706   5.19706e-36
      394.811   5.18179e-36
      394.916   5.16643e-36
      395.021   5.15123e-36
      395.126   5.13607e-36
      395.232   5.12081e-36
      395.337   5.10570e-36
      395.443   5.09058e-36
      395.548   5.07559e-36
      395.653   5.06063e-36
      395.759   5.04569e-36
      395.864   5.03091e-36
      395.970   5.01602e-36
      396.075   5.00131e-36
      396.181   4.98652e-36
      396.286   4.97184e-36
      396.392   4.95718e-36
      396.498   4.94257e-36
      396.603   4.92804e-36
      396.709   4.91345e-36
      396.815   4.89886e-36
      396.921   4.88439e-36
      397.026   4.87010e-36
      397.132   4.85576e-36
      397.238   4.84143e-36
      397.344   4.82713e-36
      397.450   4.81292e-36
      397.556   4.79869e-36
      397.662   4.78451e-36
      397.768   4.77039e-36
      397.874   4.75641e-36
      397.980   4.74228e-36
      398.086   4.72834e-36
      398.192   4.71433e-36
      398.298   4.70039e-36
      398.404   4.68661e-36
      398.510   4.67275e-36
      398.617   4.65879e-36
      398.723   4.64503e-36
      398.829   4.63131e-36
      398.935   4.61757e-36
      399.042   4.60387e-36
      399.148   4.59021e-36
      399.255   4.57649e-36
      399.361   4.56293e-36
      399.467   4.54939e-36
      399.574   4.53585e-36
      399.680   4.52235e-36
      399.787   4.50874e-36
      399.893       0.00000
      400.000       0.00000
