Filter Al-thick
observation_date 2013-09-22 22:40:45
wavelength effective area
      1.00000   2.52797e-10
      1.10000   6.99235e-10
      1.20000   1.75057e-09
      1.30000   4.00503e-09
      1.40000   8.63393e-09
      1.50000   1.73697e-08
      1.60000   3.28994e-08
      1.70000   5.92542e-08
      1.80000   1.01465e-07
      1.90000   1.66201e-07
      2.00000   2.60870e-07
      2.10000   3.93902e-07
      2.20000   5.74591e-07
      2.30000   8.08527e-07
      2.40000   1.09916e-06
      2.50000   1.43843e-06
      2.60000   1.85780e-06
      2.70000   2.31655e-06
      2.80000   2.80081e-06
      2.90000   3.30679e-06
      3.00000   3.79696e-06
      3.10000   4.24894e-06
      3.20000   4.64105e-06
      3.30000   4.95081e-06
      3.40000   5.15695e-06
      3.50000   5.24928e-06
      3.60000   5.23922e-06
      3.70000   5.10764e-06
      3.80000   4.88409e-06
      3.90000   4.57879e-06
      4.00000   4.20601e-06
      4.10000   3.78980e-06
      4.20000   3.35294e-06
      4.30000   2.91390e-06
      4.40000   2.48841e-06
      4.50000   2.08802e-06
      4.60000   1.72043e-06
      4.70000   1.39666e-06
      4.80000   1.11531e-06
      4.90000   8.66219e-07
      5.00000   6.79965e-07
      5.10000   5.18555e-07
      5.20000   3.90834e-07
      5.30000   2.87586e-07
      5.40000   2.08223e-07
      5.50000   1.48961e-07
      5.60000   1.01654e-07
      5.70000   7.19042e-08
      5.80000   4.51571e-08
      5.90000   3.65676e-08
      6.00000   2.57247e-08
      6.10000   1.69681e-08
      6.20000   1.07919e-08
      6.30000   6.46890e-09
      6.40000   3.65093e-09
      6.50000   1.94679e-09
      6.60000   9.74469e-10
      6.70000   4.69951e-10
      6.80000   2.19566e-10
      6.90000   1.32235e-10
      7.00000   6.60056e-11
      7.10000   3.14373e-11
      7.20000   1.45002e-11
      7.30000   6.59372e-12
      7.40000   3.05289e-12
      7.50000   1.35407e-12
      7.60000   5.73399e-13
      7.70000   2.50330e-13
      7.80000   1.03220e-13
      7.90000   4.15963e-14
      8.00000     0.0718170
      8.10000     0.0718689
      8.20000     0.0665906
      8.30000     0.0612807
      8.40000     0.0563430
      8.50000     0.0516519
      8.60000     0.0472395
      8.70000     0.0430593
      8.80000     0.0391520
      8.90000     0.0354722
      9.00000     0.0320485
      9.10000     0.0288732
      9.20000     0.0259183
      9.30000     0.0232249
      9.40000     0.0207428
      9.50000     0.0184601
      9.60000     0.0164064
      9.70000     0.0145334
      9.80000     0.0128234
      9.90000     0.0112848
      10.0000    0.00990163
      10.1000    0.00865456
      10.2000    0.00753503
      10.3000    0.00654594
      10.4000    0.00567517
      10.5000    0.00490384
      10.6000    0.00422324
      10.7000    0.00362491
      10.8000    0.00310353
      10.9000    0.00265351
      11.0000    0.00226151
      11.1000    0.00192130
      11.2000    0.00162706
      11.3000    0.00137354
      11.4000    0.00115587
      11.5000   0.000969612
      11.6000   0.000810813
      11.7000   0.000677244
      11.8000   0.000564094
      11.9000   0.000469402
      12.0000   0.000389600
      12.1000   0.000323941
      12.2000   0.000273712
      12.3000   0.000227604
      12.4000   0.000187010
      12.5000   0.000153058
      12.6000   0.000124834
      12.7000   0.000101468
      12.8000   8.22105e-05
      12.9000   6.64061e-05
      13.0000   5.34750e-05
      13.1000   4.29248e-05
      13.2000   3.43446e-05
      13.3000   2.73883e-05
      13.4000   2.17676e-05
      13.5000   1.72501e-05
      13.6000   1.36888e-05
      13.7000   1.08292e-05
      13.8000   8.53901e-06
      13.9000   6.71033e-06
      14.0000   5.25430e-06
      14.1000   4.09838e-06
      14.2000   3.18372e-06
      14.3000   2.46265e-06
      14.4000   1.89649e-06
      14.5000   1.45996e-06
      14.6000   1.12707e-06
      14.7000   8.65978e-07
      14.8000   6.61977e-07
      14.9000   5.03259e-07
      15.0000   3.80374e-07
      15.1000   2.85732e-07
      15.2000   2.16639e-07
      15.3000   1.63670e-07
      15.4000   1.22777e-07
      15.5000   9.14184e-08
      15.6000   6.75457e-08
      15.7000   5.01009e-08
      15.8000   3.73916e-08
      15.9000   2.76572e-08
      16.0000   2.02734e-08
      16.1000   1.47281e-08
      16.2000   1.08688e-08
      16.3000   7.99961e-09
      16.4000   5.81788e-09
      16.5000   4.18146e-09
      16.6000   3.02574e-09
      16.7000   2.20823e-09
      16.8000   1.58687e-09
      16.9000   1.12354e-09
      17.0000   8.03649e-10
      17.1000   5.79265e-10
      17.2000   4.09631e-10
      17.3000   2.84613e-10
      17.4000   2.04256e-10
      17.5000   1.45692e-10
      17.6000   1.02166e-10
      17.7000   7.18611e-11
      17.8000   5.21920e-11
      17.9000   3.70441e-11
      18.0000   2.56993e-11
      18.1000   1.85234e-11
      18.2000   1.30152e-11
      18.3000   8.85443e-12
      18.4000   6.15736e-12
      18.5000   4.22136e-12
      18.6000   2.77397e-12
      18.7000   1.85388e-12
      18.8000   1.23642e-12
      18.9000   7.88140e-13
      19.0000   5.20984e-13
      19.1000   3.43417e-13
      19.2000   2.15629e-13
      19.3000   1.43204e-13
      19.4000   9.34209e-14
      19.5000   5.79665e-14
      19.6000   3.91288e-14
      19.7000   2.52116e-14
      19.8000   1.56463e-14
      19.9000   1.06223e-14
      20.0000   6.70259e-15
      20.1000   4.29234e-15
      20.2000   2.81558e-15
      20.3000   1.71845e-15
      20.4000   1.13632e-15
      20.5000   7.14633e-16
      20.6000   4.35628e-16
      20.7000   2.87234e-16
      20.8000   1.72217e-16
      20.9000   1.10905e-16
      21.0000   6.86989e-17
      21.1000   4.07713e-17
      21.2000   2.65639e-17
      21.3000   1.54465e-17
      21.4000   9.91455e-18
      21.5000   5.94228e-18
      21.6000   3.55006e-18
      21.7000   2.22442e-18
      21.8000   1.23490e-18
      21.9000   8.10694e-19
      22.0000   4.61311e-19
      22.1000   2.86813e-19
      22.2000   1.68047e-19
      22.3000   9.76148e-20
      22.4000   5.90234e-20
      22.5000   3.06091e-20
      22.6000   1.85686e-20
      22.7000   8.66984e-21
      22.8000   6.50718e-21
      22.9000   4.76822e-21
      23.0000   3.70111e-21
      23.1000   2.67837e-21
      23.2000   1.70491e-21
      23.3000   1.07188e-21
      23.4000   6.09007e-22
      23.5000   3.77631e-22
      23.6000   2.02819e-22
      23.7000   1.29994e-22
      23.8000   6.68446e-23
      23.9000   4.36619e-23
      24.0000   2.24917e-23
      24.1000   1.43890e-23
      24.2000   7.40900e-24
      24.3000   4.65583e-24
      24.4000   2.40124e-24
      24.5000   1.48728e-24
      24.6000   7.68451e-25
      24.7000   4.70283e-25
      24.8000   2.42693e-25
      24.9000   1.47773e-25
      25.0000   7.63206e-26
      25.1000   4.62367e-26
      25.2000   2.36518e-26
      25.3000   1.43452e-26
      25.4000   7.26116e-27
      25.5000   4.41589e-27
      25.6000   2.19158e-27
      25.7000   1.34238e-27
      25.8000   6.50704e-28
      25.9000   4.02723e-28
      26.0000   1.89620e-28
      26.1000   1.18976e-28
      26.2000   5.41961e-29
      26.3000   3.45646e-29
      26.4000   1.51733e-29
      26.5000   9.85643e-30
      26.6000   4.56573e-30
      26.7000   2.75378e-30
      26.8000   1.35892e-30
      26.9000   7.52957e-31
      27.0000   3.94876e-31
      27.1000   2.01140e-31
      27.2000   1.11648e-31
      27.3000   5.24091e-32
      27.4000   3.07598e-32
      27.5000   1.34379e-32
      27.6000   8.25871e-33
      27.7000   3.32831e-33
      27.8000   2.13533e-33
      27.9000   9.48175e-34
      28.0000   5.33073e-34
      28.1000   2.69135e-34
      28.2000   1.29530e-34
      28.3000   7.27612e-35
      28.4000   3.13895e-35
      28.5000   1.90460e-35
      28.6000   7.43818e-36
      28.7000   4.85619e-36
      28.8000   2.28705e-36
      28.9000   1.26479e-36
      29.0000   6.84693e-37
      29.1000   3.17180e-37
      29.2000   1.89732e-37
      29.3000   7.66867e-38
      29.4000   4.94445e-38
      29.5000   2.23403e-38
      29.6000   1.22235e-38
      29.7000   6.59233e-39
      29.8000   2.88222e-39
      29.9000   1.74548e-39
      30.0000   6.50414e-40
      30.1000   4.27573e-40
      30.2000   2.05848e-40
      30.3000   9.87719e-41
      30.4000   5.72276e-41
      30.5000   2.28594e-41
      30.6000   1.45623e-41
      30.7000   6.31005e-42
      30.8000   3.25942e-42
      30.9000   1.78666e-42
      31.0000   6.89439e-43
      31.1000   4.34403e-43
      31.2000   1.75162e-43
      31.3000   9.52883e-44
      31.4000   4.76441e-44
      31.5000   1.96182e-44
      31.6000   1.26117e-44
      31.7000   2.80260e-45
      31.8000   2.80260e-45
      31.9000   2.80260e-45
      32.0000       0.00000
      32.1000       0.00000
      32.2000       0.00000
      32.3000       0.00000
      32.4000       0.00000
      32.5000       0.00000
      32.6000       0.00000
      32.7000       0.00000
      32.8000       0.00000
      32.9000       0.00000
      33.0000       0.00000
      33.1000       0.00000
      33.2000       0.00000
      33.3000       0.00000
      33.4000       0.00000
      33.5000       0.00000
      33.6000       0.00000
      33.7000       0.00000
      33.8000       0.00000
      33.9000       0.00000
      34.0000       0.00000
      34.1000       0.00000
      34.2000       0.00000
      34.3000       0.00000
      34.4000       0.00000
      34.5000       0.00000
      34.6000       0.00000
      34.7000       0.00000
      34.8000       0.00000
      34.9000       0.00000
      35.0000       0.00000
      35.1000       0.00000
      35.2000       0.00000
      35.3000       0.00000
      35.4000       0.00000
      35.5000       0.00000
      35.6000       0.00000
      35.7000       0.00000
      35.8000       0.00000
      35.9000       0.00000
      36.0000       0.00000
      36.1000       0.00000
      36.2000       0.00000
      36.3000       0.00000
      36.4000       0.00000
      36.5000       0.00000
      36.6000       0.00000
      36.7000       0.00000
      36.8000       0.00000
      36.9000       0.00000
      37.0000       0.00000
      37.1000       0.00000
      37.2000       0.00000
      37.3000       0.00000
      37.4000       0.00000
      37.5000       0.00000
      37.6000       0.00000
      37.7000       0.00000
      37.8000       0.00000
      37.9000       0.00000
      38.0000       0.00000
      38.1000       0.00000
      38.2000       0.00000
      38.3000       0.00000
      38.4000       0.00000
      38.5000       0.00000
      38.6000       0.00000
      38.7000       0.00000
      38.8000       0.00000
      38.9000       0.00000
      39.0000       0.00000
      39.1000       0.00000
      39.2000       0.00000
      39.3000       0.00000
      39.4000       0.00000
      39.5000       0.00000
      39.6000       0.00000
      39.7000       0.00000
      39.8000       0.00000
      39.9000       0.00000
      40.0000       0.00000
      40.1000       0.00000
      40.2000       0.00000
      40.3000       0.00000
      40.4000       0.00000
      40.5000       0.00000
      40.6000       0.00000
      40.7000       0.00000
      40.8000       0.00000
      40.9000       0.00000
      41.0000       0.00000
      41.1000       0.00000
      41.2000       0.00000
      41.3000       0.00000
      41.4000       0.00000
      41.5000       0.00000
      41.6000       0.00000
      41.7000       0.00000
      41.8000       0.00000
      41.9000       0.00000
      42.0000       0.00000
      42.1000       0.00000
      42.2000       0.00000
      42.3000       0.00000
      42.4000       0.00000
      42.5000       0.00000
      42.6000       0.00000
      42.7000       0.00000
      42.8000       0.00000
      42.9000       0.00000
      43.0000       0.00000
      43.1000       0.00000
      43.2000       0.00000
      43.3000       0.00000
      43.4000       0.00000
      43.5000       0.00000
      43.6000       0.00000
      43.7000       0.00000
      43.8000       0.00000
      43.9000       0.00000
      44.0000       0.00000
      44.1000       0.00000
      44.2000       0.00000
      44.3000       0.00000
      44.4000       0.00000
      44.5000       0.00000
      44.6000       0.00000
      44.7000       0.00000
      44.8000       0.00000
      44.9000       0.00000
      45.0000       0.00000
      45.1000       0.00000
      45.2000       0.00000
      45.3000       0.00000
      45.4000       0.00000
      45.5000       0.00000
      45.6000       0.00000
      45.7000       0.00000
      45.8000       0.00000
      45.9000       0.00000
      46.0000       0.00000
      46.1000       0.00000
      46.2000       0.00000
      46.3000       0.00000
      46.4000       0.00000
      46.5000       0.00000
      46.6000       0.00000
      46.7000       0.00000
      46.8000       0.00000
      46.9000       0.00000
      47.0000       0.00000
      47.1000       0.00000
      47.2000       0.00000
      47.3000       0.00000
      47.4000       0.00000
      47.5000       0.00000
      47.6000       0.00000
      47.7000       0.00000
      47.8000       0.00000
      47.9000       0.00000
      48.0000       0.00000
      48.1000       0.00000
      48.2000       0.00000
      48.3000       0.00000
      48.4000       0.00000
      48.5000       0.00000
      48.6000       0.00000
      48.7000       0.00000
      48.8000       0.00000
      48.9000       0.00000
      49.0000       0.00000
      49.1000       0.00000
      49.2000       0.00000
      49.3000       0.00000
      49.4000       0.00000
      49.5000       0.00000
      49.6000       0.00000
      49.7000       0.00000
      49.8000       0.00000
      49.9000       0.00000
      50.0000       0.00000
      50.1000       0.00000
      50.2000       0.00000
      50.3000       0.00000
      50.4000       0.00000
      50.5000       0.00000
      50.6000       0.00000
      50.7000       0.00000
      50.8000       0.00000
      50.9000       0.00000
      51.0000       0.00000
      51.1000       0.00000
      51.2000       0.00000
      51.3000       0.00000
      51.4000       0.00000
      51.5000       0.00000
      51.6000       0.00000
      51.7000       0.00000
      51.8000       0.00000
      51.9000       0.00000
      52.0000       0.00000
      52.1000       0.00000
      52.2000       0.00000
      52.3000       0.00000
      52.4000       0.00000
      52.5000       0.00000
      52.6000       0.00000
      52.7000       0.00000
      52.8000       0.00000
      52.9000       0.00000
      53.0000       0.00000
      53.1000       0.00000
      53.2000       0.00000
      53.3000       0.00000
      53.4000       0.00000
      53.5000       0.00000
      53.6000       0.00000
      53.7000       0.00000
      53.8000       0.00000
      53.9000       0.00000
      54.0000       0.00000
      54.1000       0.00000
      54.2000       0.00000
      54.3000       0.00000
      54.4000       0.00000
      54.5000       0.00000
      54.6000       0.00000
      54.7000       0.00000
      54.8000       0.00000
      54.9000       0.00000
      55.0000       0.00000
      55.1000       0.00000
      55.2000       0.00000
      55.3000       0.00000
      55.4000       0.00000
      55.5000       0.00000
      55.6000       0.00000
      55.7000       0.00000
      55.8000       0.00000
      55.9000       0.00000
      56.0000       0.00000
      56.1000       0.00000
      56.2000       0.00000
      56.3000       0.00000
      56.4000       0.00000
      56.5000       0.00000
      56.6000       0.00000
      56.7000       0.00000
      56.8000       0.00000
      56.9000       0.00000
      57.0000       0.00000
      57.1000       0.00000
      57.2000       0.00000
      57.3000       0.00000
      57.4000       0.00000
      57.5000       0.00000
      57.6000       0.00000
      57.7000       0.00000
      57.8000       0.00000
      57.9000       0.00000
      58.0000       0.00000
      58.1000       0.00000
      58.2000       0.00000
      58.3000       0.00000
      58.4000       0.00000
      58.5000       0.00000
      58.6000       0.00000
      58.7000       0.00000
      58.8000       0.00000
      58.9000       0.00000
      59.0000       0.00000
      59.1000       0.00000
      59.2000       0.00000
      59.3000       0.00000
      59.4000       0.00000
      59.5000       0.00000
      59.6000       0.00000
      59.7000       0.00000
      59.8000       0.00000
      59.9000       0.00000
      60.0000       0.00000
      60.1000       0.00000
      60.2000       0.00000
      60.3000       0.00000
      60.4000       0.00000
      60.5000       0.00000
      60.6000       0.00000
      60.7000       0.00000
      60.8000       0.00000
      60.9000       0.00000
      61.0000       0.00000
      61.1000       0.00000
      61.2000       0.00000
      61.3000       0.00000
      61.4000       0.00000
      61.5000       0.00000
      61.6000       0.00000
      61.7000       0.00000
      61.8000       0.00000
      61.9000       0.00000
      62.0000       0.00000
      62.1000       0.00000
      62.2000       0.00000
      62.3000       0.00000
      62.4000       0.00000
      62.5000       0.00000
      62.6000       0.00000
      62.7000       0.00000
      62.8000       0.00000
      62.9000       0.00000
      63.0000       0.00000
      63.1000       0.00000
      63.2000       0.00000
      63.3000       0.00000
      63.4000       0.00000
      63.5000       0.00000
      63.6000       0.00000
      63.7000       0.00000
      63.8000       0.00000
      63.9000       0.00000
      64.0000       0.00000
      64.1000       0.00000
      64.2000       0.00000
      64.3000       0.00000
      64.4000       0.00000
      64.5000       0.00000
      64.6000       0.00000
      64.7000       0.00000
      64.8000       0.00000
      64.9000       0.00000
      65.0000       0.00000
      65.1000       0.00000
      65.2000       0.00000
      65.3000       0.00000
      65.4000       0.00000
      65.5000       0.00000
      65.6000       0.00000
      65.7000       0.00000
      65.8000       0.00000
      65.9000       0.00000
      66.0000       0.00000
      66.1000       0.00000
      66.2000       0.00000
      66.3000       0.00000
      66.4000       0.00000
      66.5000       0.00000
      66.6000       0.00000
      66.7000       0.00000
      66.8000       0.00000
      66.9000       0.00000
      67.0000       0.00000
      67.1000       0.00000
      67.2000       0.00000
      67.3000       0.00000
      67.4000       0.00000
      67.5000       0.00000
      67.6000       0.00000
      67.7000       0.00000
      67.8000       0.00000
      67.9000       0.00000
      68.0000       0.00000
      68.1000       0.00000
      68.2000       0.00000
      68.3000       0.00000
      68.4000       0.00000
      68.5000       0.00000
      68.6000       0.00000
      68.7000       0.00000
      68.8000       0.00000
      68.9000       0.00000
      69.0000       0.00000
      69.1000       0.00000
      69.2000       0.00000
      69.3000       0.00000
      69.4000       0.00000
      69.5000       0.00000
      69.6000       0.00000
      69.7000       0.00000
      69.8000       0.00000
      69.9000       0.00000
      70.0000       0.00000
      70.1000       0.00000
      70.2000       0.00000
      70.3000       0.00000
      70.4000       0.00000
      70.5000       0.00000
      70.6000       0.00000
      70.7000       0.00000
      70.8000       0.00000
      70.9000       0.00000
      71.0000       0.00000
      71.1000       0.00000
      71.2000       0.00000
      71.3000       0.00000
      71.4000       0.00000
      71.5000       0.00000
      71.6000       0.00000
      71.7000       0.00000
      71.8000       0.00000
      71.9000       0.00000
      72.0000       0.00000
      72.1000       0.00000
      72.2000       0.00000
      72.3000       0.00000
      72.4000       0.00000
      72.5000       0.00000
      72.6000       0.00000
      72.7000       0.00000
      72.8000       0.00000
      72.9000       0.00000
      73.0000       0.00000
      73.1000       0.00000
      73.2000       0.00000
      73.3000       0.00000
      73.4000       0.00000
      73.5000       0.00000
      73.6000       0.00000
      73.7000       0.00000
      73.8000       0.00000
      73.9000       0.00000
      74.0000       0.00000
      74.1000       0.00000
      74.2000       0.00000
      74.3000       0.00000
      74.4000       0.00000
      74.5000       0.00000
      74.6000       0.00000
      74.7000       0.00000
      74.8000       0.00000
      74.9000       0.00000
      75.0000       0.00000
      75.1000       0.00000
      75.2000       0.00000
      75.3000       0.00000
      75.4000       0.00000
      75.5000       0.00000
      75.6000       0.00000
      75.7000       0.00000
      75.8000       0.00000
      75.9000       0.00000
      76.0000       0.00000
      76.1000       0.00000
      76.2000       0.00000
      76.3000       0.00000
      76.4000       0.00000
      76.5000       0.00000
      76.6000       0.00000
      76.7000       0.00000
      76.8000       0.00000
      76.9000       0.00000
      77.0000       0.00000
      77.1000       0.00000
      77.2000       0.00000
      77.3000       0.00000
      77.4000       0.00000
      77.5000       0.00000
      77.6000       0.00000
      77.7000       0.00000
      77.8000       0.00000
      77.9000       0.00000
      78.0000       0.00000
      78.1000       0.00000
      78.2000       0.00000
      78.3000       0.00000
      78.4000       0.00000
      78.5000       0.00000
      78.6000       0.00000
      78.7000       0.00000
      78.8000       0.00000
      78.9000       0.00000
      79.0000       0.00000
      79.1000       0.00000
      79.2000       0.00000
      79.3000       0.00000
      79.4000       0.00000
      79.5000       0.00000
      79.6000       0.00000
      79.7000       0.00000
      79.8000       0.00000
      79.9000       0.00000
      80.0000       0.00000
      80.1000       0.00000
      80.2000       0.00000
      80.3000       0.00000
      80.4000       0.00000
      80.5000       0.00000
      80.6000       0.00000
      80.7000       0.00000
      80.8000       0.00000
      80.9000       0.00000
      81.0000       0.00000
      81.1000       0.00000
      81.2000       0.00000
      81.3000       0.00000
      81.4000       0.00000
      81.5000       0.00000
      81.6000       0.00000
      81.7000       0.00000
      81.8000       0.00000
      81.9000       0.00000
      82.0000       0.00000
      82.1000       0.00000
      82.2000       0.00000
      82.3000       0.00000
      82.4000       0.00000
      82.5000       0.00000
      82.6000       0.00000
      82.7000       0.00000
      82.8000       0.00000
      82.9000       0.00000
      83.0000       0.00000
      83.1000       0.00000
      83.2000       0.00000
      83.3000       0.00000
      83.4000       0.00000
      83.5000       0.00000
      83.6000       0.00000
      83.7000       0.00000
      83.8000       0.00000
      83.9000       0.00000
      84.0000       0.00000
      84.1000       0.00000
      84.2000       0.00000
      84.3000       0.00000
      84.4000       0.00000
      84.5000       0.00000
      84.6000       0.00000
      84.7000       0.00000
      84.8000       0.00000
      84.9000       0.00000
      85.0000       0.00000
      85.1000       0.00000
      85.2000       0.00000
      85.3000       0.00000
      85.4000       0.00000
      85.5000       0.00000
      85.6000       0.00000
      85.7000       0.00000
      85.8000       0.00000
      85.9000       0.00000
      86.0000       0.00000
      86.1000       0.00000
      86.2000       0.00000
      86.3000       0.00000
      86.4000       0.00000
      86.5000       0.00000
      86.6000       0.00000
      86.7000       0.00000
      86.8000       0.00000
      86.9000       0.00000
      87.0000       0.00000
      87.1000       0.00000
      87.2000       0.00000
      87.3000       0.00000
      87.4000       0.00000
      87.5000       0.00000
      87.6000       0.00000
      87.7000       0.00000
      87.8000       0.00000
      87.9000       0.00000
      88.0000       0.00000
      88.1000       0.00000
      88.2000       0.00000
      88.3000       0.00000
      88.4000       0.00000
      88.5000       0.00000
      88.6000       0.00000
      88.7000       0.00000
      88.8000       0.00000
      88.9000       0.00000
      89.0000       0.00000
      89.1000       0.00000
      89.2000       0.00000
      89.3000       0.00000
      89.4000       0.00000
      89.5000       0.00000
      89.6000       0.00000
      89.7000       0.00000
      89.8000       0.00000
      89.9000       0.00000
      90.0000       0.00000
      90.1000       0.00000
      90.2000       0.00000
      90.3000       0.00000
      90.4000       0.00000
      90.5000       0.00000
      90.6000       0.00000
      90.7000       0.00000
      90.8000       0.00000
      90.9000       0.00000
      91.0000       0.00000
      91.1000       0.00000
      91.2000       0.00000
      91.3000       0.00000
      91.4000       0.00000
      91.5000       0.00000
      91.6000       0.00000
      91.7000       0.00000
      91.8000       0.00000
      91.9000       0.00000
      92.0000       0.00000
      92.1000       0.00000
      92.2000       0.00000
      92.3000       0.00000
      92.4000       0.00000
      92.5000       0.00000
      92.6000       0.00000
      92.7000       0.00000
      92.8000       0.00000
      92.9000       0.00000
      93.0000       0.00000
      93.1000       0.00000
      93.2000       0.00000
      93.3000       0.00000
      93.4000       0.00000
      93.5000       0.00000
      93.6000       0.00000
      93.7000       0.00000
      93.8000       0.00000
      93.9000       0.00000
      94.0000       0.00000
      94.1000       0.00000
      94.2000       0.00000
      94.3000       0.00000
      94.4000       0.00000
      94.5000       0.00000
      94.6000       0.00000
      94.7000       0.00000
      94.8000       0.00000
      94.9000       0.00000
      95.0000       0.00000
      95.1000       0.00000
      95.2000       0.00000
      95.3000       0.00000
      95.4000       0.00000
      95.5000       0.00000
      95.6000       0.00000
      95.7000       0.00000
      95.8000       0.00000
      95.9000       0.00000
      96.0000       0.00000
      96.1000       0.00000
      96.2000       0.00000
      96.3000       0.00000
      96.4000       0.00000
      96.5000       0.00000
      96.6000       0.00000
      96.7000       0.00000
      96.8000       0.00000
      96.9000       0.00000
      97.0000       0.00000
      97.1000       0.00000
      97.2000       0.00000
      97.3000       0.00000
      97.4000       0.00000
      97.5000       0.00000
      97.6000       0.00000
      97.7000       0.00000
      97.8000       0.00000
      97.9000       0.00000
      98.0000       0.00000
      98.1000       0.00000
      98.2000       0.00000
      98.3000       0.00000
      98.4000       0.00000
      98.5000       0.00000
      98.6000       0.00000
      98.7000       0.00000
      98.8000       0.00000
      98.9000       0.00000
      99.0000       0.00000
      99.1000       0.00000
      99.2000       0.00000
      99.3000       0.00000
      99.4000       0.00000
      99.5000       0.00000
      99.6000       0.00000
      99.7000       0.00000
      99.8000       0.00000
      99.9000       0.00000
      100.000       0.00000
      100.100       0.00000
      100.200       0.00000
      100.300       0.00000
      100.400       0.00000
      100.500       0.00000
      100.600       0.00000
      100.700       0.00000
      100.800       0.00000
      100.900       0.00000
      101.000       0.00000
      101.100       0.00000
      101.200       0.00000
      101.300       0.00000
      101.400       0.00000
      101.500       0.00000
      101.600       0.00000
      101.700       0.00000
      101.800       0.00000
      101.900       0.00000
      102.000       0.00000
      102.100       0.00000
      102.200       0.00000
      102.300       0.00000
      102.400       0.00000
      102.500       0.00000
      102.600       0.00000
      102.700       0.00000
      102.800       0.00000
      102.900       0.00000
      103.000       0.00000
      103.100       0.00000
      103.200       0.00000
      103.300       0.00000
      103.400       0.00000
      103.500       0.00000
      103.600       0.00000
      103.700       0.00000
      103.800       0.00000
      103.900       0.00000
      104.000       0.00000
      104.100       0.00000
      104.200       0.00000
      104.300       0.00000
      104.400       0.00000
      104.500       0.00000
      104.600       0.00000
      104.700       0.00000
      104.800       0.00000
      104.900       0.00000
      105.000       0.00000
      105.100       0.00000
      105.200       0.00000
      105.300       0.00000
      105.400       0.00000
      105.500       0.00000
      105.600       0.00000
      105.700       0.00000
      105.800       0.00000
      105.900       0.00000
      106.000       0.00000
      106.100       0.00000
      106.200       0.00000
      106.300       0.00000
      106.400       0.00000
      106.500       0.00000
      106.600       0.00000
      106.700       0.00000
      106.800       0.00000
      106.900       0.00000
      107.000       0.00000
      107.100       0.00000
      107.200       0.00000
      107.300       0.00000
      107.400       0.00000
      107.500       0.00000
      107.600       0.00000
      107.700       0.00000
      107.800       0.00000
      107.900       0.00000
      108.000       0.00000
      108.100       0.00000
      108.200       0.00000
      108.300       0.00000
      108.400       0.00000
      108.500       0.00000
      108.600       0.00000
      108.700       0.00000
      108.800       0.00000
      108.900       0.00000
      109.000       0.00000
      109.100       0.00000
      109.200       0.00000
      109.300       0.00000
      109.400       0.00000
      109.500       0.00000
      109.600       0.00000
      109.700       0.00000
      109.800       0.00000
      109.900       0.00000
      110.000       0.00000
      110.100       0.00000
      110.200       0.00000
      110.300       0.00000
      110.400       0.00000
      110.500       0.00000
      110.600       0.00000
      110.700       0.00000
      110.800       0.00000
      110.900       0.00000
      111.000       0.00000
      111.100       0.00000
      111.200       0.00000
      111.300       0.00000
      111.400       0.00000
      111.500       0.00000
      111.600       0.00000
      111.700       0.00000
      111.800       0.00000
      111.900       0.00000
      112.000       0.00000
      112.100       0.00000
      112.200       0.00000
      112.300       0.00000
      112.400       0.00000
      112.500       0.00000
      112.600       0.00000
      112.700       0.00000
      112.800       0.00000
      112.900       0.00000
      113.000       0.00000
      113.100       0.00000
      113.200       0.00000
      113.300       0.00000
      113.400       0.00000
      113.500       0.00000
      113.600       0.00000
      113.700       0.00000
      113.800       0.00000
      113.900       0.00000
      114.000       0.00000
      114.100       0.00000
      114.200       0.00000
      114.300       0.00000
      114.400       0.00000
      114.500       0.00000
      114.600       0.00000
      114.700       0.00000
      114.800       0.00000
      114.900       0.00000
      115.000       0.00000
      115.100       0.00000
      115.200       0.00000
      115.300       0.00000
      115.400       0.00000
      115.500       0.00000
      115.600       0.00000
      115.700       0.00000
      115.800       0.00000
      115.900       0.00000
      116.000       0.00000
      116.100       0.00000
      116.200       0.00000
      116.300       0.00000
      116.400       0.00000
      116.500       0.00000
      116.600       0.00000
      116.700       0.00000
      116.800       0.00000
      116.900       0.00000
      117.000       0.00000
      117.100       0.00000
      117.200       0.00000
      117.300       0.00000
      117.400       0.00000
      117.500       0.00000
      117.600       0.00000
      117.700       0.00000
      117.800       0.00000
      117.900       0.00000
      118.000       0.00000
      118.100       0.00000
      118.200       0.00000
      118.300       0.00000
      118.400       0.00000
      118.500       0.00000
      118.600       0.00000
      118.700       0.00000
      118.800       0.00000
      118.900       0.00000
      119.000       0.00000
      119.100       0.00000
      119.200       0.00000
      119.300       0.00000
      119.400       0.00000
      119.500       0.00000
      119.600       0.00000
      119.700       0.00000
      119.800       0.00000
      119.900       0.00000
      120.000       0.00000
      120.100       0.00000
      120.200       0.00000
      120.300       0.00000
      120.400       0.00000
      120.500       0.00000
      120.600       0.00000
      120.700       0.00000
      120.800       0.00000
      120.900       0.00000
      121.000       0.00000
      121.100       0.00000
      121.200       0.00000
      121.300       0.00000
      121.400       0.00000
      121.500       0.00000
      121.600       0.00000
      121.700       0.00000
      121.800       0.00000
      121.900       0.00000
      122.000       0.00000
      122.100       0.00000
      122.200       0.00000
      122.300       0.00000
      122.400       0.00000
      122.500       0.00000
      122.600       0.00000
      122.700       0.00000
      122.800       0.00000
      122.900       0.00000
      123.000       0.00000
      123.100       0.00000
      123.200       0.00000
      123.300       0.00000
      123.400       0.00000
      123.500       0.00000
      123.600       0.00000
      123.700       0.00000
      123.800       0.00000
      123.900       0.00000
      124.000       0.00000
      124.100       0.00000
      124.200       0.00000
      124.300       0.00000
      124.400       0.00000
      124.500       0.00000
      124.600       0.00000
      124.700       0.00000
      124.800       0.00000
      124.900       0.00000
      125.000       0.00000
      125.100       0.00000
      125.200       0.00000
      125.300       0.00000
      125.400       0.00000
      125.500       0.00000
      125.600       0.00000
      125.700       0.00000
      125.800       0.00000
      125.900       0.00000
      126.000       0.00000
      126.100       0.00000
      126.200       0.00000
      126.300       0.00000
      126.400       0.00000
      126.500       0.00000
      126.600       0.00000
      126.700       0.00000
      126.800       0.00000
      126.900       0.00000
      127.000       0.00000
      127.100       0.00000
      127.200       0.00000
      127.300       0.00000
      127.400       0.00000
      127.500       0.00000
      127.600       0.00000
      127.700       0.00000
      127.800       0.00000
      127.900       0.00000
      128.000       0.00000
      128.100       0.00000
      128.200       0.00000
      128.300       0.00000
      128.400       0.00000
      128.500       0.00000
      128.600       0.00000
      128.700       0.00000
      128.800       0.00000
      128.900       0.00000
      129.000       0.00000
      129.100       0.00000
      129.200       0.00000
      129.300       0.00000
      129.400       0.00000
      129.500       0.00000
      129.600       0.00000
      129.700       0.00000
      129.800       0.00000
      129.900       0.00000
      130.000       0.00000
      130.100       0.00000
      130.200       0.00000
      130.300       0.00000
      130.400       0.00000
      130.500       0.00000
      130.600       0.00000
      130.700       0.00000
      130.800       0.00000
      130.900       0.00000
      131.000       0.00000
      131.100       0.00000
      131.200       0.00000
      131.300       0.00000
      131.400       0.00000
      131.500       0.00000
      131.600       0.00000
      131.700       0.00000
      131.800       0.00000
      131.900       0.00000
      132.000       0.00000
      132.100       0.00000
      132.200       0.00000
      132.300       0.00000
      132.400       0.00000
      132.500       0.00000
      132.600       0.00000
      132.700       0.00000
      132.800       0.00000
      132.900       0.00000
      133.000       0.00000
      133.100       0.00000
      133.200       0.00000
      133.300       0.00000
      133.400       0.00000
      133.500       0.00000
      133.600       0.00000
      133.700       0.00000
      133.800       0.00000
      133.900       0.00000
      134.000       0.00000
      134.100       0.00000
      134.200       0.00000
      134.300       0.00000
      134.400       0.00000
      134.500       0.00000
      134.600       0.00000
      134.700       0.00000
      134.800       0.00000
      134.900       0.00000
      135.000       0.00000
      135.100       0.00000
      135.200       0.00000
      135.300       0.00000
      135.400       0.00000
      135.500       0.00000
      135.600       0.00000
      135.700       0.00000
      135.800       0.00000
      135.900       0.00000
      136.000       0.00000
      136.100       0.00000
      136.200       0.00000
      136.300       0.00000
      136.400       0.00000
      136.500       0.00000
      136.600       0.00000
      136.700       0.00000
      136.800       0.00000
      136.900       0.00000
      137.000       0.00000
      137.100       0.00000
      137.200       0.00000
      137.300       0.00000
      137.400       0.00000
      137.500       0.00000
      137.600       0.00000
      137.700       0.00000
      137.800       0.00000
      137.900       0.00000
      138.000       0.00000
      138.100       0.00000
      138.200       0.00000
      138.300       0.00000
      138.400       0.00000
      138.500       0.00000
      138.600       0.00000
      138.700       0.00000
      138.800       0.00000
      138.900       0.00000
      139.000       0.00000
      139.100       0.00000
      139.200       0.00000
      139.300       0.00000
      139.400       0.00000
      139.500       0.00000
      139.600       0.00000
      139.700       0.00000
      139.800       0.00000
      139.900       0.00000
      140.000       0.00000
      140.100       0.00000
      140.200       0.00000
      140.300       0.00000
      140.400       0.00000
      140.500       0.00000
      140.600       0.00000
      140.700       0.00000
      140.800       0.00000
      140.900       0.00000
      141.000       0.00000
      141.100       0.00000
      141.200       0.00000
      141.300       0.00000
      141.400       0.00000
      141.500       0.00000
      141.600       0.00000
      141.700       0.00000
      141.800       0.00000
      141.900       0.00000
      142.000       0.00000
      142.100       0.00000
      142.200       0.00000
      142.300       0.00000
      142.400       0.00000
      142.500       0.00000
      142.600       0.00000
      142.700       0.00000
      142.800       0.00000
      142.900       0.00000
      143.000       0.00000
      143.100       0.00000
      143.200       0.00000
      143.300       0.00000
      143.400       0.00000
      143.500       0.00000
      143.600       0.00000
      143.700       0.00000
      143.800       0.00000
      143.900       0.00000
      144.000       0.00000
      144.100       0.00000
      144.200       0.00000
      144.300       0.00000
      144.400       0.00000
      144.500       0.00000
      144.600       0.00000
      144.700       0.00000
      144.800       0.00000
      144.900       0.00000
      145.000       0.00000
      145.100       0.00000
      145.200       0.00000
      145.300       0.00000
      145.400       0.00000
      145.500       0.00000
      145.600       0.00000
      145.700       0.00000
      145.800       0.00000
      145.900       0.00000
      146.000       0.00000
      146.100       0.00000
      146.200       0.00000
      146.300       0.00000
      146.400       0.00000
      146.500       0.00000
      146.600       0.00000
      146.700       0.00000
      146.800       0.00000
      146.900       0.00000
      147.000       0.00000
      147.100       0.00000
      147.200       0.00000
      147.300       0.00000
      147.400       0.00000
      147.500       0.00000
      147.600       0.00000
      147.700       0.00000
      147.800       0.00000
      147.900       0.00000
      148.000       0.00000
      148.100       0.00000
      148.200       0.00000
      148.300       0.00000
      148.400       0.00000
      148.500       0.00000
      148.600       0.00000
      148.700       0.00000
      148.800       0.00000
      148.900       0.00000
      149.000       0.00000
      149.100       0.00000
      149.200       0.00000
      149.300       0.00000
      149.400       0.00000
      149.500       0.00000
      149.600       0.00000
      149.700       0.00000
      149.800       0.00000
      149.900       0.00000
      150.000       0.00000
      150.100       0.00000
      150.200       0.00000
      150.300       0.00000
      150.400       0.00000
      150.500       0.00000
      150.600       0.00000
      150.700       0.00000
      150.800       0.00000
      150.900       0.00000
      151.000       0.00000
      151.100       0.00000
      151.200       0.00000
      151.300       0.00000
      151.400       0.00000
      151.500       0.00000
      151.600       0.00000
      151.700       0.00000
      151.800       0.00000
      151.900       0.00000
      152.000       0.00000
      152.100       0.00000
      152.200       0.00000
      152.300       0.00000
      152.400       0.00000
      152.500       0.00000
      152.600       0.00000
      152.700       0.00000
      152.800       0.00000
      152.900       0.00000
      153.000       0.00000
      153.100       0.00000
      153.200       0.00000
      153.300       0.00000
      153.400       0.00000
      153.500       0.00000
      153.600       0.00000
      153.700       0.00000
      153.800       0.00000
      153.900       0.00000
      154.000       0.00000
      154.100       0.00000
      154.200       0.00000
      154.300       0.00000
      154.400       0.00000
      154.500       0.00000
      154.600       0.00000
      154.700       0.00000
      154.800       0.00000
      154.900       0.00000
      155.000       0.00000
      155.100       0.00000
      155.200       0.00000
      155.300       0.00000
      155.400       0.00000
      155.500       0.00000
      155.600       0.00000
      155.700       0.00000
      155.800       0.00000
      155.900       0.00000
      156.000       0.00000
      156.100       0.00000
      156.200       0.00000
      156.300       0.00000
      156.400       0.00000
      156.500       0.00000
      156.600       0.00000
      156.700       0.00000
      156.800       0.00000
      156.900       0.00000
      157.000       0.00000
      157.100       0.00000
      157.200       0.00000
      157.300       0.00000
      157.400       0.00000
      157.500       0.00000
      157.600       0.00000
      157.700       0.00000
      157.800       0.00000
      157.900       0.00000
      158.000       0.00000
      158.100       0.00000
      158.200       0.00000
      158.300       0.00000
      158.400       0.00000
      158.500       0.00000
      158.600       0.00000
      158.700       0.00000
      158.800       0.00000
      158.900       0.00000
      159.000       0.00000
      159.100       0.00000
      159.200       0.00000
      159.300       0.00000
      159.400       0.00000
      159.500       0.00000
      159.600       0.00000
      159.700       0.00000
      159.800       0.00000
      159.900       0.00000
      160.000       0.00000
      160.100       0.00000
      160.200       0.00000
      160.300       0.00000
      160.400       0.00000
      160.500       0.00000
      160.600       0.00000
      160.700       0.00000
      160.800       0.00000
      160.900       0.00000
      161.000       0.00000
      161.100       0.00000
      161.200       0.00000
      161.300       0.00000
      161.400       0.00000
      161.500       0.00000
      161.600       0.00000
      161.700       0.00000
      161.800       0.00000
      161.900       0.00000
      162.000       0.00000
      162.100       0.00000
      162.200       0.00000
      162.300       0.00000
      162.400       0.00000
      162.500       0.00000
      162.600       0.00000
      162.700       0.00000
      162.800       0.00000
      162.900       0.00000
      163.000       0.00000
      163.100       0.00000
      163.200       0.00000
      163.300       0.00000
      163.400       0.00000
      163.500       0.00000
      163.600       0.00000
      163.700       0.00000
      163.800       0.00000
      163.900       0.00000
      164.000       0.00000
      164.100       0.00000
      164.200       0.00000
      164.300       0.00000
      164.400       0.00000
      164.500       0.00000
      164.600       0.00000
      164.700       0.00000
      164.800       0.00000
      164.900       0.00000
      165.000       0.00000
      165.100       0.00000
      165.200       0.00000
      165.300       0.00000
      165.400       0.00000
      165.500       0.00000
      165.600       0.00000
      165.700       0.00000
      165.800       0.00000
      165.900       0.00000
      166.000       0.00000
      166.100       0.00000
      166.200       0.00000
      166.300       0.00000
      166.400       0.00000
      166.500       0.00000
      166.600       0.00000
      166.700       0.00000
      166.800       0.00000
      166.900       0.00000
      167.000       0.00000
      167.100       0.00000
      167.200       0.00000
      167.300       0.00000
      167.400       0.00000
      167.500       0.00000
      167.600       0.00000
      167.700       0.00000
      167.800       0.00000
      167.900       0.00000
      168.000       0.00000
      168.100       0.00000
      168.200       0.00000
      168.300       0.00000
      168.400       0.00000
      168.500       0.00000
      168.600       0.00000
      168.700       0.00000
      168.800       0.00000
      168.900       0.00000
      169.000       0.00000
      169.100       0.00000
      169.200       0.00000
      169.300       0.00000
      169.400       0.00000
      169.500       0.00000
      169.600       0.00000
      169.700       0.00000
      169.800       0.00000
      169.900       0.00000
      170.000       0.00000
      170.100       0.00000
      170.200       0.00000
      170.300       0.00000
      170.400       0.00000
      170.500       0.00000
      170.600   6.98878e-40
      170.700   8.69470e-25
      170.800   1.16468e-20
      170.900   1.93519e-20
      171.000   1.97857e-20
      171.100   2.02273e-20
      171.200   2.06769e-20
      171.300   2.11349e-20
      171.400   2.16008e-20
      171.500   2.20747e-20
      171.600   2.25572e-20
      171.700   2.30486e-20
      171.800   2.35492e-20
      171.900   2.40586e-20
      172.000   2.45778e-20
      172.100   2.51078e-20
      172.200   2.56478e-20
      172.300   2.61976e-20
      172.400   2.67538e-20
      172.500   2.73199e-20
      172.600   2.78981e-20
      172.700   2.84878e-20
      172.800   2.90892e-20
      172.900   2.97038e-20
      173.000   3.03301e-20
      173.100   3.09691e-20
      173.200   3.16213e-20
      173.300   3.22869e-20
      173.400   3.29668e-20
      173.500   3.36602e-20
      173.600   3.43677e-20
      173.700   3.50896e-20
      173.800   3.58272e-20
      173.900   3.65784e-20
      174.000   3.73451e-20
      174.100   3.81287e-20
      174.200   3.89269e-20
      174.300   3.97401e-20
      174.400   4.05706e-20
      174.500   4.14167e-20
      174.600   4.22805e-20
      174.700   4.31609e-20
      174.800   4.40577e-20
      174.900   4.49721e-20
      175.000   4.59050e-20
      175.100   4.68541e-20
      175.200   4.78244e-20
      175.300   4.88117e-20
      175.400   4.98192e-20
      175.500   5.08453e-20
      175.600   5.18899e-20
      175.700   5.29547e-20
      175.800   5.40409e-20
      175.900   5.51465e-20
      176.000   5.62720e-20
      176.100   5.74191e-20
      176.200   5.85877e-20
      176.300   5.97792e-20
      176.400   6.09919e-20
      176.500   6.22269e-20
      176.600   6.34864e-20
      176.700   6.47684e-20
      176.800   6.60733e-20
      176.900   6.74023e-20
      177.000   6.87571e-20
      177.100   7.01369e-20
      177.200   7.15405e-20
      177.300   7.29695e-20
      177.400   7.44260e-20
      177.500   7.59085e-20
      177.600   7.74170e-20
      177.700   7.89523e-20
      177.800   8.05145e-20
      177.900   8.21062e-20
      178.000   8.37317e-20
      178.100   8.53845e-20
      178.200   8.70676e-20
      178.300   8.87820e-20
      178.400   9.05249e-20
      178.500   9.22984e-20
      178.600   9.41038e-20
      178.700   9.59433e-20
      178.800   9.78130e-20
      178.900   9.97142e-20
      179.000   1.01648e-19
      179.100   1.03618e-19
      179.200   1.05623e-19
      179.300   1.07662e-19
      179.400   1.09736e-19
      179.500   1.11848e-19
      179.600   1.14002e-19
      179.700   1.16189e-19
      179.800   1.18416e-19
      179.900   1.20682e-19
      180.000   1.22992e-19
      180.100   1.25339e-19
      180.200   1.27729e-19
      180.300   1.30161e-19
      180.400   1.32640e-19
      180.500   1.35163e-19
      180.600   1.37728e-19
      180.700   1.40340e-19
      180.800   1.43025e-19
      180.900   1.45805e-19
      181.000   1.48657e-19
      181.100   1.51558e-19
      181.200   1.54517e-19
      181.300   1.57533e-19
      181.400   1.60601e-19
      181.500   1.63725e-19
      181.600   1.66909e-19
      181.700   1.70154e-19
      181.800   1.73455e-19
      181.900   1.76817e-19
      182.000   1.80243e-19
      182.100   1.83728e-19
      182.200   1.87287e-19
      182.300   1.90905e-19
      182.400   1.94588e-19
      182.500   1.98339e-19
      182.600   2.02162e-19
      182.700   2.06049e-19
      182.800   2.10003e-19
      182.900   2.14032e-19
      183.000   2.18132e-19
      183.100   2.22303e-19
      183.200   2.26547e-19
      183.300   2.30868e-19
      183.400   2.35266e-19
      183.500   2.39739e-19
      183.600   2.44290e-19
      183.700   2.49074e-19
      183.800   2.54597e-19
      183.900   2.60639e-19
      184.000   2.66806e-19
      184.100   2.73122e-19
      184.200   2.79576e-19
      184.300   2.86181e-19
      184.400   2.92929e-19
      184.500   2.99821e-19
      184.600   3.06865e-19
      184.700   3.14069e-19
      184.800   3.21429e-19
      184.900   3.28946e-19
      185.000   3.36626e-19
      185.100   3.44478e-19
      185.200   3.52504e-19
      185.300   3.60694e-19
      185.400   3.69062e-19
      185.500   3.77607e-19
      185.600   3.86339e-19
      185.700   3.95269e-19
      185.800   4.04393e-19
      185.900   4.13707e-19
      186.000   4.23238e-19
      186.100   4.32960e-19
      186.200   4.42881e-19
      186.300   4.53010e-19
      186.400   4.63360e-19
      186.500   4.73928e-19
      186.600   4.84708e-19
      186.700   4.95702e-19
      186.800   5.06923e-19
      186.900   5.18383e-19
      187.000   5.30079e-19
      187.100   5.41997e-19
      187.200   5.54170e-19
      187.300   5.66614e-19
      187.400   5.79308e-19
      187.500   5.92253e-19
      187.600   6.05458e-19
      187.700   6.18928e-19
      187.800   6.32683e-19
      187.900   6.46714e-19
      188.000   6.61011e-19
      188.100   6.75592e-19
      188.200   6.90473e-19
      188.300   7.05659e-19
      188.400   7.21152e-19
      188.500   7.36947e-19
      188.600   7.53070e-19
      188.700   7.69549e-19
      188.800   7.86346e-19
      188.900   8.03470e-19
      189.000   8.20939e-19
      189.100   8.38779e-19
      189.200   8.56972e-19
      189.300   8.75515e-19
      189.400   8.94427e-19
      189.500   9.13725e-19
      189.600   9.33434e-19
      189.700   9.53509e-19
      189.800   9.74079e-19
      189.900   9.95105e-19
      190.000   1.01659e-18
      190.100   1.03848e-18
      190.200   1.06081e-18
      190.300   1.08359e-18
      190.400   1.10684e-18
      190.500   1.13055e-18
      190.600   1.15473e-18
      190.700   1.17939e-18
      190.800   1.20453e-18
      190.900   1.23018e-18
      191.000   1.25641e-18
      191.100   1.28315e-18
      191.200   1.31042e-18
      191.300   1.33823e-18
      191.400   1.36661e-18
      191.500   1.39555e-18
      191.600   1.42504e-18
      191.700   1.45510e-18
      191.800   1.48579e-18
      191.900   1.51705e-18
      192.000   1.54890e-18
      192.100   1.58142e-18
      192.200   1.61462e-18
      192.300   1.64846e-18
      192.400   1.68299e-18
      192.500   1.71818e-18
      192.600   1.75402e-18
      192.700   1.79055e-18
      192.800   1.82627e-18
      192.900   1.85878e-18
      193.000   1.89141e-18
      193.100   1.92462e-18
      193.200   1.95845e-18
      193.300   1.99279e-18
      193.400   2.02767e-18
      193.500   2.06312e-18
      193.600   2.09918e-18
      193.700   2.13582e-18
      193.800   2.17302e-18
      193.900   2.21080e-18
      194.000   2.24922e-18
      194.100   2.28836e-18
      194.200   2.32809e-18
      194.300   2.36848e-18
      194.400   2.40951e-18
      194.500   2.45123e-18
      194.600   2.49362e-18
      194.700   2.53663e-18
      194.800   2.58032e-18
      194.900   2.62473e-18
      195.000   2.66985e-18
      195.100   2.71583e-18
      195.200   2.76246e-18
      195.300   2.80980e-18
      195.400   2.85790e-18
      195.500   2.90677e-18
      195.600   2.95639e-18
      195.700   3.00672e-18
      195.800   3.05741e-18
      195.900   3.10570e-18
      196.000   3.04533e-18
      196.100   2.98473e-18
      196.200   2.92531e-18
      196.300   2.86704e-18
      196.400   2.80990e-18
      196.500   2.75384e-18
      196.600   2.69887e-18
      196.700   2.64496e-18
      196.800   2.59213e-18
      196.900   2.54039e-18
      197.000   2.48965e-18
      197.100   2.43987e-18
      197.200   2.39106e-18
      197.300   2.34318e-18
      197.400   2.29620e-18
      197.500   2.25012e-18
      197.600   2.20493e-18
      197.700   2.16072e-18
      197.800   2.11739e-18
      197.900   2.07487e-18
      198.000   2.03317e-18
      198.100   1.99228e-18
      198.200   1.95217e-18
      198.300   1.91284e-18
      198.400   1.87427e-18
      198.500   1.83653e-18
      198.600   1.79955e-18
      198.700   1.76329e-18
      198.800   1.72774e-18
      198.900   1.69289e-18
      199.000   1.65871e-18
      199.100   1.62520e-18
      199.200   1.59236e-18
      199.300   1.56024e-18
      199.400   1.52877e-18
      199.500   1.49793e-18
      199.600   1.46768e-18
      199.700   1.43803e-18
      199.800   1.40898e-18
      199.900   1.38049e-18
      200.000   1.35256e-18
      200.100   1.32532e-18
      200.200   1.29856e-18
      200.300   1.27235e-18
      200.400   1.24665e-18
      200.500   1.22147e-18
      200.600   1.19681e-18
      200.700   1.17263e-18
      200.800   1.14892e-18
      200.900   1.12572e-18
      201.000   1.10298e-18
      201.100   1.08072e-18
      201.200   1.05890e-18
      201.300   1.03752e-18
      201.400   1.01658e-18
      201.500   9.96054e-19
      201.600   9.75937e-19
      201.700   9.56228e-19
      201.800   9.36915e-19
      201.900   9.17995e-19
      202.000   8.99483e-19
      202.100   8.81338e-19
      202.200   8.63562e-19
      202.300   8.46208e-19
      202.400   8.29336e-19
      202.500   8.12835e-19
      202.600   7.96652e-19
      202.700   7.80809e-19
      202.800   7.65284e-19
      202.900   7.50078e-19
      203.000   7.35179e-19
      203.100   7.20587e-19
      203.200   7.06276e-19
      203.300   6.92253e-19
      203.400   6.78510e-19
      203.500   6.65040e-19
      203.600   6.51841e-19
      203.700   6.38910e-19
      203.800   6.26245e-19
      203.900   6.13848e-19
      204.000   6.01696e-19
      204.100   5.89787e-19
      204.200   5.78121e-19
      204.300   5.66689e-19
      204.400   5.55485e-19
      204.500   5.44507e-19
      204.600   5.33746e-19
      204.700   5.23202e-19
      204.800   5.12881e-19
      204.900   5.02772e-19
      205.000   4.92865e-19
      205.100   4.83157e-19
      205.200   4.73641e-19
      205.300   4.64318e-19
      205.400   4.55180e-19
      205.500   4.46225e-19
      205.600   4.36692e-19
      205.700   4.26676e-19
      205.800   4.16791e-19
      205.900   4.07145e-19
      206.000   3.97731e-19
      206.100   3.88533e-19
      206.200   3.79544e-19
      206.300   3.70767e-19
      206.400   3.62192e-19
      206.500   3.53811e-19
      206.600   3.45624e-19
      206.700   3.37627e-19
      206.800   3.29810e-19
      206.900   3.22172e-19
      207.000   3.14712e-19
      207.100   3.07430e-19
      207.200   3.00318e-19
      207.300   2.93365e-19
      207.400   2.86572e-19
      207.500   2.79932e-19
      207.600   2.73445e-19
      207.700   2.67105e-19
      207.800   2.60908e-19
      207.900   2.54851e-19
      208.000   2.48934e-19
      208.100   2.43152e-19
      208.200   2.37500e-19
      208.300   2.31978e-19
      208.400   2.26588e-19
      208.500   2.21321e-19
      208.600   2.16171e-19
      208.700   2.11139e-19
      208.800   2.06222e-19
      208.900   2.00838e-19
      209.000   1.94565e-19
      209.100   1.88240e-19
      209.200   1.82115e-19
      209.300   1.76185e-19
      209.400   1.70447e-19
      209.500   1.64890e-19
      209.600   1.59512e-19
      209.700   1.54309e-19
      209.800   1.49281e-19
      209.900   1.44410e-19
      210.000   1.39698e-19
      210.100   1.35136e-19
      210.200   1.30721e-19
      210.300   1.26447e-19
      210.400   1.22311e-19
      210.500   1.18308e-19
      210.600   1.14435e-19
      210.700   1.10685e-19
      210.800   1.07057e-19
      210.900   1.03545e-19
      211.000   1.00147e-19
      211.100   9.68601e-20
      211.200   9.36776e-20
      211.300   9.06038e-20
      211.400   8.76310e-20
      211.500   8.47529e-20
      211.600   8.19688e-20
      211.700   7.92751e-20
      211.800   7.66671e-20
      211.900   7.41439e-20
      212.000   7.17041e-20
      212.100   6.93428e-20
      212.200   6.70577e-20
      212.300   6.48473e-20
      212.400   6.27081e-20
      212.500   6.06392e-20
      212.600   5.86376e-20
      212.700   5.67012e-20
      212.800   5.48277e-20
      212.900   5.30159e-20
      213.000   5.12634e-20
      213.100   4.95701e-20
      213.200   4.79322e-20
      213.300   4.63475e-20
      213.400   4.48147e-20
      213.500   4.33319e-20
      213.600   4.18975e-20
      213.700   4.05106e-20
      213.800   3.91685e-20
      213.900   3.78712e-20
      214.000   3.66158e-20
      214.100   3.54018e-20
      214.200   3.42282e-20
      214.300   3.30926e-20
      214.400   3.19944e-20
      214.500   3.09325e-20
      214.600   2.99058e-20
      214.700   2.89128e-20
      214.800   2.79525e-20
      214.900   2.70243e-20
      215.000   2.61262e-20
      215.100   2.52583e-20
      215.200   2.44197e-20
      215.300   2.36092e-20
      215.400   2.28252e-20
      215.500   2.20672e-20
      215.600   2.13349e-20
      215.700   2.06262e-20
      215.800   1.99411e-20
      215.900   1.92790e-20
      216.000   1.86387e-20
      216.100   1.80195e-20
      216.200   1.74210e-20
      216.300   1.68423e-20
      216.400   1.62830e-20
      216.500   1.57421e-20
      216.600   1.52192e-20
      216.700   1.47138e-20
      216.800   1.42250e-20
      216.900   1.37525e-20
      217.000   1.32957e-20
      217.100   1.28540e-20
      217.200   1.24271e-20
      217.300   1.20144e-20
      217.400   1.16152e-20
      217.500   1.12295e-20
      217.600   1.08564e-20
      217.700   1.04956e-20
      217.800   1.01469e-20
      217.900   9.80993e-21
      218.000   9.48426e-21
      218.100   9.16930e-21
      218.200   8.86485e-21
      218.300   8.57051e-21
      218.400   8.28596e-21
      218.500   8.01066e-21
      218.600   7.74456e-21
      218.700   7.48721e-21
      218.800   7.23837e-21
      218.900   6.99786e-21
      219.000   6.76520e-21
      219.100   6.54019e-21
      219.200   6.32266e-21
      219.300   6.11228e-21
      219.400   5.90881e-21
      219.500   5.71206e-21
      219.600   5.52183e-21
      219.700   5.33789e-21
      219.800   5.16006e-21
      219.900   4.98806e-21
      220.000   4.82171e-21
      220.100   4.66088e-21
      220.200   4.50534e-21
      220.300   4.35496e-21
      220.400   4.20954e-21
      220.500   4.06897e-21
      220.600   3.93304e-21
      220.700   3.80156e-21
      220.800   3.67440e-21
      220.900   3.55153e-21
      221.000   3.43267e-21
      221.100   3.31772e-21
      221.200   3.20664e-21
      221.300   3.09922e-21
      221.400   2.99535e-21
      221.500   2.89494e-21
      221.600   2.79786e-21
      221.700   2.70397e-21
      221.800   2.61318e-21
      221.900   2.52543e-21
      222.000   2.44062e-21
      222.100   2.35857e-21
      222.200   2.27930e-21
      222.300   2.20262e-21
      222.400   2.12853e-21
      222.500   2.05686e-21
      222.600   1.98761e-21
      222.700   1.92065e-21
      222.800   1.85592e-21
      222.900   1.79335e-21
      223.000   1.73286e-21
      223.100   1.67438e-21
      223.200   1.61786e-21
      223.300   1.56322e-21
      223.400   1.51042e-21
      223.500   1.45935e-21
      223.600   1.41002e-21
      223.700   1.36232e-21
      223.800   1.31620e-21
      223.900   1.27167e-21
      224.000   1.22859e-21
      224.100   1.18696e-21
      224.200   1.14672e-21
      224.300   1.10783e-21
      224.400   1.07024e-21
      224.500   1.03391e-21
      224.600   9.98793e-22
      224.700   9.64871e-22
      224.800   9.32078e-22
      224.900   9.00382e-22
      225.000   8.69755e-22
      225.100   8.40149e-22
      225.200   8.11535e-22
      225.300   7.83905e-22
      225.400   7.57188e-22
      225.500   7.31365e-22
      225.600   7.06414e-22
      225.700   6.82315e-22
      225.800   6.59015e-22
      225.900   6.36506e-22
      226.000   6.14761e-22
      226.100   5.93745e-22
      226.200   5.73437e-22
      226.300   5.53863e-22
      226.400   5.34966e-22
      226.500   5.16691e-22
      226.600   4.99024e-22
      226.700   4.81954e-22
      226.800   4.65450e-22
      226.900   4.49504e-22
      227.000   4.34100e-22
      227.100   4.19214e-22
      227.200   4.04838e-22
      227.300   3.90949e-22
      227.400   3.77532e-22
      227.500   3.64571e-22
      227.600   3.52051e-22
      227.700   3.39957e-22
      227.800   3.28277e-22
      227.900   3.16995e-22
      228.000   3.06099e-22
      228.100   2.95574e-22
      228.200   2.85407e-22
      228.300   2.75588e-22
      228.400   2.66108e-22
      228.500   2.56949e-22
      228.600   2.48105e-22
      228.700   2.39564e-22
      228.800   2.31314e-22
      228.900   2.23351e-22
      229.000   2.15658e-22
      229.100   2.08231e-22
      229.200   2.01057e-22
      229.300   1.94130e-22
      229.400   1.87442e-22
      229.500   1.80984e-22
      229.600   1.74746e-22
      229.700   1.68724e-22
      229.800   1.62908e-22
      229.900   1.57293e-22
      230.000   1.51812e-22
      230.100   1.46103e-22
      230.200   1.40593e-22
      230.300   1.35293e-22
      230.400   1.30191e-22
      230.500   1.25282e-22
      230.600   1.20561e-22
      230.700   1.16016e-22
      230.800   1.11642e-22
      230.900   1.07434e-22
      231.000   1.03382e-22
      231.100   9.94829e-23
      231.200   9.57302e-23
      231.300   9.21193e-23
      231.400   8.86454e-23
      231.500   8.52996e-23
      231.600   8.20792e-23
      231.700   7.89812e-23
      231.800   7.59995e-23
      231.900   7.31297e-23
      232.000   7.03675e-23
      232.100   6.77088e-23
      232.200   6.51506e-23
      232.300   6.26888e-23
      232.400   6.03190e-23
      232.500   5.80377e-23
      232.600   5.58428e-23
      232.700   5.37305e-23
      232.800   5.16976e-23
      232.900   4.97408e-23
      233.000   4.78576e-23
      233.100   4.60457e-23
      233.200   4.43014e-23
      233.300   4.26233e-23
      233.400   4.10082e-23
      233.500   3.94551e-23
      233.600   3.79613e-23
      233.700   3.65229e-23
      233.800   3.49671e-23
      233.900   3.34549e-23
      234.000   3.20066e-23
      234.100   3.06208e-23
      234.200   2.92947e-23
      234.300   2.80253e-23
      234.400   2.68103e-23
      234.500   2.56475e-23
      234.600   2.45344e-23
      234.700   2.34694e-23
      234.800   2.24504e-23
      234.900   2.14748e-23
      235.000   2.05411e-23
      235.100   1.96477e-23
      235.200   1.87927e-23
      235.300   1.79746e-23
      235.400   1.71916e-23
      235.500   1.64424e-23
      235.600   1.57257e-23
      235.700   1.50400e-23
      235.800   1.43850e-23
      235.900   1.37583e-23
      236.000   1.31586e-23
      236.100   1.25847e-23
      236.200   1.20355e-23
      236.300   1.15100e-23
      236.400   1.10073e-23
      236.500   1.05262e-23
      236.600   1.00659e-23
      236.700   9.62548e-24
      236.800   9.20405e-24
      236.900   8.80086e-24
      237.000   8.41512e-24
      237.100   8.04601e-24
      237.200   7.69297e-24
      237.300   7.35519e-24
      237.400   7.03205e-24
      237.500   6.72285e-24
      237.600   6.42722e-24
      237.700   6.14495e-24
      237.800   5.87493e-24
      237.900   5.61659e-24
      238.000   5.36951e-24
      238.100   5.13306e-24
      238.200   4.90690e-24
      238.300   4.69056e-24
      238.400   4.48361e-24
      238.500   4.28561e-24
      238.600   4.09626e-24
      238.700   3.91519e-24
      238.800   3.74196e-24
      238.900   3.57628e-24
      239.000   3.41779e-24
      239.100   3.26624e-24
      239.200   3.12133e-24
      239.300   2.98294e-24
      239.400   2.85078e-24
      239.500   2.72437e-24
      239.600   2.60345e-24
      239.700   2.48788e-24
      239.800   2.37732e-24
      239.900   2.27159e-24
      240.000   2.17048e-24
      240.100   2.07378e-24
      240.200   1.98132e-24
      240.300   1.89292e-24
      240.400   1.80836e-24
      240.500   1.72757e-24
      240.600   1.65032e-24
      240.700   1.57646e-24
      240.800   1.50595e-24
      240.900   1.43865e-24
      241.000   1.37432e-24
      241.100   1.31281e-24
      241.200   1.25402e-24
      241.300   1.19780e-24
      241.400   1.14407e-24
      241.500   1.09271e-24
      241.600   1.04362e-24
      241.700   9.96693e-25
      241.800   9.51836e-25
      241.900   9.08962e-25
      242.000   8.67991e-25
      242.100   8.28845e-25
      242.200   7.91512e-25
      242.300   7.55890e-25
      242.400   7.21837e-25
      242.500   6.89293e-25
      242.600   6.58195e-25
      242.700   6.28474e-25
      242.800   6.00080e-25
      242.900   5.72946e-25
      243.000   5.47021e-25
      243.100   5.22251e-25
      243.200   4.98576e-25
      243.300   4.75962e-25
      243.400   4.54367e-25
      243.500   4.33771e-25
      243.600   4.14139e-25
      243.700   3.95372e-25
      243.800   3.77445e-25
      243.900   3.60325e-25
      244.000   3.43964e-25
      244.100   3.28336e-25
      244.200   3.13409e-25
      244.300   2.99147e-25
      244.400   2.85526e-25
      244.500   2.72517e-25
      244.600   2.60090e-25
      244.700   2.48241e-25
      244.800   2.36955e-25
      244.900   2.26175e-25
      245.000   2.15874e-25
      245.100   2.06037e-25
      245.200   1.96646e-25
      245.300   1.87676e-25
      245.400   1.79106e-25
      245.500   1.70925e-25
      245.600   1.63112e-25
      245.700   1.55648e-25
      245.800   1.48521e-25
      245.900   1.41739e-25
      246.000   1.35272e-25
      246.100   1.29094e-25
      246.200   1.23194e-25
      246.300   1.17559e-25
      246.400   1.12180e-25
      246.500   1.07043e-25
      246.600   1.02137e-25
      246.700   9.74534e-26
      246.800   9.29795e-26
      246.900   8.87089e-26
      247.000   8.46448e-26
      247.100   8.07695e-26
      247.200   7.70696e-26
      247.300   7.35370e-26
      247.400   7.01636e-26
      247.500   6.69422e-26
      247.600   6.38666e-26
      247.700   6.09302e-26
      247.800   5.81264e-26
      247.900   5.54496e-26
      248.000   5.28945e-26
      248.100   5.04687e-26
      248.200   4.81517e-26
      248.300   4.59390e-26
      248.400   4.38266e-26
      248.500   4.18092e-26
      248.600   3.98835e-26
      248.700   3.80453e-26
      248.800   3.62902e-26
      248.900   3.46148e-26
      249.000   3.30157e-26
      249.100   3.14957e-26
      249.200   3.00463e-26
      249.300   2.86619e-26
      249.400   2.73402e-26
      249.500   2.60788e-26
      249.600   2.48742e-26
      249.700   2.37243e-26
      249.800   2.26268e-26
      249.900   2.15791e-26
      250.000   2.05792e-26
      250.100   1.96278e-26
      250.200   1.87211e-26
      250.300   1.78565e-26
      250.400   1.70309e-26
      250.500   1.62432e-26
      250.600   1.54915e-26
      250.700   1.47741e-26
      250.800   1.40894e-26
      250.900   1.34362e-26
      251.000   1.28128e-26
      251.100   1.22179e-26
      251.200   1.16512e-26
      251.300   1.11116e-26
      251.400   1.05968e-26
      251.500   1.01053e-26
      251.600   9.63630e-27
      251.700   9.18912e-27
      251.800   8.76227e-27
      251.900   8.35499e-27
      252.000   7.96634e-27
      252.100   7.59571e-27
      252.200   7.24199e-27
      252.300   6.90507e-27
      252.400   6.58409e-27
      252.500   6.27805e-27
      252.600   5.98596e-27
      252.700   5.70733e-27
      252.800   5.44154e-27
      252.900   5.18797e-27
      253.000   4.94604e-27
      253.100   4.71528e-27
      253.200   4.49516e-27
      253.300   4.28612e-27
      253.400   4.08707e-27
      253.500   3.89743e-27
      253.600   3.71682e-27
      253.700   3.54443e-27
      253.800   3.37998e-27
      253.900   3.22308e-27
      254.000   3.07335e-27
      254.100   2.93046e-27
      254.200   2.79414e-27
      254.300   2.66409e-27
      254.400   2.53999e-27
      254.500   2.42160e-27
      254.600   2.30867e-27
      254.700   2.20095e-27
      254.800   2.09846e-27
      254.900   2.00068e-27
      255.000   1.90743e-27
      255.100   1.81842e-27
      255.200   1.73352e-27
      255.300   1.65255e-27
      255.400   1.57529e-27
      255.500   1.50161e-27
      255.600   1.43133e-27
      255.700   1.36430e-27
      255.800   1.30035e-27
      255.900   1.23935e-27
      256.000   1.18117e-27
      256.100   1.12576e-27
      256.200   1.07299e-27
      256.300   1.02265e-27
      256.400   9.74678e-28
      256.500   9.28884e-28
      256.600   8.85232e-28
      256.700   8.43607e-28
      256.800   8.03903e-28
      256.900   7.66039e-28
      257.000   7.29940e-28
      257.100   6.95515e-28
      257.200   6.62703e-28
      257.300   6.31407e-28
      257.400   6.05751e-28
      257.500   5.82626e-28
      257.600   5.60480e-28
      257.700   5.39176e-28
      257.800   5.18668e-28
      257.900   4.98935e-28
      258.000   4.79941e-28
      258.100   4.61659e-28
      258.200   4.44068e-28
      258.300   4.27144e-28
      258.400   4.10846e-28
      258.500   3.95161e-28
      258.600   3.80073e-28
      258.700   3.65553e-28
      258.800   3.51577e-28
      258.900   3.38138e-28
      259.000   3.25196e-28
      259.100   3.12748e-28
      259.200   3.00778e-28
      259.300   2.89277e-28
      259.400   2.78210e-28
      259.500   2.67556e-28
      259.600   2.57309e-28
      259.700   2.47451e-28
      259.800   2.37963e-28
      259.900   2.28832e-28
      260.000   2.20052e-28
      260.100   2.11605e-28
      260.200   2.03477e-28
      260.300   1.95658e-28
      260.400   1.88137e-28
      260.500   1.80904e-28
      260.600   1.73943e-28
      260.700   1.67247e-28
      260.800   1.60811e-28
      260.900   1.54615e-28
      261.000   1.48661e-28
      261.100   1.42940e-28
      261.200   1.37436e-28
      261.300   1.32141e-28
      261.400   1.27051e-28
      261.500   1.22686e-28
      261.600   1.20193e-28
      261.700   1.18050e-28
      261.800   1.15946e-28
      261.900   1.13878e-28
      262.000   1.11847e-28
      262.100   1.09852e-28
      262.200   1.07893e-28
      262.300   1.05968e-28
      262.400   1.04077e-28
      262.500   1.02221e-28
      262.600   1.00397e-28
      262.700   9.86055e-29
      262.800   9.68460e-29
      262.900   9.51160e-29
      263.000   9.34206e-29
      263.100   9.17536e-29
      263.200   9.01169e-29
      263.300   8.85099e-29
      263.400   8.69309e-29
      263.500   8.53804e-29
      263.600   8.38587e-29
      263.700   8.23631e-29
      263.800   8.08938e-29
      263.900   7.94524e-29
      264.000   7.80361e-29
      264.100   7.66448e-29
      264.200   7.52782e-29
      264.300   7.39370e-29
      264.400   7.26196e-29
      264.500   7.13256e-29
      264.600   7.00542e-29
      264.700   6.88062e-29
      264.800   6.75805e-29
      264.900   6.63775e-29
      265.000   6.51956e-29
      265.100   6.40344e-29
      265.200   6.28945e-29
      265.300   6.17749e-29
      265.400   6.06760e-29
      265.500   5.95965e-29
      265.600   5.85364e-29
      265.700   5.74951e-29
      265.800   5.64739e-29
      265.900   5.54709e-29
      266.000   5.44866e-29
      266.100   5.35203e-29
      266.200   5.25707e-29
      266.300   5.16383e-29
      266.400   5.07227e-29
      266.500   4.98235e-29
      266.600   4.89408e-29
      266.700   4.80733e-29
      266.800   4.72225e-29
      266.900   4.63864e-29
      267.000   4.55655e-29
      267.100   4.47595e-29
      267.200   4.39685e-29
      267.300   4.31913e-29
      267.400   4.24276e-29
      267.500   4.16780e-29
      267.600   4.09419e-29
      267.700   4.02190e-29
      267.800   3.95089e-29
      267.900   3.88119e-29
      268.000   3.81276e-29
      268.100   3.74557e-29
      268.200   3.67957e-29
      268.300   3.61478e-29
      268.400   3.55111e-29
      268.500   3.48861e-29
      268.600   3.42722e-29
      268.700   3.36699e-29
      268.800   3.30778e-29
      268.900   3.24966e-29
      269.000   3.19260e-29
      269.100   3.13654e-29
      269.200   3.08152e-29
      269.300   3.02747e-29
      269.400   2.97438e-29
      269.500   2.92222e-29
      269.600   2.87106e-29
      269.700   2.82076e-29
      269.800   2.77141e-29
      269.900   2.72289e-29
      270.000   2.67531e-29
      270.100   2.62854e-29
      270.200   2.58268e-29
      270.300   2.53761e-29
      270.400   2.49332e-29
      270.500   2.44985e-29
      270.600   2.40714e-29
      270.700   2.36520e-29
      270.800   2.32402e-29
      270.900   2.28355e-29
      271.000   2.24380e-29
      271.100   2.20475e-29
      271.200   2.16639e-29
      271.300   2.12874e-29
      271.400   2.09173e-29
      271.500   2.05541e-29
      271.600   2.01969e-29
      271.700   1.98461e-29
      271.800   1.95016e-29
      271.900   1.91632e-29
      272.000   1.88308e-29
      272.100   1.85042e-29
      272.200   1.81832e-29
      272.300   1.78679e-29
      272.400   1.75581e-29
      272.500   1.72539e-29
      272.600   1.69549e-29
      272.700   1.66612e-29
      272.800   1.63725e-29
      272.900   1.60890e-29
      273.000   1.58105e-29
      273.100   1.55368e-29
      273.200   1.52679e-29
      273.300   1.50037e-29
      273.400   1.47440e-29
      273.500   1.44889e-29
      273.600   1.42382e-29
      273.700   1.39918e-29
      273.800   1.37496e-29
      273.900   1.35119e-29
      274.000   1.32782e-29
      274.100   1.30486e-29
      274.200   1.28229e-29
      274.300   1.26011e-29
      274.400   1.23817e-29
      274.500   1.21630e-29
      274.600   1.19475e-29
      274.700   1.17359e-29
      274.800   1.15280e-29
      274.900   1.13236e-29
      275.000   1.11229e-29
      275.100   1.09258e-29
      275.200   1.07321e-29
      275.300   1.05417e-29
      275.400   1.03549e-29
      275.500   1.01713e-29
      275.600   9.99084e-30
      275.700   9.81358e-30
      275.800   9.63949e-30
      275.900   9.46849e-30
      276.000   9.30050e-30
      276.100   9.13538e-30
      276.200   8.97312e-30
      276.300   8.81377e-30
      276.400   8.65722e-30
      276.500   8.50345e-30
      276.600   8.35237e-30
      276.700   8.20388e-30
      276.800   8.05807e-30
      276.900   7.91473e-30
      277.000   7.77399e-30
      277.100   7.63563e-30
      277.200   7.49977e-30
      277.300   7.36628e-30
      277.400   7.23515e-30
      277.500   7.10620e-30
      277.600   6.97966e-30
      277.700   6.85525e-30
      277.800   6.73294e-30
      277.900   6.61290e-30
      278.000   6.49502e-30
      278.100   6.37916e-30
      278.200   6.26529e-30
      278.300   6.15344e-30
      278.400   6.04358e-30
      278.500   5.93556e-30
      278.600   5.82947e-30
      278.700   5.72531e-30
      278.800   5.62298e-30
      278.900   5.52220e-30
      279.000   5.42319e-30
      279.100   5.32593e-30
      279.200   5.23032e-30
      279.300   5.13649e-30
      279.400   5.04421e-30
      279.500   4.95360e-30
      279.600   4.86460e-30
      279.700   4.77720e-30
      279.800   4.69133e-30
      279.900   4.60694e-30
      280.000   4.52406e-30
      280.100   4.44261e-30
      280.200   4.36264e-30
      280.300   4.28405e-30
      280.400   4.20687e-30
      280.500   4.13112e-30
      280.600   4.05666e-30
      280.700   3.98349e-30
      280.800   3.91165e-30
      280.900   3.84106e-30
      281.000   3.77172e-30
      281.100   3.70360e-30
      281.200   3.63671e-30
      281.300   3.57102e-30
      281.400   3.50652e-30
      281.500   3.44311e-30
      281.600   3.38080e-30
      281.700   3.31964e-30
      281.800   3.25959e-30
      281.900   3.20059e-30
      282.000   3.14265e-30
      282.100   3.08572e-30
      282.200   3.02985e-30
      282.300   2.97494e-30
      282.400   2.92102e-30
      282.500   2.86804e-30
      282.600   2.81602e-30
      282.700   2.76491e-30
      282.800   2.71474e-30
      282.900   2.66550e-30
      283.000   2.61710e-30
      283.100   2.56959e-30
      283.200   2.52296e-30
      283.300   2.47713e-30
      283.400   2.43214e-30
      283.500   2.38798e-30
      283.600   2.34458e-30
      283.700   2.30196e-30
      283.800   2.26012e-30
      283.900   2.21904e-30
      284.000   2.17868e-30
      284.100   2.13903e-30
      284.200   2.10011e-30
      284.300   2.06191e-30
      284.400   2.02438e-30
      284.500   1.98754e-30
      284.600   1.95137e-30
      284.700   1.91585e-30
      284.800   1.88097e-30
      284.900   1.84672e-30
      285.000   1.81307e-30
      285.100   1.78004e-30
      285.200   1.74763e-30
      285.300   1.71578e-30
      285.400   1.68452e-30
      285.500   1.65381e-30
      285.600   1.62370e-30
      285.700   1.59410e-30
      285.800   1.56506e-30
      285.900   1.53654e-30
      286.000   1.50854e-30
      286.100   1.48108e-30
      286.200   1.45410e-30
      286.300   1.42763e-30
      286.400   1.40163e-30
      286.500   1.37610e-30
      286.600   1.35103e-30
      286.700   1.32642e-30
      286.800   1.30227e-30
      286.900   1.27856e-30
      287.000   1.25527e-30
      287.100   1.23240e-30
      287.200   1.20997e-30
      287.300   1.18794e-30
      287.400   1.16631e-30
      287.500   1.14508e-30
      287.600   1.12424e-30
      287.700   1.10378e-30
      287.800   1.08369e-30
      287.900   1.06398e-30
      288.000   1.04463e-30
      288.100   1.02562e-30
      288.200   1.00699e-30
      288.300   9.88690e-31
      288.400   9.70730e-31
      288.500   9.53101e-31
      288.600   9.35783e-31
      288.700   9.18796e-31
      288.800   9.02111e-31
      288.900   8.85746e-31
      289.000   8.69675e-31
      289.100   8.53892e-31
      289.200   8.38401e-31
      289.300   8.23201e-31
      289.400   8.08276e-31
      289.500   7.93623e-31
      289.600   7.79238e-31
      289.700   7.65132e-31
      289.800   7.51268e-31
      289.900   7.37652e-31
      290.000   7.24309e-31
      290.100   7.11191e-31
      290.200   6.98340e-31
      290.300   6.85713e-31
      290.400   6.73320e-31
      290.500   6.61166e-31
      290.600   6.49222e-31
      290.700   6.37497e-31
      290.800   6.25997e-31
      290.900   6.14703e-31
      291.000   6.03607e-31
      291.100   5.92716e-31
      291.200   5.82030e-31
      291.300   5.71537e-31
      291.400   5.61240e-31
      291.500   5.51125e-31
      291.600   5.41196e-31
      291.700   5.31453e-31
      291.800   5.21882e-31
      291.900   5.12499e-31
      292.000   5.03294e-31
      292.100   4.94252e-31
      292.200   4.85375e-31
      292.300   4.76655e-31
      292.400   4.68096e-31
      292.500   4.59691e-31
      292.600   4.51439e-31
      292.700   4.43339e-31
      292.800   4.35385e-31
      292.900   4.27577e-31
      293.000   4.19911e-31
      293.100   4.12384e-31
      293.200   4.04993e-31
      293.300   3.97732e-31
      293.400   3.90614e-31
      293.500   3.83623e-31
      293.600   3.76762e-31
      293.700   3.70021e-31
      293.800   3.63407e-31
      293.900   3.56911e-31
      294.000   3.50530e-31
      294.100   3.44267e-31
      294.200   3.38119e-31
      294.300   3.32083e-31
      294.400   3.26152e-31
      294.500   3.20328e-31
      294.600   3.14607e-31
      294.700   3.08993e-31
      294.800   3.03479e-31
      294.900   2.98063e-31
      295.000   2.92752e-31
      295.100   2.87538e-31
      295.200   2.82417e-31
      295.300   2.77383e-31
      295.400   2.72442e-31
      295.500   2.67592e-31
      295.600   2.62827e-31
      295.700   2.58147e-31
      295.800   2.53551e-31
      295.900   2.49035e-31
      296.000   2.44603e-31
      296.100   2.40246e-31
      296.200   2.35971e-31
      296.300   2.31773e-31
      296.400   2.27657e-31
      296.500   2.23607e-31
      296.600   2.19634e-31
      296.700   2.15730e-31
      296.800   2.11896e-31
      296.900   2.08130e-31
      297.000   2.04430e-31
      297.100   2.00795e-31
      297.200   1.97226e-31
      297.300   1.93721e-31
      297.400   1.90278e-31
      297.500   1.86894e-31
      297.600   1.83575e-31
      297.700   1.80314e-31
      297.800   1.77112e-31
      297.900   1.73968e-31
      298.000   1.70880e-31
      298.100   1.67845e-31
      298.200   1.64864e-31
      298.300   1.61936e-31
      298.400   1.59059e-31
      298.500   1.56232e-31
      298.600   1.53456e-31
      298.700   1.50729e-31
      298.800   1.48048e-31
      298.900   1.45419e-31
      299.000   1.42838e-31
      299.100   1.40302e-31
      299.200   1.37808e-31
      299.300   1.35360e-31
      299.400   1.32954e-31
      299.500   1.30592e-31
      299.600   1.28270e-31
      299.700   1.25988e-31
      299.800   1.23747e-31
      299.900   1.21546e-31
      300.000   1.19383e-31
      300.100   1.17259e-31
      300.192   1.15340e-31
      300.285   1.13428e-31
      300.377   1.11570e-31
      300.470   1.09724e-31
      300.562   1.07925e-31
      300.654   1.06156e-31
      300.747   1.04397e-31
      300.839   1.02686e-31
      300.932   1.00983e-31
      301.025   9.93088e-32
      301.117   9.76807e-32
      301.210   9.60590e-32
      301.303   9.44666e-32
      301.395   9.29170e-32
      301.488   9.13739e-32
      301.581   8.98575e-32
      301.674   8.83658e-32
      301.766   8.69133e-32
      301.859   8.54694e-32
      301.952   8.40499e-32
      302.045   8.26533e-32
      302.138   8.14006e-32
      302.231   8.04388e-32
      302.324   7.94996e-32
      302.417   7.85728e-32
      302.510   7.76547e-32
      302.603   7.67488e-32
      302.696   7.58515e-32
      302.789   7.49644e-32
      302.882   7.40874e-32
      302.976   7.32127e-32
      303.069   7.23560e-32
      303.162   7.15087e-32
      303.255   7.06707e-32
      303.349   6.98338e-32
      303.442   6.90148e-32
      303.535   6.82054e-32
      303.629   6.73964e-32
      303.722   6.66056e-32
      303.816   6.58157e-32
      303.909   6.50420e-32
      304.003   6.42694e-32
      304.096   6.35139e-32
      304.190   6.27588e-32
      304.283   6.20198e-32
      304.377   6.12820e-32
      304.471   6.05519e-32
      304.564   5.98380e-32
      304.658   5.91258e-32
      304.752   5.84205e-32
      304.846   5.77237e-32
      304.939   5.70422e-32
      305.033   5.63610e-32
      305.127   5.56875e-32
      305.221   5.50219e-32
      305.315   5.43649e-32
      305.409   5.37139e-32
      305.503   5.30711e-32
      305.597   5.24363e-32
      305.691   5.18080e-32
      305.785   5.11875e-32
      305.879   5.05735e-32
      305.973   4.99669e-32
      306.067   4.93671e-32
      306.161   4.87745e-32
      306.255   4.81887e-32
      306.350   4.76035e-32
      306.444   4.70310e-32
      306.538   4.64655e-32
      306.633   4.59009e-32
      306.727   4.53483e-32
      306.821   4.48023e-32
      306.916   4.42569e-32
      307.010   4.37344e-32
      307.105   4.32474e-32
      307.199   4.27762e-32
      307.294   4.23049e-32
      307.388   4.18438e-32
      307.483   4.13827e-32
      307.577   4.09313e-32
      307.672   4.04797e-32
      307.767   4.00330e-32
      307.861   3.95956e-32
      307.956   3.91578e-32
      308.051   3.87250e-32
      308.146   3.82973e-32
      308.240   3.78779e-32
      308.335   3.74586e-32
      308.430   3.70435e-32
      308.525   3.66335e-32
      308.620   3.62277e-32
      308.715   3.58262e-32
      308.810   3.54292e-32
      308.905   3.50362e-32
      309.000   3.46471e-32
      309.095   3.42626e-32
      309.190   3.38824e-32
      309.285   3.35063e-32
      309.380   3.31341e-32
      309.476   3.27623e-32
      309.571   3.23981e-32
      309.666   3.20379e-32
      309.761   3.16817e-32
      309.857   3.13257e-32
      309.952   3.09768e-32
      310.047   3.06321e-32
      310.143   3.02876e-32
      310.238   2.99503e-32
      310.334   2.96132e-32
      310.429   2.92834e-32
      310.525   2.89536e-32
      310.620   2.86310e-32
      310.716   2.83085e-32
      310.811   2.79933e-32
      310.907   2.76779e-32
      311.003   2.73660e-32
      311.098   2.70608e-32
      311.194   2.67557e-32
      311.290   2.64545e-32
      311.386   2.61565e-32
      311.481   2.58647e-32
      311.577   2.55731e-32
      311.673   2.52849e-32
      311.769   2.49998e-32
      311.865   2.47179e-32
      311.961   2.44399e-32
      312.057   2.41680e-32
      312.153   2.39003e-32
      312.249   2.36353e-32
      312.345   2.33736e-32
      312.441   2.31146e-32
      312.537   2.28586e-32
      312.633   2.26054e-32
      312.730   2.23523e-32
      312.826   2.21047e-32
      312.922   2.18598e-32
      313.018   2.16177e-32
      313.115   2.13759e-32
      313.211   2.11391e-32
      313.307   2.09051e-32
      313.404   2.06714e-32
      313.500   2.04425e-32
      313.597   2.02141e-32
      313.693   1.99904e-32
      313.790   1.97670e-32
      313.886   1.95485e-32
      313.983   1.93300e-32
      314.079   1.91162e-32
      314.176   1.89027e-32
      314.273   1.86916e-32
      314.369   1.84854e-32
      314.466   1.82793e-32
      314.563   1.80753e-32
      314.660   1.78737e-32
      314.756   1.76764e-32
      314.853   1.74793e-32
      314.950   1.72845e-32
      315.047   1.70921e-32
      315.144   1.69018e-32
      315.241   1.67137e-32
      315.338   1.65277e-32
      315.435   1.63438e-32
      315.532   1.61620e-32
      315.629   1.59823e-32
      315.726   1.58048e-32
      315.823   1.56291e-32
      315.921   1.54537e-32
      316.018   1.52822e-32
      316.115   1.51127e-32
      316.212   1.49451e-32
      316.310   1.47776e-32
      316.407   1.46138e-32
      316.504   1.44519e-32
      316.602   1.42902e-32
      316.699   1.41321e-32
      316.796   1.39756e-32
      316.894   1.38195e-32
      316.991   1.36670e-32
      317.089   1.35164e-32
      317.187   1.33685e-32
      317.284   1.32237e-32
      317.382   1.30791e-32
      317.479   1.29375e-32
      317.577   1.27961e-32
      317.675   1.26563e-32
      317.773   1.25181e-32
      317.870   1.23830e-32
      317.968   1.22479e-32
      318.066   1.21143e-32
      318.164   1.19823e-32
      318.262   1.18518e-32
      318.360   1.17227e-32
      318.458   1.15952e-32
      318.556   1.14693e-32
      318.654   1.13446e-32
      318.752   1.12213e-32
      318.850   1.10995e-32
      318.948   1.09790e-32
      319.046   1.08600e-32
      319.144   1.07422e-32
      319.242   1.06258e-32
      319.341   1.05095e-32
      319.439   1.03958e-32
      319.537   1.02834e-32
      319.635   1.01722e-32
      319.734   1.00611e-32
      319.832   9.95245e-33
      319.930   9.84493e-33
      320.029   9.73758e-33
      320.127   9.63258e-33
      320.226   9.52771e-33
      320.324   9.42500e-33
      320.423   9.32237e-33
      320.522   9.22112e-33
      320.620   9.12192e-33
      320.719   9.02276e-33
      320.818   8.92482e-33
      320.916   8.82894e-33
      321.015   8.73316e-33
      321.114   8.63842e-33
      321.213   8.54480e-33
      321.311   8.45322e-33
      321.410   8.36174e-33
      321.509   8.27116e-33
      321.608   8.18170e-33
      321.707   8.09324e-33
      321.806   8.00577e-33
      321.905   7.91930e-33
      322.004   7.83380e-33
      322.103   7.74926e-33
      322.202   7.66557e-33
      322.301   7.58293e-33
      322.401   7.50041e-33
      322.500   7.41962e-33
      322.599   7.33972e-33
      322.698   7.26065e-33
      322.798   7.18171e-33
      322.897   7.10447e-33
      322.996   7.02808e-33
      323.096   6.95174e-33
      323.195   6.87703e-33
      323.294   6.80310e-33
      323.394   6.72928e-33
      323.493   6.65703e-33
      323.593   6.58494e-33
      323.692   6.51428e-33
      323.792   6.44368e-33
      323.892   6.37386e-33
      323.991   6.30549e-33
      324.091   6.23730e-33
      324.191   6.16982e-33
      324.291   6.10304e-33
      324.390   6.03772e-33
      324.490   5.97244e-33
      324.590   5.90786e-33
      324.690   5.84399e-33
      324.790   5.78085e-33
      324.890   5.71842e-33
      324.990   5.65669e-33
      325.090   5.59561e-33
      325.190   5.53515e-33
      325.290   5.47543e-33
      325.390   5.41630e-33
      325.490   5.35787e-33
      325.590   5.30010e-33
      325.690   5.24284e-33
      325.790   5.18626e-33
      325.891   5.12977e-33
      325.991   5.07444e-33
      326.091   5.01969e-33
      326.192   4.96500e-33
      326.292   4.91148e-33
      326.392   4.85853e-33
      326.493   4.80563e-33
      326.593   4.75380e-33
      326.694   4.70206e-33
      326.794   4.65134e-33
      326.895   4.60068e-33
      326.995   4.55108e-33
      327.096   4.50151e-33
      327.197   4.45248e-33
      327.297   4.40447e-33
      327.398   4.35651e-33
      327.499   4.30908e-33
      327.599   4.26260e-33
      327.700   4.21616e-33
      327.801   4.17020e-33
      327.902   4.12480e-33
      328.003   4.07984e-33
      328.104   4.03539e-33
      328.205   3.99143e-33
      328.306   3.94793e-33
      328.407   3.90489e-33
      328.508   3.86228e-33
      328.609   3.82014e-33
      328.710   3.77843e-33
      328.811   3.73719e-33
      328.912   3.69643e-33
      329.013   3.65605e-33
      329.115   3.61578e-33
      329.216   3.57630e-33
      329.317   3.53718e-33
      329.419   3.49818e-33
      329.520   3.45994e-33
      329.621   3.42205e-33
      329.723   3.38425e-33
      329.824   3.34725e-33
      329.926   3.31025e-33
      330.027   3.27401e-33
      330.129   3.23779e-33
      330.230   3.20234e-33
      330.332   3.16688e-33
      330.434   3.13181e-33
      330.535   3.09747e-33
      330.637   3.06314e-33
      330.739   3.02917e-33
      330.840   2.99590e-33
      330.942   2.96266e-33
      331.044   2.92978e-33
      331.146   2.89723e-33
      331.248   2.86505e-33
      331.350   2.83322e-33
      331.452   2.80175e-33
      331.554   2.77126e-33
      331.656   2.74211e-33
      331.758   2.71326e-33
      331.860   2.68467e-33
      331.962   2.65640e-33
      332.064   2.62841e-33
      332.166   2.60074e-33
      332.268   2.57330e-33
      332.371   2.54589e-33
      332.473   2.51900e-33
      332.575   2.49236e-33
      332.677   2.46602e-33
      332.780   2.43968e-33
      332.882   2.41387e-33
      332.985   2.38807e-33
      333.087   2.36277e-33
      333.190   2.33750e-33
      333.292   2.31240e-33
      333.395   2.28649e-33
      333.497   2.26082e-33
      333.600   2.23519e-33
      333.702   2.21008e-33
      333.805   2.18498e-33
      333.908   2.16016e-33
      334.011   2.13561e-33
      334.113   2.11156e-33
      334.216   2.08753e-33
      334.319   2.06377e-33
      334.422   2.04024e-33
      334.525   2.01699e-33
      334.628   1.99397e-33
      334.731   1.97123e-33
      334.834   1.94873e-33
      334.937   1.92647e-33
      335.040   1.90445e-33
      335.143   1.88268e-33
      335.246   1.86113e-33
      335.349   1.83981e-33
      335.452   1.81873e-33
      335.555   1.79788e-33
      335.659   1.77707e-33
      335.762   1.75669e-33
      335.865   1.73655e-33
      335.969   1.71640e-33
      336.072   1.69666e-33
      336.175   1.67715e-33
      336.279   1.65767e-33
      336.382   1.63860e-33
      336.486   1.61954e-33
      336.589   1.60086e-33
      336.693   1.58225e-33
      336.796   1.56400e-33
      336.900   1.54579e-33
      337.004   1.52776e-33
      337.107   1.51011e-33
      337.211   1.49249e-33
      337.315   1.47510e-33
      337.419   1.45786e-33
      337.523   1.44081e-33
      337.626   1.42412e-33
      337.730   1.40749e-33
      337.834   1.39101e-33
      337.938   1.37474e-33
      338.042   1.35868e-33
      338.146   1.34296e-33
      338.250   1.32744e-33
      338.354   1.31209e-33
      338.458   1.29690e-33
      338.562   1.28190e-33
      338.667   1.26691e-33
      338.771   1.25222e-33
      338.875   1.23771e-33
      338.979   1.22336e-33
      339.084   1.20905e-33
      339.188   1.19501e-33
      339.292   1.18116e-33
      339.397   1.16731e-33
      339.501   1.15376e-33
      339.606   1.14023e-33
      339.710   1.12698e-33
      339.815   1.11376e-33
      339.919   1.10082e-33
      340.024   1.08789e-33
      340.128   1.07524e-33
      340.233   1.06261e-33
      340.338   1.05014e-33
      340.442   1.03791e-33
      340.547   1.02572e-33
      340.652   1.01366e-33
      340.757   1.00174e-33
      340.862   9.89957e-34
      340.966   9.78429e-34
      341.071   9.66901e-34
      341.176   9.55523e-34
      341.281   9.44278e-34
      341.386   9.33177e-34
      341.491   9.22183e-34
      341.596   9.11342e-34
      341.702   9.00514e-34
      341.807   8.89899e-34
      341.912   8.79425e-34
      342.017   8.69079e-34
      342.122   8.58841e-34
      342.228   8.48624e-34
      342.333   8.38631e-34
      342.438   8.28755e-34
      342.544   8.18908e-34
      342.649   8.09253e-34
      342.754   7.99735e-34
      342.860   7.90219e-34
      342.965   7.80908e-34
      343.071   7.71633e-34
      343.176   7.62548e-34
      343.282   7.53479e-34
      343.388   7.44528e-34
      343.493   7.35808e-34
      343.599   7.27487e-34
      343.705   7.19316e-34
      343.810   7.11294e-34
      343.916   7.03292e-34
      344.022   6.95394e-34
      344.128   6.87573e-34
      344.234   6.79840e-34
      344.340   6.72206e-34
      344.446   6.64642e-34
      344.552   6.57173e-34
      344.658   6.49805e-34
      344.764   6.42506e-34
      344.870   6.35294e-34
      344.976   6.28161e-34
      345.082   6.21112e-34
      345.188   6.14150e-34
      345.294   6.07260e-34
      345.401   6.00387e-34
      345.507   5.93657e-34
      345.613   5.87006e-34
      345.719   5.80431e-34
      345.826   5.73873e-34
      345.932   5.67447e-34
      346.039   5.61040e-34
      346.145   5.54757e-34
      346.252   5.48499e-34
      346.358   5.42370e-34
      346.465   5.36248e-34
      346.571   5.30258e-34
      346.678   5.24281e-34
      346.785   5.18372e-34
      346.891   5.12587e-34
      346.998   5.06817e-34
      347.105   5.01120e-34
      347.212   4.95479e-34
      347.319   4.89911e-34
      347.425   4.84448e-34
      347.532   4.79006e-34
      347.639   4.73630e-34
      347.746   4.68310e-34
      347.853   4.63062e-34
      347.960   4.57863e-34
      348.067   4.52737e-34
      348.174   4.47672e-34
      348.281   4.42650e-34
      348.389   4.37656e-34
      348.496   4.32751e-34
      348.603   4.27919e-34
      348.710   4.23132e-34
      348.818   4.18369e-34
      348.925   4.13693e-34
      349.032   4.09080e-34
      349.140   4.04467e-34
      349.247   3.99949e-34
      349.355   3.95453e-34
      349.462   3.91043e-34
      349.570   3.86639e-34
      349.677   3.82334e-34
      349.785   3.78035e-34
      349.892   3.73831e-34
      350.000   3.69637e-34
      350.100   3.65794e-34
      350.193   3.62263e-34
      350.287   3.58727e-34
      350.380   3.55260e-34
      350.473   3.51835e-34
      350.567   3.48402e-34
      350.660   3.45044e-34
      350.754   3.41681e-34
      350.847   3.38396e-34
      350.941   3.35102e-34
      351.034   3.31876e-34
      351.128   3.28651e-34
      351.221   3.25492e-34
      351.315   3.22335e-34
      351.409   3.19202e-34
      351.502   3.16140e-34
      351.596   3.13071e-34
      351.690   3.10037e-34
      351.783   3.07066e-34
      351.877   3.04098e-34
      351.971   3.01150e-34
      352.065   2.98238e-34
      352.159   2.95357e-34
      352.252   2.92532e-34
      352.346   2.89704e-34
      352.440   2.86906e-34
      352.534   2.84140e-34
      352.628   2.81402e-34
      352.722   2.78687e-34
      352.816   2.76000e-34
      352.910   2.73343e-34
      353.004   2.70711e-34
      353.098   2.68105e-34
      353.192   2.65525e-34
      353.287   2.62946e-34
      353.381   2.60419e-34
      353.475   2.57919e-34
      353.569   2.55440e-34
      353.663   2.52987e-34
      353.758   2.50537e-34
      353.852   2.48137e-34
      353.946   2.45759e-34
      354.041   2.43378e-34
      354.135   2.41047e-34
      354.229   2.38739e-34
      354.324   2.36433e-34
      354.418   2.34168e-34
      354.513   2.31905e-34
      354.607   2.29693e-34
      354.702   2.27468e-34
      354.796   2.25273e-34
      354.891   2.23072e-34
      354.985   2.20920e-34
      355.080   2.18763e-34
      355.175   2.16631e-34
      355.269   2.14539e-34
      355.364   2.12449e-34
      355.459   2.10378e-34
      355.553   2.08352e-34
      355.648   2.06323e-34
      355.743   2.04315e-34
      355.838   2.02326e-34
      355.933   2.00359e-34
      356.027   1.98433e-34
      356.122   1.96503e-34
      356.217   1.94593e-34
      356.312   1.92703e-34
      356.407   1.90832e-34
      356.502   1.88979e-34
      356.597   1.87142e-34
      356.692   1.85329e-34
      356.787   1.83531e-34
      356.882   1.81750e-34
      356.977   1.79988e-34
      357.073   1.78226e-34
      357.168   1.76497e-34
      357.263   1.74787e-34
      357.358   1.73094e-34
      357.453   1.71418e-34
      357.549   1.69741e-34
      357.644   1.68097e-34
      357.739   1.66471e-34
      357.835   1.64844e-34
      357.930   1.63250e-34
      358.025   1.61669e-34
      358.121   1.60089e-34
      358.216   1.58540e-34
      358.312   1.56991e-34
      358.407   1.55474e-34
      358.503   1.53955e-34
      358.598   1.52469e-34
      358.694   1.50980e-34
      358.790   1.49506e-34
      358.885   1.48060e-34
      358.981   1.46616e-34
      359.076   1.45198e-34
      359.172   1.43783e-34
      359.268   1.42378e-34
      359.364   1.40987e-34
      359.459   1.39627e-34
      359.555   1.38266e-34
      359.651   1.36916e-34
      359.747   1.35580e-34
      359.843   1.34258e-34
      359.939   1.32947e-34
      360.035   1.31651e-34
      360.131   1.30366e-34
      360.227   1.29094e-34
      360.323   1.27835e-34
      360.419   1.26588e-34
      360.515   1.25354e-34
      360.611   1.24131e-34
      360.707   1.22919e-34
      360.803   1.21720e-34
      360.899   1.20531e-34
      360.995   1.19357e-34
      361.092   1.18180e-34
      361.188   1.17026e-34
      361.284   1.15884e-34
      361.380   1.14754e-34
      361.477   1.13622e-34
      361.573   1.12513e-34
      361.669   1.11415e-34
      361.766   1.10314e-34
      361.862   1.09237e-34
      361.959   1.08160e-34
      362.055   1.07101e-34
      362.152   1.06045e-34
      362.248   1.05007e-34
      362.345   1.03969e-34
      362.441   1.02954e-34
      362.538   1.01937e-34
      362.635   1.00930e-34
      362.731   9.99416e-35
      362.828   9.89523e-35
      362.925   9.79738e-35
      363.021   9.70152e-35
      363.118   9.60552e-35
      363.215   9.51033e-35
      363.312   9.41612e-35
      363.409   9.32292e-35
      363.505   9.23147e-35
      363.602   9.13994e-35
      363.699   9.04943e-35
      363.796   8.95965e-35
      363.893   8.87073e-35
      363.990   8.78269e-35
      364.087   8.69548e-35
      364.184   8.60916e-35
      364.281   8.52363e-35
      364.378   8.43901e-35
      364.475   8.35510e-35
      364.573   8.27107e-35
      364.670   8.18874e-35
      364.767   8.10730e-35
      364.864   8.02660e-35
      364.961   7.94661e-35
      365.059   7.86664e-35
      365.156   7.78824e-35
      365.253   7.71058e-35
      365.351   7.63284e-35
      365.448   7.55663e-35
      365.545   7.48123e-35
      365.643   7.40569e-35
      365.740   7.33164e-35
      365.838   7.25758e-35
      365.935   7.18499e-35
      366.033   7.11240e-35
      366.130   7.04115e-35
      366.228   6.96989e-35
      366.326   6.89935e-35
      366.423   6.83013e-35
      366.521   6.76088e-35
      366.618   6.69297e-35
      366.716   6.62502e-35
      366.814   6.55777e-35
      366.912   6.49118e-35
      367.010   6.42526e-35
      367.107   6.36060e-35
      367.205   6.29587e-35
      367.303   6.23175e-35
      367.401   6.16829e-35
      367.499   6.10542e-35
      367.597   6.04318e-35
      367.695   5.98149e-35
      367.793   5.92045e-35
      367.891   5.86004e-35
      367.989   5.80017e-35
      368.087   5.74088e-35
      368.185   5.68213e-35
      368.283   5.62398e-35
      368.381   5.56638e-35
      368.480   5.50875e-35
      368.578   5.45227e-35
      368.676   5.39637e-35
      368.774   5.34101e-35
      368.873   5.28563e-35
      368.971   5.23134e-35
      369.069   5.17760e-35
      369.168   5.12377e-35
      369.266   5.07100e-35
      369.364   5.01879e-35
      369.463   4.96661e-35
      369.561   4.91542e-35
      369.660   4.86421e-35
      369.758   4.81401e-35
      369.857   4.76382e-35
      369.955   4.71462e-35
      370.054   4.66537e-35
      370.153   4.61660e-35
      370.251   4.56883e-35
      370.350   4.52108e-35
      370.449   4.47380e-35
      370.547   4.42744e-35
      370.646   4.38101e-35
      370.745   4.33512e-35
      370.844   4.28965e-35
      370.943   4.24465e-35
      371.041   4.20055e-35
      371.140   4.15640e-35
      371.239   4.11270e-35
      371.338   4.06950e-35
      371.437   4.02669e-35
      371.536   3.98429e-35
      371.635   3.94231e-35
      371.734   3.90080e-35
      371.833   3.85969e-35
      371.932   3.81898e-35
      372.032   3.77828e-35
      372.131   3.73836e-35
      372.230   3.69890e-35
      372.329   3.65985e-35
      372.428   3.62116e-35
      372.528   3.58250e-35
      372.627   3.54463e-35
      372.726   3.50713e-35
      372.826   3.46966e-35
      372.925   3.43292e-35
      373.024   3.39655e-35
      373.124   3.36016e-35
      373.223   3.32454e-35
      373.323   3.28893e-35
      373.422   3.25402e-35
      373.522   3.21910e-35
      373.621   3.18493e-35
      373.721   3.15075e-35
      373.820   3.11724e-35
      373.920   3.08374e-35
      374.020   3.05059e-35
      374.119   3.01811e-35
      374.219   2.98562e-35
      374.319   2.95351e-35
      374.419   2.92172e-35
      374.518   2.89056e-35
      374.618   2.85942e-35
      374.718   2.82856e-35
      374.818   2.79806e-35
      374.918   2.76788e-35
      375.018   2.73800e-35
      375.118   2.70846e-35
      375.218   2.67920e-35
      375.318   2.65026e-35
      375.418   2.62160e-35
      375.518   2.59328e-35
      375.618   2.56525e-35
      375.718   2.53747e-35
      375.818   2.51001e-35
      375.918   2.48283e-35
      376.019   2.45570e-35
      376.119   2.42911e-35
      376.219   2.40279e-35
      376.319   2.37674e-35
      376.420   2.35073e-35
      376.520   2.32523e-35
      376.620   2.30002e-35
      376.721   2.27482e-35
      376.821   2.25013e-35
      376.922   2.22546e-35
      377.022   2.20129e-35
      377.122   2.17740e-35
      377.223   2.15352e-35
      377.323   2.13013e-35
      377.424   2.10675e-35
      377.525   2.08364e-35
      377.625   2.06099e-35
      377.726   2.03836e-35
      377.827   2.01599e-35
      377.927   1.99406e-35
      378.028   1.97216e-35
      378.129   1.95050e-35
      378.230   1.93374e-35
      378.330   1.92444e-35
      378.431   1.91629e-35
      378.532   1.90818e-35
      378.633   1.90009e-35
      378.734   1.89204e-35
      378.835   1.88401e-35
      378.936   1.87602e-35
      379.037   1.86805e-35
      379.138   1.86009e-35
      379.239   1.85217e-35
      379.340   1.84431e-35
      379.441   1.83648e-35
      379.542   1.82865e-35
      379.643   1.82087e-35
      379.745   1.81303e-35
      379.846   1.80531e-35
      379.947   1.79759e-35
      380.048   1.78992e-35
      380.150   1.78221e-35
      380.251   1.77461e-35
      380.352   1.76703e-35
      380.454   1.75942e-35
      380.555   1.75190e-35
      380.656   1.74440e-35
      380.758   1.73687e-35
      380.859   1.72944e-35
      380.961   1.72197e-35
      381.062   1.71461e-35
      381.164   1.70720e-35
      381.266   1.69983e-35
      381.367   1.69255e-35
      381.469   1.68525e-35
      381.570   1.67804e-35
      381.672   1.67078e-35
      381.774   1.66356e-35
      381.876   1.65637e-35
      381.977   1.64929e-35
      382.079   1.64216e-35
      382.181   1.63506e-35
      382.283   1.62800e-35
      382.385   1.62096e-35
      382.487   1.61397e-35
      382.589   1.60700e-35
      382.691   1.60005e-35
      382.793   1.59314e-35
      382.895   1.58627e-35
      382.997   1.57943e-35
      383.099   1.57261e-35
      383.201   1.56582e-35
      383.303   1.55909e-35
      383.405   1.55235e-35
      383.507   1.54564e-35
      383.610   1.53892e-35
      383.712   1.53229e-35
      383.814   1.52569e-35
      383.916   1.51914e-35
      384.019   1.51253e-35
      384.121   1.50603e-35
      384.223   1.49954e-35
      384.326   1.49359e-35
      384.428   1.48915e-35
      384.531   1.48509e-35
      384.633   1.48109e-35
      384.736   1.47706e-35
      384.838   1.47307e-35
      384.941   1.46906e-35
      385.043   1.46510e-35
      385.146   1.46115e-35
      385.249   1.45717e-35
      385.351   1.45325e-35
      385.454   1.44932e-35
      385.557   1.44539e-35
      385.660   1.44149e-35
      385.762   1.43764e-35
      385.865   1.43375e-35
      385.968   1.42988e-35
      386.071   1.42603e-35
      386.174   1.42218e-35
      386.277   1.41835e-35
      386.380   1.41453e-35
      386.483   1.41072e-35
      386.586   1.40696e-35
      386.689   1.40318e-35
      386.792   1.39942e-35
      386.895   1.39567e-35
      386.998   1.39194e-35
      387.101   1.38821e-35
      387.204   1.38449e-35
      387.308   1.38077e-35
      387.411   1.37710e-35
      387.514   1.37343e-35
      387.617   1.36977e-35
      387.721   1.36609e-35
      387.824   1.36247e-35
      387.927   1.35886e-35
      388.031   1.35522e-35
      388.134   1.35163e-35
      388.238   1.34802e-35
      388.341   1.34446e-35
      388.445   1.34089e-35
      388.548   1.33734e-35
      388.652   1.33381e-35
      388.755   1.33030e-35
      388.859   1.32676e-35
      388.962   1.32328e-35
      389.066   1.31977e-35
      389.170   1.31629e-35
      389.274   1.31282e-35
      389.377   1.30941e-35
      389.481   1.30595e-35
      389.585   1.30251e-35
      389.689   1.29908e-35
      389.793   1.29568e-35
      389.897   1.29227e-35
      390.000   1.28893e-35
      390.104   1.28556e-35
      390.208   1.28220e-35
      390.312   1.27885e-35
      390.416   1.27550e-35
      390.520   1.27215e-35
      390.625   1.26880e-35
      390.729   1.26547e-35
      390.833   1.26216e-35
      390.937   1.25887e-35
      391.041   1.25559e-35
      391.145   1.25230e-35
      391.250   1.24901e-35
      391.354   1.24576e-35
      391.458   1.24252e-35
      391.563   1.23926e-35
      391.667   1.23605e-35
      391.771   1.23285e-35
      391.876   1.22964e-35
      391.980   1.22645e-35
      392.085   1.22325e-35
      392.189   1.22010e-35
      392.294   1.21693e-35
      392.398   1.21380e-35
      392.503   1.21065e-35
      392.607   1.20754e-35
      392.712   1.20442e-35
      392.817   1.20129e-35
      392.921   1.19823e-35
      393.026   1.19513e-35
      393.131   1.19205e-35
      393.236   1.18897e-35
      393.340   1.18595e-35
      393.445   1.18291e-35
      393.550   1.17986e-35
      393.655   1.17684e-35
      393.760   1.17382e-35
      393.865   1.17082e-35
      393.970   1.16782e-35
      394.075   1.16483e-35
      394.180   1.16187e-35
      394.285   1.15892e-35
      394.390   1.15595e-35
      394.495   1.15300e-35
      394.600   1.15008e-35
      394.706   1.14712e-35
      394.811   1.14422e-35
      394.916   1.14130e-35
      395.021   1.13840e-35
      395.126   1.13552e-35
      395.232   1.13262e-35
      395.337   1.12974e-35
      395.443   1.12686e-35
      395.548   1.12400e-35
      395.653   1.12115e-35
      395.759   1.11830e-35
      395.864   1.11549e-35
      395.970   1.11265e-35
      396.075   1.10984e-35
      396.181   1.10702e-35
      396.286   1.10422e-35
      396.392   1.10142e-35
      396.498   1.09863e-35
      396.603   1.09585e-35
      396.709   1.09306e-35
      396.815   1.09027e-35
      396.921   1.08750e-35
      397.026   1.08477e-35
      397.132   1.08203e-35
      397.238   1.07928e-35
      397.344   1.07654e-35
      397.450   1.07382e-35
      397.556   1.07109e-35
      397.662   1.06837e-35
      397.768   1.06567e-35
      397.874   1.06299e-35
      397.980   1.06027e-35
      398.086   1.05760e-35
      398.192   1.05491e-35
      398.298   1.05223e-35
      398.404   1.04958e-35
      398.510   1.04691e-35
      398.617   1.04423e-35
      398.723   1.04158e-35
      398.829   1.03894e-35
      398.935   1.03629e-35
      399.042   1.03366e-35
      399.148   1.03102e-35
      399.255   1.02837e-35
      399.361   1.02576e-35
      399.467   1.02314e-35
      399.574   1.02053e-35
      399.680   1.01792e-35
      399.787   1.01529e-35
      399.893       0.00000
      400.000       0.00000
