Filter Al-thick
observation_date 2019-09-22 22:40:45
wavelength effective area
      1.00000   2.52796e-10
      1.10000   6.99233e-10
      1.20000   1.75057e-09
      1.30000   4.00502e-09
      1.40000   8.63390e-09
      1.50000   1.73696e-08
      1.60000   3.28992e-08
      1.70000   5.92537e-08
      1.80000   1.01464e-07
      1.90000   1.66200e-07
      2.00000   2.60867e-07
      2.10000   3.93896e-07
      2.20000   5.74581e-07
      2.30000   8.08511e-07
      2.40000   1.09913e-06
      2.50000   1.43839e-06
      2.60000   1.85775e-06
      2.70000   2.31647e-06
      2.80000   2.80070e-06
      2.90000   3.30665e-06
      3.00000   3.79679e-06
      3.10000   4.24873e-06
      3.20000   4.64080e-06
      3.30000   4.95052e-06
      3.40000   5.15661e-06
      3.50000   5.24891e-06
      3.60000   5.23881e-06
      3.70000   5.10720e-06
      3.80000   4.88365e-06
      3.90000   4.57834e-06
      4.00000   4.20556e-06
      4.10000   3.78937e-06
      4.20000   3.35253e-06
      4.30000   2.91351e-06
      4.40000   2.48806e-06
      4.50000   2.08770e-06
      4.60000   1.72015e-06
      4.70000   1.39642e-06
      4.80000   1.11511e-06
      4.90000   8.66050e-07
      5.00000   6.79825e-07
      5.10000   5.18442e-07
      5.20000   3.90743e-07
      5.30000   2.87516e-07
      5.40000   2.08169e-07
      5.50000   1.48920e-07
      5.60000   1.01625e-07
      5.70000   7.18824e-08
      5.80000   4.51427e-08
      5.90000   3.65553e-08
      6.00000   2.57156e-08
      6.10000   1.69618e-08
      6.20000   1.07877e-08
      6.30000   6.46628e-09
      6.40000   3.64938e-09
      6.50000   1.94592e-09
      6.60000   9.74018e-10
      6.70000   4.69724e-10
      6.80000   2.19455e-10
      6.90000   1.32166e-10
      7.00000   6.59694e-11
      7.10000   3.14193e-11
      7.20000   1.44916e-11
      7.30000   6.58964e-12
      7.40000   3.05092e-12
      7.50000   1.35317e-12
      7.60000   5.73000e-13
      7.70000   2.50149e-13
      7.80000   1.03143e-13
      7.90000   4.15640e-14
      8.00000     0.0717592
      8.10000     0.0718090
      8.20000     0.0665332
      8.30000     0.0612260
      8.40000     0.0562910
      8.50000     0.0516025
      8.60000     0.0471928
      8.70000     0.0430154
      8.80000     0.0391107
      8.90000     0.0354337
      9.00000     0.0320125
      9.10000     0.0288398
      9.20000     0.0258873
      9.30000     0.0231963
      9.40000     0.0207164
      9.50000     0.0184360
      9.60000     0.0163844
      9.70000     0.0145133
      9.80000     0.0128051
      9.90000     0.0112683
      10.0000    0.00988668
      10.1000    0.00864113
      10.2000    0.00752301
      10.3000    0.00653521
      10.4000    0.00566562
      10.5000    0.00489537
      10.6000    0.00421574
      10.7000    0.00361830
      10.8000    0.00309773
      10.9000    0.00264842
      11.0000    0.00225707
      11.1000    0.00191743
      11.2000    0.00162369
      11.3000    0.00137063
      11.4000    0.00115336
      11.5000   0.000967456
      11.6000   0.000808966
      11.7000   0.000675664
      11.8000   0.000562747
      11.9000   0.000468254
      12.0000   0.000388626
      12.1000   0.000323113
      12.2000   0.000272996
      12.3000   0.000226996
      12.4000   0.000186499
      12.5000   0.000152630
      12.6000   0.000124477
      12.7000   0.000101172
      12.8000   8.19654e-05
      12.9000   6.62038e-05
      13.0000   5.33086e-05
      13.1000   4.27884e-05
      13.2000   3.42332e-05
      13.3000   2.72976e-05
      13.4000   2.16940e-05
      13.5000   1.71907e-05
      13.6000   1.36407e-05
      13.7000   1.07904e-05
      13.8000   8.50781e-06
      13.9000   6.68534e-06
      14.0000   5.23435e-06
      14.1000   4.08252e-06
      14.2000   3.17117e-06
      14.3000   2.45275e-06
      14.4000   1.88873e-06
      14.5000   1.45388e-06
      14.6000   1.12228e-06
      14.7000   8.62233e-07
      14.8000   6.59062e-07
      14.9000   5.01002e-07
      15.0000   3.78637e-07
      15.1000   2.84404e-07
      15.2000   2.15614e-07
      15.3000   1.62882e-07
      15.4000   1.22175e-07
      15.5000   9.09625e-08
      15.6000   6.72030e-08
      15.7000   4.98423e-08
      15.8000   3.71953e-08
      15.9000   2.75095e-08
      16.0000   2.01633e-08
      16.1000   1.46468e-08
      16.2000   1.08078e-08
      16.3000   7.95396e-09
      16.4000   5.78414e-09
      16.5000   4.15682e-09
      16.6000   3.00762e-09
      16.7000   2.19479e-09
      16.8000   1.57706e-09
      16.9000   1.11648e-09
      17.0000   7.98523e-10
      17.1000   5.75512e-10
      17.2000   4.06936e-10
      17.3000   2.82712e-10
      17.4000   2.02871e-10
      17.5000   1.44689e-10
      17.6000   1.01453e-10
      17.7000   7.13524e-11
      17.8000   5.18176e-11
      17.9000   3.67748e-11
      18.0000   2.55100e-11
      18.1000   1.83852e-11
      18.2000   1.29168e-11
      18.3000   8.78659e-12
      18.4000   6.10956e-12
      18.5000   4.18814e-12
      18.6000   2.75185e-12
      18.7000   1.83889e-12
      18.8000   1.22629e-12
      18.9000   7.81593e-13
      19.0000   5.16598e-13
      19.1000   3.40487e-13
      19.2000   2.13765e-13
      19.3000   1.41950e-13
      19.4000   9.25917e-14
      19.5000   5.74453e-14
      19.6000   3.87725e-14
      19.7000   2.49790e-14
      19.8000   1.55001e-14
      19.9000   1.05218e-14
      20.0000   6.63840e-15
      20.1000   4.25073e-15
      20.2000   2.78795e-15
      20.3000   1.70138e-15
      20.4000   1.12489e-15
      20.5000   7.07358e-16
      20.6000   4.31140e-16
      20.7000   2.84239e-16
      20.8000   1.70399e-16
      20.9000   1.09720e-16
      21.0000   6.79565e-17
      21.1000   4.03255e-17
      21.2000   2.62700e-17
      21.3000   1.52736e-17
      21.4000   9.80228e-18
      21.5000   5.87421e-18
      21.6000   3.50892e-18
      21.7000   2.19835e-18
      21.8000   1.22026e-18
      21.9000   8.00972e-19
      22.0000   4.55716e-19
      22.1000   2.83295e-19
      22.2000   1.65962e-19
      22.3000   9.63901e-20
      22.4000   5.82746e-20
      22.5000   3.02165e-20
      22.6000   1.83277e-20
      22.7000   8.56365e-21
      22.8000   6.43797e-21
      22.9000   4.72055e-21
      23.0000   3.66499e-21
      23.1000   2.65202e-21
      23.2000   1.68796e-21
      23.3000   1.06111e-21
      23.4000   6.02820e-22
      23.5000   3.73753e-22
      23.6000   2.00714e-22
      23.7000   1.28631e-22
      23.8000   6.61359e-23
      23.9000   4.31941e-23
      24.0000   2.22482e-23
      24.1000   1.42316e-23
      24.2000   7.32709e-24
      24.3000   4.60383e-24
      24.4000   2.37414e-24
      24.5000   1.47032e-24
      24.6000   7.59598e-25
      24.7000   4.64810e-25
      24.8000   2.39840e-25
      24.9000   1.46018e-25
      25.0000   7.54049e-26
      25.1000   4.56764e-26
      25.2000   2.33623e-26
      25.3000   1.41679e-26
      25.4000   7.17050e-27
      25.5000   4.36020e-27
      25.6000   2.16367e-27
      25.7000   1.32512e-27
      25.8000   6.42258e-28
      25.9000   3.97446e-28
      26.0000   1.87111e-28
      26.1000   1.17387e-28
      26.2000   5.34655e-29
      26.3000   3.40943e-29
      26.4000   1.49649e-29
      26.5000   9.71977e-30
      26.6000   4.50184e-30
      26.7000   2.71489e-30
      26.8000   1.33955e-30
      26.9000   7.42126e-31
      27.0000   3.89143e-31
      27.1000   1.98193e-31
      27.2000   1.09998e-31
      27.3000   5.16273e-32
      27.4000   3.02968e-32
      27.5000   1.32338e-32
      27.6000   8.13215e-33
      27.7000   3.27685e-33
      27.8000   2.10202e-33
      27.9000   9.33253e-34
      28.0000   5.24609e-34
      28.1000   2.64825e-34
      28.2000   1.27437e-34
      28.3000   7.15754e-35
      28.4000   3.08735e-35
      28.5000   1.87302e-35
      28.6000   7.31376e-36
      28.7000   4.77426e-36
      28.8000   2.24813e-36
      28.9000   1.24309e-36
      29.0000   6.72843e-37
      29.1000   3.11643e-37
      29.2000   1.86392e-37
      29.3000   7.53255e-38
      29.4000   4.85594e-38
      29.5000   2.19371e-38
      29.6000   1.20010e-38
      29.7000   6.47134e-39
      29.8000   2.82888e-39
      29.9000   1.71291e-39
      30.0000   6.38181e-40
      30.1000   4.19463e-40
      30.2000   2.01912e-40
      30.3000   9.68676e-41
      30.4000   5.61164e-41
      30.5000   2.24124e-41
      30.6000   1.42750e-41
      30.7000   6.18533e-42
      30.8000   3.19496e-42
      30.9000   1.75022e-42
      31.0000   6.76827e-43
      31.1000   4.24593e-43
      31.2000   1.72360e-43
      31.3000   9.52883e-44
      31.4000   4.48416e-44
      31.5000   1.96182e-44
      31.6000   1.26117e-44
      31.7000   2.80260e-45
      31.8000   2.80260e-45
      31.9000   2.80260e-45
      32.0000       0.00000
      32.1000       0.00000
      32.2000       0.00000
      32.3000       0.00000
      32.4000       0.00000
      32.5000       0.00000
      32.6000       0.00000
      32.7000       0.00000
      32.8000       0.00000
      32.9000       0.00000
      33.0000       0.00000
      33.1000       0.00000
      33.2000       0.00000
      33.3000       0.00000
      33.4000       0.00000
      33.5000       0.00000
      33.6000       0.00000
      33.7000       0.00000
      33.8000       0.00000
      33.9000       0.00000
      34.0000       0.00000
      34.1000       0.00000
      34.2000       0.00000
      34.3000       0.00000
      34.4000       0.00000
      34.5000       0.00000
      34.6000       0.00000
      34.7000       0.00000
      34.8000       0.00000
      34.9000       0.00000
      35.0000       0.00000
      35.1000       0.00000
      35.2000       0.00000
      35.3000       0.00000
      35.4000       0.00000
      35.5000       0.00000
      35.6000       0.00000
      35.7000       0.00000
      35.8000       0.00000
      35.9000       0.00000
      36.0000       0.00000
      36.1000       0.00000
      36.2000       0.00000
      36.3000       0.00000
      36.4000       0.00000
      36.5000       0.00000
      36.6000       0.00000
      36.7000       0.00000
      36.8000       0.00000
      36.9000       0.00000
      37.0000       0.00000
      37.1000       0.00000
      37.2000       0.00000
      37.3000       0.00000
      37.4000       0.00000
      37.5000       0.00000
      37.6000       0.00000
      37.7000       0.00000
      37.8000       0.00000
      37.9000       0.00000
      38.0000       0.00000
      38.1000       0.00000
      38.2000       0.00000
      38.3000       0.00000
      38.4000       0.00000
      38.5000       0.00000
      38.6000       0.00000
      38.7000       0.00000
      38.8000       0.00000
      38.9000       0.00000
      39.0000       0.00000
      39.1000       0.00000
      39.2000       0.00000
      39.3000       0.00000
      39.4000       0.00000
      39.5000       0.00000
      39.6000       0.00000
      39.7000       0.00000
      39.8000       0.00000
      39.9000       0.00000
      40.0000       0.00000
      40.1000       0.00000
      40.2000       0.00000
      40.3000       0.00000
      40.4000       0.00000
      40.5000       0.00000
      40.6000       0.00000
      40.7000       0.00000
      40.8000       0.00000
      40.9000       0.00000
      41.0000       0.00000
      41.1000       0.00000
      41.2000       0.00000
      41.3000       0.00000
      41.4000       0.00000
      41.5000       0.00000
      41.6000       0.00000
      41.7000       0.00000
      41.8000       0.00000
      41.9000       0.00000
      42.0000       0.00000
      42.1000       0.00000
      42.2000       0.00000
      42.3000       0.00000
      42.4000       0.00000
      42.5000       0.00000
      42.6000       0.00000
      42.7000       0.00000
      42.8000       0.00000
      42.9000       0.00000
      43.0000       0.00000
      43.1000       0.00000
      43.2000       0.00000
      43.3000       0.00000
      43.4000       0.00000
      43.5000       0.00000
      43.6000       0.00000
      43.7000       0.00000
      43.8000       0.00000
      43.9000       0.00000
      44.0000       0.00000
      44.1000       0.00000
      44.2000       0.00000
      44.3000       0.00000
      44.4000       0.00000
      44.5000       0.00000
      44.6000       0.00000
      44.7000       0.00000
      44.8000       0.00000
      44.9000       0.00000
      45.0000       0.00000
      45.1000       0.00000
      45.2000       0.00000
      45.3000       0.00000
      45.4000       0.00000
      45.5000       0.00000
      45.6000       0.00000
      45.7000       0.00000
      45.8000       0.00000
      45.9000       0.00000
      46.0000       0.00000
      46.1000       0.00000
      46.2000       0.00000
      46.3000       0.00000
      46.4000       0.00000
      46.5000       0.00000
      46.6000       0.00000
      46.7000       0.00000
      46.8000       0.00000
      46.9000       0.00000
      47.0000       0.00000
      47.1000       0.00000
      47.2000       0.00000
      47.3000       0.00000
      47.4000       0.00000
      47.5000       0.00000
      47.6000       0.00000
      47.7000       0.00000
      47.8000       0.00000
      47.9000       0.00000
      48.0000       0.00000
      48.1000       0.00000
      48.2000       0.00000
      48.3000       0.00000
      48.4000       0.00000
      48.5000       0.00000
      48.6000       0.00000
      48.7000       0.00000
      48.8000       0.00000
      48.9000       0.00000
      49.0000       0.00000
      49.1000       0.00000
      49.2000       0.00000
      49.3000       0.00000
      49.4000       0.00000
      49.5000       0.00000
      49.6000       0.00000
      49.7000       0.00000
      49.8000       0.00000
      49.9000       0.00000
      50.0000       0.00000
      50.1000       0.00000
      50.2000       0.00000
      50.3000       0.00000
      50.4000       0.00000
      50.5000       0.00000
      50.6000       0.00000
      50.7000       0.00000
      50.8000       0.00000
      50.9000       0.00000
      51.0000       0.00000
      51.1000       0.00000
      51.2000       0.00000
      51.3000       0.00000
      51.4000       0.00000
      51.5000       0.00000
      51.6000       0.00000
      51.7000       0.00000
      51.8000       0.00000
      51.9000       0.00000
      52.0000       0.00000
      52.1000       0.00000
      52.2000       0.00000
      52.3000       0.00000
      52.4000       0.00000
      52.5000       0.00000
      52.6000       0.00000
      52.7000       0.00000
      52.8000       0.00000
      52.9000       0.00000
      53.0000       0.00000
      53.1000       0.00000
      53.2000       0.00000
      53.3000       0.00000
      53.4000       0.00000
      53.5000       0.00000
      53.6000       0.00000
      53.7000       0.00000
      53.8000       0.00000
      53.9000       0.00000
      54.0000       0.00000
      54.1000       0.00000
      54.2000       0.00000
      54.3000       0.00000
      54.4000       0.00000
      54.5000       0.00000
      54.6000       0.00000
      54.7000       0.00000
      54.8000       0.00000
      54.9000       0.00000
      55.0000       0.00000
      55.1000       0.00000
      55.2000       0.00000
      55.3000       0.00000
      55.4000       0.00000
      55.5000       0.00000
      55.6000       0.00000
      55.7000       0.00000
      55.8000       0.00000
      55.9000       0.00000
      56.0000       0.00000
      56.1000       0.00000
      56.2000       0.00000
      56.3000       0.00000
      56.4000       0.00000
      56.5000       0.00000
      56.6000       0.00000
      56.7000       0.00000
      56.8000       0.00000
      56.9000       0.00000
      57.0000       0.00000
      57.1000       0.00000
      57.2000       0.00000
      57.3000       0.00000
      57.4000       0.00000
      57.5000       0.00000
      57.6000       0.00000
      57.7000       0.00000
      57.8000       0.00000
      57.9000       0.00000
      58.0000       0.00000
      58.1000       0.00000
      58.2000       0.00000
      58.3000       0.00000
      58.4000       0.00000
      58.5000       0.00000
      58.6000       0.00000
      58.7000       0.00000
      58.8000       0.00000
      58.9000       0.00000
      59.0000       0.00000
      59.1000       0.00000
      59.2000       0.00000
      59.3000       0.00000
      59.4000       0.00000
      59.5000       0.00000
      59.6000       0.00000
      59.7000       0.00000
      59.8000       0.00000
      59.9000       0.00000
      60.0000       0.00000
      60.1000       0.00000
      60.2000       0.00000
      60.3000       0.00000
      60.4000       0.00000
      60.5000       0.00000
      60.6000       0.00000
      60.7000       0.00000
      60.8000       0.00000
      60.9000       0.00000
      61.0000       0.00000
      61.1000       0.00000
      61.2000       0.00000
      61.3000       0.00000
      61.4000       0.00000
      61.5000       0.00000
      61.6000       0.00000
      61.7000       0.00000
      61.8000       0.00000
      61.9000       0.00000
      62.0000       0.00000
      62.1000       0.00000
      62.2000       0.00000
      62.3000       0.00000
      62.4000       0.00000
      62.5000       0.00000
      62.6000       0.00000
      62.7000       0.00000
      62.8000       0.00000
      62.9000       0.00000
      63.0000       0.00000
      63.1000       0.00000
      63.2000       0.00000
      63.3000       0.00000
      63.4000       0.00000
      63.5000       0.00000
      63.6000       0.00000
      63.7000       0.00000
      63.8000       0.00000
      63.9000       0.00000
      64.0000       0.00000
      64.1000       0.00000
      64.2000       0.00000
      64.3000       0.00000
      64.4000       0.00000
      64.5000       0.00000
      64.6000       0.00000
      64.7000       0.00000
      64.8000       0.00000
      64.9000       0.00000
      65.0000       0.00000
      65.1000       0.00000
      65.2000       0.00000
      65.3000       0.00000
      65.4000       0.00000
      65.5000       0.00000
      65.6000       0.00000
      65.7000       0.00000
      65.8000       0.00000
      65.9000       0.00000
      66.0000       0.00000
      66.1000       0.00000
      66.2000       0.00000
      66.3000       0.00000
      66.4000       0.00000
      66.5000       0.00000
      66.6000       0.00000
      66.7000       0.00000
      66.8000       0.00000
      66.9000       0.00000
      67.0000       0.00000
      67.1000       0.00000
      67.2000       0.00000
      67.3000       0.00000
      67.4000       0.00000
      67.5000       0.00000
      67.6000       0.00000
      67.7000       0.00000
      67.8000       0.00000
      67.9000       0.00000
      68.0000       0.00000
      68.1000       0.00000
      68.2000       0.00000
      68.3000       0.00000
      68.4000       0.00000
      68.5000       0.00000
      68.6000       0.00000
      68.7000       0.00000
      68.8000       0.00000
      68.9000       0.00000
      69.0000       0.00000
      69.1000       0.00000
      69.2000       0.00000
      69.3000       0.00000
      69.4000       0.00000
      69.5000       0.00000
      69.6000       0.00000
      69.7000       0.00000
      69.8000       0.00000
      69.9000       0.00000
      70.0000       0.00000
      70.1000       0.00000
      70.2000       0.00000
      70.3000       0.00000
      70.4000       0.00000
      70.5000       0.00000
      70.6000       0.00000
      70.7000       0.00000
      70.8000       0.00000
      70.9000       0.00000
      71.0000       0.00000
      71.1000       0.00000
      71.2000       0.00000
      71.3000       0.00000
      71.4000       0.00000
      71.5000       0.00000
      71.6000       0.00000
      71.7000       0.00000
      71.8000       0.00000
      71.9000       0.00000
      72.0000       0.00000
      72.1000       0.00000
      72.2000       0.00000
      72.3000       0.00000
      72.4000       0.00000
      72.5000       0.00000
      72.6000       0.00000
      72.7000       0.00000
      72.8000       0.00000
      72.9000       0.00000
      73.0000       0.00000
      73.1000       0.00000
      73.2000       0.00000
      73.3000       0.00000
      73.4000       0.00000
      73.5000       0.00000
      73.6000       0.00000
      73.7000       0.00000
      73.8000       0.00000
      73.9000       0.00000
      74.0000       0.00000
      74.1000       0.00000
      74.2000       0.00000
      74.3000       0.00000
      74.4000       0.00000
      74.5000       0.00000
      74.6000       0.00000
      74.7000       0.00000
      74.8000       0.00000
      74.9000       0.00000
      75.0000       0.00000
      75.1000       0.00000
      75.2000       0.00000
      75.3000       0.00000
      75.4000       0.00000
      75.5000       0.00000
      75.6000       0.00000
      75.7000       0.00000
      75.8000       0.00000
      75.9000       0.00000
      76.0000       0.00000
      76.1000       0.00000
      76.2000       0.00000
      76.3000       0.00000
      76.4000       0.00000
      76.5000       0.00000
      76.6000       0.00000
      76.7000       0.00000
      76.8000       0.00000
      76.9000       0.00000
      77.0000       0.00000
      77.1000       0.00000
      77.2000       0.00000
      77.3000       0.00000
      77.4000       0.00000
      77.5000       0.00000
      77.6000       0.00000
      77.7000       0.00000
      77.8000       0.00000
      77.9000       0.00000
      78.0000       0.00000
      78.1000       0.00000
      78.2000       0.00000
      78.3000       0.00000
      78.4000       0.00000
      78.5000       0.00000
      78.6000       0.00000
      78.7000       0.00000
      78.8000       0.00000
      78.9000       0.00000
      79.0000       0.00000
      79.1000       0.00000
      79.2000       0.00000
      79.3000       0.00000
      79.4000       0.00000
      79.5000       0.00000
      79.6000       0.00000
      79.7000       0.00000
      79.8000       0.00000
      79.9000       0.00000
      80.0000       0.00000
      80.1000       0.00000
      80.2000       0.00000
      80.3000       0.00000
      80.4000       0.00000
      80.5000       0.00000
      80.6000       0.00000
      80.7000       0.00000
      80.8000       0.00000
      80.9000       0.00000
      81.0000       0.00000
      81.1000       0.00000
      81.2000       0.00000
      81.3000       0.00000
      81.4000       0.00000
      81.5000       0.00000
      81.6000       0.00000
      81.7000       0.00000
      81.8000       0.00000
      81.9000       0.00000
      82.0000       0.00000
      82.1000       0.00000
      82.2000       0.00000
      82.3000       0.00000
      82.4000       0.00000
      82.5000       0.00000
      82.6000       0.00000
      82.7000       0.00000
      82.8000       0.00000
      82.9000       0.00000
      83.0000       0.00000
      83.1000       0.00000
      83.2000       0.00000
      83.3000       0.00000
      83.4000       0.00000
      83.5000       0.00000
      83.6000       0.00000
      83.7000       0.00000
      83.8000       0.00000
      83.9000       0.00000
      84.0000       0.00000
      84.1000       0.00000
      84.2000       0.00000
      84.3000       0.00000
      84.4000       0.00000
      84.5000       0.00000
      84.6000       0.00000
      84.7000       0.00000
      84.8000       0.00000
      84.9000       0.00000
      85.0000       0.00000
      85.1000       0.00000
      85.2000       0.00000
      85.3000       0.00000
      85.4000       0.00000
      85.5000       0.00000
      85.6000       0.00000
      85.7000       0.00000
      85.8000       0.00000
      85.9000       0.00000
      86.0000       0.00000
      86.1000       0.00000
      86.2000       0.00000
      86.3000       0.00000
      86.4000       0.00000
      86.5000       0.00000
      86.6000       0.00000
      86.7000       0.00000
      86.8000       0.00000
      86.9000       0.00000
      87.0000       0.00000
      87.1000       0.00000
      87.2000       0.00000
      87.3000       0.00000
      87.4000       0.00000
      87.5000       0.00000
      87.6000       0.00000
      87.7000       0.00000
      87.8000       0.00000
      87.9000       0.00000
      88.0000       0.00000
      88.1000       0.00000
      88.2000       0.00000
      88.3000       0.00000
      88.4000       0.00000
      88.5000       0.00000
      88.6000       0.00000
      88.7000       0.00000
      88.8000       0.00000
      88.9000       0.00000
      89.0000       0.00000
      89.1000       0.00000
      89.2000       0.00000
      89.3000       0.00000
      89.4000       0.00000
      89.5000       0.00000
      89.6000       0.00000
      89.7000       0.00000
      89.8000       0.00000
      89.9000       0.00000
      90.0000       0.00000
      90.1000       0.00000
      90.2000       0.00000
      90.3000       0.00000
      90.4000       0.00000
      90.5000       0.00000
      90.6000       0.00000
      90.7000       0.00000
      90.8000       0.00000
      90.9000       0.00000
      91.0000       0.00000
      91.1000       0.00000
      91.2000       0.00000
      91.3000       0.00000
      91.4000       0.00000
      91.5000       0.00000
      91.6000       0.00000
      91.7000       0.00000
      91.8000       0.00000
      91.9000       0.00000
      92.0000       0.00000
      92.1000       0.00000
      92.2000       0.00000
      92.3000       0.00000
      92.4000       0.00000
      92.5000       0.00000
      92.6000       0.00000
      92.7000       0.00000
      92.8000       0.00000
      92.9000       0.00000
      93.0000       0.00000
      93.1000       0.00000
      93.2000       0.00000
      93.3000       0.00000
      93.4000       0.00000
      93.5000       0.00000
      93.6000       0.00000
      93.7000       0.00000
      93.8000       0.00000
      93.9000       0.00000
      94.0000       0.00000
      94.1000       0.00000
      94.2000       0.00000
      94.3000       0.00000
      94.4000       0.00000
      94.5000       0.00000
      94.6000       0.00000
      94.7000       0.00000
      94.8000       0.00000
      94.9000       0.00000
      95.0000       0.00000
      95.1000       0.00000
      95.2000       0.00000
      95.3000       0.00000
      95.4000       0.00000
      95.5000       0.00000
      95.6000       0.00000
      95.7000       0.00000
      95.8000       0.00000
      95.9000       0.00000
      96.0000       0.00000
      96.1000       0.00000
      96.2000       0.00000
      96.3000       0.00000
      96.4000       0.00000
      96.5000       0.00000
      96.6000       0.00000
      96.7000       0.00000
      96.8000       0.00000
      96.9000       0.00000
      97.0000       0.00000
      97.1000       0.00000
      97.2000       0.00000
      97.3000       0.00000
      97.4000       0.00000
      97.5000       0.00000
      97.6000       0.00000
      97.7000       0.00000
      97.8000       0.00000
      97.9000       0.00000
      98.0000       0.00000
      98.1000       0.00000
      98.2000       0.00000
      98.3000       0.00000
      98.4000       0.00000
      98.5000       0.00000
      98.6000       0.00000
      98.7000       0.00000
      98.8000       0.00000
      98.9000       0.00000
      99.0000       0.00000
      99.1000       0.00000
      99.2000       0.00000
      99.3000       0.00000
      99.4000       0.00000
      99.5000       0.00000
      99.6000       0.00000
      99.7000       0.00000
      99.8000       0.00000
      99.9000       0.00000
      100.000       0.00000
      100.100       0.00000
      100.200       0.00000
      100.300       0.00000
      100.400       0.00000
      100.500       0.00000
      100.600       0.00000
      100.700       0.00000
      100.800       0.00000
      100.900       0.00000
      101.000       0.00000
      101.100       0.00000
      101.200       0.00000
      101.300       0.00000
      101.400       0.00000
      101.500       0.00000
      101.600       0.00000
      101.700       0.00000
      101.800       0.00000
      101.900       0.00000
      102.000       0.00000
      102.100       0.00000
      102.200       0.00000
      102.300       0.00000
      102.400       0.00000
      102.500       0.00000
      102.600       0.00000
      102.700       0.00000
      102.800       0.00000
      102.900       0.00000
      103.000       0.00000
      103.100       0.00000
      103.200       0.00000
      103.300       0.00000
      103.400       0.00000
      103.500       0.00000
      103.600       0.00000
      103.700       0.00000
      103.800       0.00000
      103.900       0.00000
      104.000       0.00000
      104.100       0.00000
      104.200       0.00000
      104.300       0.00000
      104.400       0.00000
      104.500       0.00000
      104.600       0.00000
      104.700       0.00000
      104.800       0.00000
      104.900       0.00000
      105.000       0.00000
      105.100       0.00000
      105.200       0.00000
      105.300       0.00000
      105.400       0.00000
      105.500       0.00000
      105.600       0.00000
      105.700       0.00000
      105.800       0.00000
      105.900       0.00000
      106.000       0.00000
      106.100       0.00000
      106.200       0.00000
      106.300       0.00000
      106.400       0.00000
      106.500       0.00000
      106.600       0.00000
      106.700       0.00000
      106.800       0.00000
      106.900       0.00000
      107.000       0.00000
      107.100       0.00000
      107.200       0.00000
      107.300       0.00000
      107.400       0.00000
      107.500       0.00000
      107.600       0.00000
      107.700       0.00000
      107.800       0.00000
      107.900       0.00000
      108.000       0.00000
      108.100       0.00000
      108.200       0.00000
      108.300       0.00000
      108.400       0.00000
      108.500       0.00000
      108.600       0.00000
      108.700       0.00000
      108.800       0.00000
      108.900       0.00000
      109.000       0.00000
      109.100       0.00000
      109.200       0.00000
      109.300       0.00000
      109.400       0.00000
      109.500       0.00000
      109.600       0.00000
      109.700       0.00000
      109.800       0.00000
      109.900       0.00000
      110.000       0.00000
      110.100       0.00000
      110.200       0.00000
      110.300       0.00000
      110.400       0.00000
      110.500       0.00000
      110.600       0.00000
      110.700       0.00000
      110.800       0.00000
      110.900       0.00000
      111.000       0.00000
      111.100       0.00000
      111.200       0.00000
      111.300       0.00000
      111.400       0.00000
      111.500       0.00000
      111.600       0.00000
      111.700       0.00000
      111.800       0.00000
      111.900       0.00000
      112.000       0.00000
      112.100       0.00000
      112.200       0.00000
      112.300       0.00000
      112.400       0.00000
      112.500       0.00000
      112.600       0.00000
      112.700       0.00000
      112.800       0.00000
      112.900       0.00000
      113.000       0.00000
      113.100       0.00000
      113.200       0.00000
      113.300       0.00000
      113.400       0.00000
      113.500       0.00000
      113.600       0.00000
      113.700       0.00000
      113.800       0.00000
      113.900       0.00000
      114.000       0.00000
      114.100       0.00000
      114.200       0.00000
      114.300       0.00000
      114.400       0.00000
      114.500       0.00000
      114.600       0.00000
      114.700       0.00000
      114.800       0.00000
      114.900       0.00000
      115.000       0.00000
      115.100       0.00000
      115.200       0.00000
      115.300       0.00000
      115.400       0.00000
      115.500       0.00000
      115.600       0.00000
      115.700       0.00000
      115.800       0.00000
      115.900       0.00000
      116.000       0.00000
      116.100       0.00000
      116.200       0.00000
      116.300       0.00000
      116.400       0.00000
      116.500       0.00000
      116.600       0.00000
      116.700       0.00000
      116.800       0.00000
      116.900       0.00000
      117.000       0.00000
      117.100       0.00000
      117.200       0.00000
      117.300       0.00000
      117.400       0.00000
      117.500       0.00000
      117.600       0.00000
      117.700       0.00000
      117.800       0.00000
      117.900       0.00000
      118.000       0.00000
      118.100       0.00000
      118.200       0.00000
      118.300       0.00000
      118.400       0.00000
      118.500       0.00000
      118.600       0.00000
      118.700       0.00000
      118.800       0.00000
      118.900       0.00000
      119.000       0.00000
      119.100       0.00000
      119.200       0.00000
      119.300       0.00000
      119.400       0.00000
      119.500       0.00000
      119.600       0.00000
      119.700       0.00000
      119.800       0.00000
      119.900       0.00000
      120.000       0.00000
      120.100       0.00000
      120.200       0.00000
      120.300       0.00000
      120.400       0.00000
      120.500       0.00000
      120.600       0.00000
      120.700       0.00000
      120.800       0.00000
      120.900       0.00000
      121.000       0.00000
      121.100       0.00000
      121.200       0.00000
      121.300       0.00000
      121.400       0.00000
      121.500       0.00000
      121.600       0.00000
      121.700       0.00000
      121.800       0.00000
      121.900       0.00000
      122.000       0.00000
      122.100       0.00000
      122.200       0.00000
      122.300       0.00000
      122.400       0.00000
      122.500       0.00000
      122.600       0.00000
      122.700       0.00000
      122.800       0.00000
      122.900       0.00000
      123.000       0.00000
      123.100       0.00000
      123.200       0.00000
      123.300       0.00000
      123.400       0.00000
      123.500       0.00000
      123.600       0.00000
      123.700       0.00000
      123.800       0.00000
      123.900       0.00000
      124.000       0.00000
      124.100       0.00000
      124.200       0.00000
      124.300       0.00000
      124.400       0.00000
      124.500       0.00000
      124.600       0.00000
      124.700       0.00000
      124.800       0.00000
      124.900       0.00000
      125.000       0.00000
      125.100       0.00000
      125.200       0.00000
      125.300       0.00000
      125.400       0.00000
      125.500       0.00000
      125.600       0.00000
      125.700       0.00000
      125.800       0.00000
      125.900       0.00000
      126.000       0.00000
      126.100       0.00000
      126.200       0.00000
      126.300       0.00000
      126.400       0.00000
      126.500       0.00000
      126.600       0.00000
      126.700       0.00000
      126.800       0.00000
      126.900       0.00000
      127.000       0.00000
      127.100       0.00000
      127.200       0.00000
      127.300       0.00000
      127.400       0.00000
      127.500       0.00000
      127.600       0.00000
      127.700       0.00000
      127.800       0.00000
      127.900       0.00000
      128.000       0.00000
      128.100       0.00000
      128.200       0.00000
      128.300       0.00000
      128.400       0.00000
      128.500       0.00000
      128.600       0.00000
      128.700       0.00000
      128.800       0.00000
      128.900       0.00000
      129.000       0.00000
      129.100       0.00000
      129.200       0.00000
      129.300       0.00000
      129.400       0.00000
      129.500       0.00000
      129.600       0.00000
      129.700       0.00000
      129.800       0.00000
      129.900       0.00000
      130.000       0.00000
      130.100       0.00000
      130.200       0.00000
      130.300       0.00000
      130.400       0.00000
      130.500       0.00000
      130.600       0.00000
      130.700       0.00000
      130.800       0.00000
      130.900       0.00000
      131.000       0.00000
      131.100       0.00000
      131.200       0.00000
      131.300       0.00000
      131.400       0.00000
      131.500       0.00000
      131.600       0.00000
      131.700       0.00000
      131.800       0.00000
      131.900       0.00000
      132.000       0.00000
      132.100       0.00000
      132.200       0.00000
      132.300       0.00000
      132.400       0.00000
      132.500       0.00000
      132.600       0.00000
      132.700       0.00000
      132.800       0.00000
      132.900       0.00000
      133.000       0.00000
      133.100       0.00000
      133.200       0.00000
      133.300       0.00000
      133.400       0.00000
      133.500       0.00000
      133.600       0.00000
      133.700       0.00000
      133.800       0.00000
      133.900       0.00000
      134.000       0.00000
      134.100       0.00000
      134.200       0.00000
      134.300       0.00000
      134.400       0.00000
      134.500       0.00000
      134.600       0.00000
      134.700       0.00000
      134.800       0.00000
      134.900       0.00000
      135.000       0.00000
      135.100       0.00000
      135.200       0.00000
      135.300       0.00000
      135.400       0.00000
      135.500       0.00000
      135.600       0.00000
      135.700       0.00000
      135.800       0.00000
      135.900       0.00000
      136.000       0.00000
      136.100       0.00000
      136.200       0.00000
      136.300       0.00000
      136.400       0.00000
      136.500       0.00000
      136.600       0.00000
      136.700       0.00000
      136.800       0.00000
      136.900       0.00000
      137.000       0.00000
      137.100       0.00000
      137.200       0.00000
      137.300       0.00000
      137.400       0.00000
      137.500       0.00000
      137.600       0.00000
      137.700       0.00000
      137.800       0.00000
      137.900       0.00000
      138.000       0.00000
      138.100       0.00000
      138.200       0.00000
      138.300       0.00000
      138.400       0.00000
      138.500       0.00000
      138.600       0.00000
      138.700       0.00000
      138.800       0.00000
      138.900       0.00000
      139.000       0.00000
      139.100       0.00000
      139.200       0.00000
      139.300       0.00000
      139.400       0.00000
      139.500       0.00000
      139.600       0.00000
      139.700       0.00000
      139.800       0.00000
      139.900       0.00000
      140.000       0.00000
      140.100       0.00000
      140.200       0.00000
      140.300       0.00000
      140.400       0.00000
      140.500       0.00000
      140.600       0.00000
      140.700       0.00000
      140.800       0.00000
      140.900       0.00000
      141.000       0.00000
      141.100       0.00000
      141.200       0.00000
      141.300       0.00000
      141.400       0.00000
      141.500       0.00000
      141.600       0.00000
      141.700       0.00000
      141.800       0.00000
      141.900       0.00000
      142.000       0.00000
      142.100       0.00000
      142.200       0.00000
      142.300       0.00000
      142.400       0.00000
      142.500       0.00000
      142.600       0.00000
      142.700       0.00000
      142.800       0.00000
      142.900       0.00000
      143.000       0.00000
      143.100       0.00000
      143.200       0.00000
      143.300       0.00000
      143.400       0.00000
      143.500       0.00000
      143.600       0.00000
      143.700       0.00000
      143.800       0.00000
      143.900       0.00000
      144.000       0.00000
      144.100       0.00000
      144.200       0.00000
      144.300       0.00000
      144.400       0.00000
      144.500       0.00000
      144.600       0.00000
      144.700       0.00000
      144.800       0.00000
      144.900       0.00000
      145.000       0.00000
      145.100       0.00000
      145.200       0.00000
      145.300       0.00000
      145.400       0.00000
      145.500       0.00000
      145.600       0.00000
      145.700       0.00000
      145.800       0.00000
      145.900       0.00000
      146.000       0.00000
      146.100       0.00000
      146.200       0.00000
      146.300       0.00000
      146.400       0.00000
      146.500       0.00000
      146.600       0.00000
      146.700       0.00000
      146.800       0.00000
      146.900       0.00000
      147.000       0.00000
      147.100       0.00000
      147.200       0.00000
      147.300       0.00000
      147.400       0.00000
      147.500       0.00000
      147.600       0.00000
      147.700       0.00000
      147.800       0.00000
      147.900       0.00000
      148.000       0.00000
      148.100       0.00000
      148.200       0.00000
      148.300       0.00000
      148.400       0.00000
      148.500       0.00000
      148.600       0.00000
      148.700       0.00000
      148.800       0.00000
      148.900       0.00000
      149.000       0.00000
      149.100       0.00000
      149.200       0.00000
      149.300       0.00000
      149.400       0.00000
      149.500       0.00000
      149.600       0.00000
      149.700       0.00000
      149.800       0.00000
      149.900       0.00000
      150.000       0.00000
      150.100       0.00000
      150.200       0.00000
      150.300       0.00000
      150.400       0.00000
      150.500       0.00000
      150.600       0.00000
      150.700       0.00000
      150.800       0.00000
      150.900       0.00000
      151.000       0.00000
      151.100       0.00000
      151.200       0.00000
      151.300       0.00000
      151.400       0.00000
      151.500       0.00000
      151.600       0.00000
      151.700       0.00000
      151.800       0.00000
      151.900       0.00000
      152.000       0.00000
      152.100       0.00000
      152.200       0.00000
      152.300       0.00000
      152.400       0.00000
      152.500       0.00000
      152.600       0.00000
      152.700       0.00000
      152.800       0.00000
      152.900       0.00000
      153.000       0.00000
      153.100       0.00000
      153.200       0.00000
      153.300       0.00000
      153.400       0.00000
      153.500       0.00000
      153.600       0.00000
      153.700       0.00000
      153.800       0.00000
      153.900       0.00000
      154.000       0.00000
      154.100       0.00000
      154.200       0.00000
      154.300       0.00000
      154.400       0.00000
      154.500       0.00000
      154.600       0.00000
      154.700       0.00000
      154.800       0.00000
      154.900       0.00000
      155.000       0.00000
      155.100       0.00000
      155.200       0.00000
      155.300       0.00000
      155.400       0.00000
      155.500       0.00000
      155.600       0.00000
      155.700       0.00000
      155.800       0.00000
      155.900       0.00000
      156.000       0.00000
      156.100       0.00000
      156.200       0.00000
      156.300       0.00000
      156.400       0.00000
      156.500       0.00000
      156.600       0.00000
      156.700       0.00000
      156.800       0.00000
      156.900       0.00000
      157.000       0.00000
      157.100       0.00000
      157.200       0.00000
      157.300       0.00000
      157.400       0.00000
      157.500       0.00000
      157.600       0.00000
      157.700       0.00000
      157.800       0.00000
      157.900       0.00000
      158.000       0.00000
      158.100       0.00000
      158.200       0.00000
      158.300       0.00000
      158.400       0.00000
      158.500       0.00000
      158.600       0.00000
      158.700       0.00000
      158.800       0.00000
      158.900       0.00000
      159.000       0.00000
      159.100       0.00000
      159.200       0.00000
      159.300       0.00000
      159.400       0.00000
      159.500       0.00000
      159.600       0.00000
      159.700       0.00000
      159.800       0.00000
      159.900       0.00000
      160.000       0.00000
      160.100       0.00000
      160.200       0.00000
      160.300       0.00000
      160.400       0.00000
      160.500       0.00000
      160.600       0.00000
      160.700       0.00000
      160.800       0.00000
      160.900       0.00000
      161.000       0.00000
      161.100       0.00000
      161.200       0.00000
      161.300       0.00000
      161.400       0.00000
      161.500       0.00000
      161.600       0.00000
      161.700       0.00000
      161.800       0.00000
      161.900       0.00000
      162.000       0.00000
      162.100       0.00000
      162.200       0.00000
      162.300       0.00000
      162.400       0.00000
      162.500       0.00000
      162.600       0.00000
      162.700       0.00000
      162.800       0.00000
      162.900       0.00000
      163.000       0.00000
      163.100       0.00000
      163.200       0.00000
      163.300       0.00000
      163.400       0.00000
      163.500       0.00000
      163.600       0.00000
      163.700       0.00000
      163.800       0.00000
      163.900       0.00000
      164.000       0.00000
      164.100       0.00000
      164.200       0.00000
      164.300       0.00000
      164.400       0.00000
      164.500       0.00000
      164.600       0.00000
      164.700       0.00000
      164.800       0.00000
      164.900       0.00000
      165.000       0.00000
      165.100       0.00000
      165.200       0.00000
      165.300       0.00000
      165.400       0.00000
      165.500       0.00000
      165.600       0.00000
      165.700       0.00000
      165.800       0.00000
      165.900       0.00000
      166.000       0.00000
      166.100       0.00000
      166.200       0.00000
      166.300       0.00000
      166.400       0.00000
      166.500       0.00000
      166.600       0.00000
      166.700       0.00000
      166.800       0.00000
      166.900       0.00000
      167.000       0.00000
      167.100       0.00000
      167.200       0.00000
      167.300       0.00000
      167.400       0.00000
      167.500       0.00000
      167.600       0.00000
      167.700       0.00000
      167.800       0.00000
      167.900       0.00000
      168.000       0.00000
      168.100       0.00000
      168.200       0.00000
      168.300       0.00000
      168.400       0.00000
      168.500       0.00000
      168.600       0.00000
      168.700       0.00000
      168.800       0.00000
      168.900       0.00000
      169.000       0.00000
      169.100       0.00000
      169.200       0.00000
      169.300       0.00000
      169.400       0.00000
      169.500       0.00000
      169.600       0.00000
      169.700       0.00000
      169.800       0.00000
      169.900       0.00000
      170.000       0.00000
      170.100       0.00000
      170.200       0.00000
      170.300       0.00000
      170.400       0.00000
      170.500       0.00000
      170.600   6.54453e-40
      170.700   8.14126e-25
      170.800   1.09045e-20
      170.900   1.81169e-20
      171.000   1.85214e-20
      171.100   1.89331e-20
      171.200   1.93521e-20
      171.300   1.97790e-20
      171.400   2.02131e-20
      171.500   2.06547e-20
      171.600   2.11042e-20
      171.700   2.15621e-20
      171.800   2.20283e-20
      171.900   2.25027e-20
      172.000   2.29862e-20
      172.100   2.34797e-20
      172.200   2.39824e-20
      172.300   2.44942e-20
      172.400   2.50119e-20
      172.500   2.55387e-20
      172.600   2.60768e-20
      172.700   2.66255e-20
      172.800   2.71849e-20
      172.900   2.77566e-20
      173.000   2.83392e-20
      173.100   2.89334e-20
      173.200   2.95399e-20
      173.300   3.01588e-20
      173.400   3.07910e-20
      173.500   3.14355e-20
      173.600   3.20932e-20
      173.700   3.27641e-20
      173.800   3.34496e-20
      173.900   3.41476e-20
      174.000   3.48600e-20
      174.100   3.55879e-20
      174.200   3.63294e-20
      174.300   3.70847e-20
      174.400   3.78560e-20
      174.500   3.86417e-20
      174.600   3.94438e-20
      174.700   4.02611e-20
      174.800   4.10936e-20
      174.900   4.19424e-20
      175.000   4.28082e-20
      175.100   4.36890e-20
      175.200   4.45894e-20
      175.300   4.55054e-20
      175.400   4.64402e-20
      175.500   4.73920e-20
      175.600   4.83608e-20
      175.700   4.93484e-20
      175.800   5.03557e-20
      175.900   5.13808e-20
      176.000   5.24243e-20
      176.100   5.34878e-20
      176.200   5.45710e-20
      176.300   5.56754e-20
      176.400   5.67993e-20
      176.500   5.79437e-20
      176.600   5.91108e-20
      176.700   6.02985e-20
      176.800   6.15074e-20
      176.900   6.27384e-20
      177.000   6.39933e-20
      177.100   6.52712e-20
      177.200   6.65710e-20
      177.300   6.78941e-20
      177.400   6.92426e-20
      177.500   7.06151e-20
      177.600   7.20115e-20
      177.700   7.34325e-20
      177.800   7.48784e-20
      177.900   7.63513e-20
      178.000   7.78555e-20
      178.100   7.93847e-20
      178.200   8.09418e-20
      178.300   8.25278e-20
      178.400   8.41399e-20
      178.500   8.57802e-20
      178.600   8.74499e-20
      178.700   8.91510e-20
      178.800   9.08798e-20
      178.900   9.26376e-20
      179.000   9.44258e-20
      179.100   9.62463e-20
      179.200   9.81001e-20
      179.300   9.99842e-20
      179.400   1.01901e-19
      179.500   1.03853e-19
      179.600   1.05843e-19
      179.700   1.07864e-19
      179.800   1.09921e-19
      179.900   1.12014e-19
      180.000   1.14148e-19
      180.100   1.16316e-19
      180.200   1.18523e-19
      180.300   1.20769e-19
      180.400   1.23058e-19
      180.500   1.25388e-19
      180.600   1.27756e-19
      180.700   1.30167e-19
      180.800   1.32646e-19
      180.900   1.35212e-19
      181.000   1.37845e-19
      181.100   1.40523e-19
      181.200   1.43254e-19
      181.300   1.46037e-19
      181.400   1.48869e-19
      181.500   1.51751e-19
      181.600   1.54689e-19
      181.700   1.57683e-19
      181.800   1.60728e-19
      181.900   1.63830e-19
      182.000   1.66990e-19
      182.100   1.70205e-19
      182.200   1.73487e-19
      182.300   1.76824e-19
      182.400   1.80220e-19
      182.500   1.83678e-19
      182.600   1.87203e-19
      182.700   1.90787e-19
      182.800   1.94432e-19
      182.900   1.98146e-19
      183.000   2.01925e-19
      183.100   2.05769e-19
      183.200   2.09680e-19
      183.300   2.13662e-19
      183.400   2.17715e-19
      183.500   2.21836e-19
      183.600   2.26029e-19
      183.700   2.30437e-19
      183.800   2.35528e-19
      183.900   2.41098e-19
      184.000   2.46783e-19
      184.100   2.52605e-19
      184.200   2.58554e-19
      184.300   2.64641e-19
      184.400   2.70860e-19
      184.500   2.77210e-19
      184.600   2.83701e-19
      184.700   2.90338e-19
      184.800   2.97119e-19
      184.900   3.04043e-19
      185.000   3.11118e-19
      185.100   3.18350e-19
      185.200   3.25742e-19
      185.300   3.33285e-19
      185.400   3.40991e-19
      185.500   3.48859e-19
      185.600   3.56899e-19
      185.700   3.65120e-19
      185.800   3.73519e-19
      185.900   3.82093e-19
      186.000   3.90866e-19
      186.100   3.99813e-19
      186.200   4.08943e-19
      186.300   4.18265e-19
      186.400   4.27788e-19
      186.500   4.37512e-19
      186.600   4.47429e-19
      186.700   4.57543e-19
      186.800   4.67864e-19
      186.900   4.78405e-19
      187.000   4.89162e-19
      187.100   5.00122e-19
      187.200   5.11316e-19
      187.300   5.22758e-19
      187.400   5.34429e-19
      187.500   5.46330e-19
      187.600   5.58468e-19
      187.700   5.70850e-19
      187.800   5.83492e-19
      187.900   5.96387e-19
      188.000   6.09525e-19
      188.100   6.22924e-19
      188.200   6.36596e-19
      188.300   6.50548e-19
      188.400   6.64780e-19
      188.500   6.79289e-19
      188.600   6.94098e-19
      188.700   7.09233e-19
      188.800   7.24658e-19
      188.900   7.40382e-19
      189.000   7.56422e-19
      189.100   7.72801e-19
      189.200   7.89502e-19
      189.300   8.06523e-19
      189.400   8.23882e-19
      189.500   8.41593e-19
      189.600   8.59680e-19
      189.700   8.78102e-19
      189.800   8.96976e-19
      189.900   9.16266e-19
      190.000   9.35973e-19
      190.100   9.56054e-19
      190.200   9.76540e-19
      190.300   9.97429e-19
      190.400   1.01875e-18
      190.500   1.04050e-18
      190.600   1.06266e-18
      190.700   1.08527e-18
      190.800   1.10832e-18
      190.900   1.13183e-18
      191.000   1.15587e-18
      191.100   1.18038e-18
      191.200   1.20538e-18
      191.300   1.23086e-18
      191.400   1.25686e-18
      191.500   1.28337e-18
      191.600   1.31038e-18
      191.700   1.33792e-18
      191.800   1.36603e-18
      191.900   1.39465e-18
      192.000   1.42382e-18
      192.100   1.45360e-18
      192.200   1.48399e-18
      192.300   1.51497e-18
      192.400   1.54658e-18
      192.500   1.57878e-18
      192.600   1.61159e-18
      192.700   1.64502e-18
      192.800   1.67770e-18
      192.900   1.70742e-18
      193.000   1.73725e-18
      193.100   1.76760e-18
      193.200   1.79852e-18
      193.300   1.82990e-18
      193.400   1.86177e-18
      193.500   1.89417e-18
      193.600   1.92711e-18
      193.700   1.96058e-18
      193.800   1.99456e-18
      193.900   2.02906e-18
      194.000   2.06414e-18
      194.100   2.09988e-18
      194.200   2.13616e-18
      194.300   2.17303e-18
      194.400   2.21048e-18
      194.500   2.24856e-18
      194.600   2.28724e-18
      194.700   2.32649e-18
      194.800   2.36635e-18
      194.900   2.40687e-18
      195.000   2.44803e-18
      195.100   2.48997e-18
      195.200   2.53250e-18
      195.300   2.57567e-18
      195.400   2.61953e-18
      195.500   2.66408e-18
      195.600   2.70931e-18
      195.700   2.75519e-18
      195.800   2.80138e-18
      195.900   2.84537e-18
      196.000   2.78981e-18
      196.100   2.73405e-18
      196.200   2.67937e-18
      196.300   2.62576e-18
      196.400   2.57319e-18
      196.500   2.52162e-18
      196.600   2.47106e-18
      196.700   2.42147e-18
      196.800   2.37289e-18
      196.900   2.32531e-18
      197.000   2.27865e-18
      197.100   2.23289e-18
      197.200   2.18801e-18
      197.300   2.14399e-18
      197.400   2.10081e-18
      197.500   2.05845e-18
      197.600   2.01693e-18
      197.700   1.97630e-18
      197.800   1.93648e-18
      197.900   1.89741e-18
      198.000   1.85910e-18
      198.100   1.82153e-18
      198.200   1.78469e-18
      198.300   1.74857e-18
      198.400   1.71315e-18
      198.500   1.67849e-18
      198.600   1.64453e-18
      198.700   1.61124e-18
      198.800   1.57860e-18
      198.900   1.54661e-18
      199.000   1.51523e-18
      199.100   1.48447e-18
      199.200   1.45433e-18
      199.300   1.42486e-18
      199.400   1.39599e-18
      199.500   1.36769e-18
      199.600   1.33994e-18
      199.700   1.31274e-18
      199.800   1.28609e-18
      199.900   1.25996e-18
      200.000   1.23435e-18
      200.100   1.20936e-18
      200.200   1.18482e-18
      200.300   1.16079e-18
      200.400   1.13724e-18
      200.500   1.11416e-18
      200.600   1.09155e-18
      200.700   1.06939e-18
      200.800   1.04767e-18
      200.900   1.02640e-18
      201.000   1.00557e-18
      201.100   9.85172e-19
      201.200   9.65191e-19
      201.300   9.45607e-19
      201.400   9.26427e-19
      201.500   9.07625e-19
      201.600   8.89204e-19
      201.700   8.71158e-19
      201.800   8.53476e-19
      201.900   8.36156e-19
      202.000   8.19210e-19
      202.100   8.02603e-19
      202.200   7.86334e-19
      202.300   7.70455e-19
      202.400   7.55022e-19
      202.500   7.39931e-19
      202.600   7.25133e-19
      202.700   7.10645e-19
      202.800   6.96451e-19
      202.900   6.82549e-19
      203.000   6.68929e-19
      203.100   6.55591e-19
      203.200   6.42511e-19
      203.300   6.29695e-19
      203.400   6.17136e-19
      203.500   6.04828e-19
      203.600   5.92768e-19
      203.700   5.80955e-19
      203.800   5.69385e-19
      203.900   5.58062e-19
      204.000   5.46963e-19
      204.100   5.36087e-19
      204.200   5.25434e-19
      204.300   5.14995e-19
      204.400   5.04766e-19
      204.500   4.94744e-19
      204.600   4.84921e-19
      204.700   4.75297e-19
      204.800   4.65877e-19
      204.900   4.56652e-19
      205.000   4.47612e-19
      205.100   4.38754e-19
      205.200   4.30072e-19
      205.300   4.21567e-19
      205.400   4.13232e-19
      205.500   4.05064e-19
      205.600   3.96374e-19
      205.700   3.87248e-19
      205.800   3.78243e-19
      205.900   3.69456e-19
      206.000   3.60881e-19
      206.100   3.52503e-19
      206.200   3.44317e-19
      206.300   3.36324e-19
      206.400   3.28517e-19
      206.500   3.20886e-19
      206.600   3.13433e-19
      206.700   3.06154e-19
      206.800   2.99038e-19
      206.900   2.92087e-19
      207.000   2.85298e-19
      207.100   2.78672e-19
      207.200   2.72200e-19
      207.300   2.65875e-19
      207.400   2.59695e-19
      207.500   2.53656e-19
      207.600   2.47755e-19
      207.700   2.41989e-19
      207.800   2.36354e-19
      207.900   2.30847e-19
      208.000   2.25467e-19
      208.100   2.20210e-19
      208.200   2.15072e-19
      208.300   2.10054e-19
      208.400   2.05154e-19
      208.500   2.00368e-19
      208.600   1.95689e-19
      208.700   1.91116e-19
      208.800   1.86649e-19
      208.900   1.81760e-19
      209.000   1.76067e-19
      209.100   1.70328e-19
      209.200   1.64772e-19
      209.300   1.59393e-19
      209.400   1.54187e-19
      209.500   1.49148e-19
      209.600   1.44270e-19
      209.700   1.39553e-19
      209.800   1.34993e-19
      209.900   1.30577e-19
      210.000   1.26305e-19
      210.100   1.22170e-19
      210.200   1.18168e-19
      210.300   1.14295e-19
      210.400   1.10547e-19
      210.500   1.06919e-19
      210.600   1.03410e-19
      210.700   1.00013e-19
      210.800   9.67258e-20
      210.900   9.35450e-20
      211.000   9.04669e-20
      211.100   8.74902e-20
      211.200   8.46082e-20
      211.300   8.18249e-20
      211.400   7.91332e-20
      211.500   7.65276e-20
      211.600   7.40072e-20
      211.700   7.15690e-20
      211.800   6.92085e-20
      211.900   6.69250e-20
      212.000   6.47172e-20
      212.100   6.25805e-20
      212.200   6.05130e-20
      212.300   5.85132e-20
      212.400   5.65782e-20
      212.500   5.47067e-20
      212.600   5.28964e-20
      212.700   5.11452e-20
      212.800   4.94511e-20
      212.900   4.78128e-20
      213.000   4.62283e-20
      213.100   4.46975e-20
      213.200   4.32169e-20
      213.300   4.17844e-20
      213.400   4.03991e-20
      213.500   3.90590e-20
      213.600   3.77628e-20
      213.700   3.65096e-20
      213.800   3.52971e-20
      213.900   3.41250e-20
      214.000   3.29911e-20
      214.100   3.18945e-20
      214.200   3.08344e-20
      214.300   2.98089e-20
      214.400   2.88172e-20
      214.500   2.78584e-20
      214.600   2.69315e-20
      214.700   2.60349e-20
      214.800   2.51681e-20
      214.900   2.43302e-20
      215.000   2.35197e-20
      215.100   2.27364e-20
      215.200   2.19796e-20
      215.300   2.12483e-20
      215.400   2.05410e-20
      215.500   1.98572e-20
      215.600   1.91965e-20
      215.700   1.85573e-20
      215.800   1.79393e-20
      215.900   1.73422e-20
      216.000   1.67648e-20
      216.100   1.62065e-20
      216.200   1.56668e-20
      216.300   1.51452e-20
      216.400   1.46409e-20
      216.500   1.41533e-20
      216.600   1.36820e-20
      216.700   1.32265e-20
      216.800   1.27861e-20
      216.900   1.23603e-20
      217.000   1.19488e-20
      217.100   1.15508e-20
      217.200   1.11662e-20
      217.300   1.07944e-20
      217.400   1.04348e-20
      217.500   1.00875e-20
      217.600   9.75155e-21
      217.700   9.42663e-21
      217.800   9.11268e-21
      217.900   8.80926e-21
      218.000   8.51608e-21
      218.100   8.23256e-21
      218.200   7.95852e-21
      218.300   7.69361e-21
      218.400   7.43753e-21
      218.500   7.18980e-21
      218.600   6.95037e-21
      218.700   6.71883e-21
      218.800   6.49496e-21
      218.900   6.27860e-21
      219.000   6.06933e-21
      219.100   5.86695e-21
      219.200   5.67132e-21
      219.300   5.48214e-21
      219.400   5.29918e-21
      219.500   5.12229e-21
      219.600   4.95126e-21
      219.700   4.78592e-21
      219.800   4.62607e-21
      219.900   4.47147e-21
      220.000   4.32198e-21
      220.100   4.17745e-21
      220.200   4.03769e-21
      220.300   3.90257e-21
      220.400   3.77193e-21
      220.500   3.64565e-21
      220.600   3.52355e-21
      220.700   3.40546e-21
      220.800   3.29126e-21
      220.900   3.18092e-21
      221.000   3.07419e-21
      221.100   2.97099e-21
      221.200   2.87125e-21
      221.300   2.77483e-21
      221.400   2.68159e-21
      221.500   2.59147e-21
      221.600   2.50434e-21
      221.700   2.42009e-21
      221.800   2.33862e-21
      221.900   2.25989e-21
      222.000   2.18380e-21
      222.100   2.11020e-21
      222.200   2.03909e-21
      222.300   1.97032e-21
      222.400   1.90387e-21
      222.500   1.83960e-21
      222.600   1.77751e-21
      222.700   1.71747e-21
      222.800   1.65943e-21
      222.900   1.60334e-21
      223.000   1.54912e-21
      223.100   1.49671e-21
      223.200   1.44606e-21
      223.300   1.39709e-21
      223.400   1.34978e-21
      223.500   1.30402e-21
      223.600   1.25983e-21
      223.700   1.21710e-21
      223.800   1.17579e-21
      223.900   1.13590e-21
      224.000   1.09732e-21
      224.100   1.06004e-21
      224.200   1.02401e-21
      224.300   9.89194e-22
      224.400   9.55540e-22
      224.500   9.23022e-22
      224.600   8.91586e-22
      224.700   8.61226e-22
      224.800   8.31879e-22
      224.900   8.03516e-22
      225.000   7.76111e-22
      225.100   7.49624e-22
      225.200   7.24026e-22
      225.300   6.99311e-22
      225.400   6.75413e-22
      225.500   6.52319e-22
      225.600   6.30006e-22
      225.700   6.08456e-22
      225.800   5.87624e-22
      225.900   5.67500e-22
      226.000   5.48061e-22
      226.100   5.29276e-22
      226.200   5.11125e-22
      226.300   4.93632e-22
      226.400   4.76745e-22
      226.500   4.60416e-22
      226.600   4.44630e-22
      226.700   4.29381e-22
      226.800   4.14638e-22
      226.900   4.00395e-22
      227.000   3.86638e-22
      227.100   3.73344e-22
      227.200   3.60506e-22
      227.300   3.48105e-22
      227.400   3.36126e-22
      227.500   3.24556e-22
      227.600   3.13381e-22
      227.700   3.02587e-22
      227.800   2.92162e-22
      227.900   2.82095e-22
      228.000   2.72372e-22
      228.100   2.62982e-22
      228.200   2.53911e-22
      228.300   2.45153e-22
      228.400   2.36697e-22
      228.500   2.28528e-22
      228.600   2.20641e-22
      228.700   2.13025e-22
      228.800   2.05669e-22
      228.900   1.98570e-22
      229.000   1.91712e-22
      229.100   1.85091e-22
      229.200   1.78698e-22
      229.300   1.72525e-22
      229.400   1.66565e-22
      229.500   1.60810e-22
      229.600   1.55253e-22
      229.700   1.49888e-22
      229.800   1.44708e-22
      229.900   1.39706e-22
      230.000   1.34824e-22
      230.100   1.29741e-22
      230.200   1.24836e-22
      230.300   1.20118e-22
      230.400   1.15576e-22
      230.500   1.11207e-22
      230.600   1.07005e-22
      230.700   1.02960e-22
      230.800   9.90690e-23
      230.900   9.53244e-23
      231.000   9.17201e-23
      231.100   8.82517e-23
      231.200   8.49140e-23
      231.300   8.17027e-23
      231.400   7.86135e-23
      231.500   7.56386e-23
      231.600   7.27754e-23
      231.700   7.00214e-23
      231.800   6.73711e-23
      231.900   6.48203e-23
      232.000   6.23656e-23
      232.100   6.00030e-23
      232.200   5.77300e-23
      232.300   5.55429e-23
      232.400   5.34377e-23
      232.500   5.14114e-23
      232.600   4.94620e-23
      232.700   4.75861e-23
      232.800   4.57810e-23
      232.900   4.40436e-23
      233.000   4.23718e-23
      233.100   4.07634e-23
      233.200   3.92151e-23
      233.300   3.77257e-23
      233.400   3.62925e-23
      233.500   3.49144e-23
      233.600   3.35891e-23
      233.700   3.23130e-23
      233.800   3.09332e-23
      233.900   2.95922e-23
      234.000   2.83080e-23
      234.100   2.70794e-23
      234.200   2.59038e-23
      234.300   2.47786e-23
      234.400   2.37018e-23
      234.500   2.26713e-23
      234.600   2.16850e-23
      234.700   2.07415e-23
      234.800   1.98387e-23
      234.900   1.89746e-23
      235.000   1.81476e-23
      235.100   1.73564e-23
      235.200   1.65993e-23
      235.300   1.58749e-23
      235.400   1.51818e-23
      235.500   1.45186e-23
      235.600   1.38842e-23
      235.700   1.32773e-23
      235.800   1.26977e-23
      235.900   1.21432e-23
      236.000   1.16126e-23
      236.100   1.11049e-23
      236.200   1.06192e-23
      236.300   1.01544e-23
      236.400   9.70984e-24
      236.500   9.28445e-24
      236.600   8.87747e-24
      236.700   8.48814e-24
      236.800   8.11563e-24
      236.900   7.75928e-24
      237.000   7.41838e-24
      237.100   7.09222e-24
      237.200   6.78030e-24
      237.300   6.48189e-24
      237.400   6.19644e-24
      237.500   5.92335e-24
      237.600   5.66227e-24
      237.700   5.41300e-24
      237.800   5.17459e-24
      237.900   4.94651e-24
      238.000   4.72840e-24
      238.100   4.51969e-24
      238.200   4.32009e-24
      238.300   4.12918e-24
      238.400   3.94657e-24
      238.500   3.77189e-24
      238.600   3.60485e-24
      238.700   3.44513e-24
      238.800   3.29234e-24
      238.900   3.14623e-24
      239.000   3.00648e-24
      239.100   2.87286e-24
      239.200   2.74511e-24
      239.300   2.62312e-24
      239.400   2.50664e-24
      239.500   2.39523e-24
      239.600   2.28868e-24
      239.700   2.18685e-24
      239.800   2.08944e-24
      239.900   1.99630e-24
      240.000   1.90725e-24
      240.100   1.82208e-24
      240.200   1.74066e-24
      240.300   1.66282e-24
      240.400   1.58837e-24
      240.500   1.51725e-24
      240.600   1.44925e-24
      240.700   1.38424e-24
      240.800   1.32219e-24
      240.900   1.26297e-24
      241.000   1.20637e-24
      241.100   1.15225e-24
      241.200   1.10053e-24
      241.300   1.05109e-24
      241.400   1.00383e-24
      241.500   9.58669e-25
      241.600   9.15505e-25
      241.700   8.74248e-25
      241.800   8.34814e-25
      241.900   7.97128e-25
      242.000   7.61119e-25
      242.100   7.26717e-25
      242.200   6.93912e-25
      242.300   6.62614e-25
      242.400   6.32697e-25
      242.500   6.04109e-25
      242.600   5.76795e-25
      242.700   5.50692e-25
      242.800   5.25758e-25
      242.900   5.01933e-25
      243.000   4.79172e-25
      243.100   4.57427e-25
      243.200   4.36645e-25
      243.300   4.16798e-25
      243.400   3.97846e-25
      243.500   3.79774e-25
      243.600   3.62548e-25
      243.700   3.46084e-25
      243.800   3.30357e-25
      243.900   3.15341e-25
      244.000   3.00992e-25
      244.100   2.87287e-25
      244.200   2.74198e-25
      244.300   2.61694e-25
      244.400   2.49753e-25
      244.500   2.38349e-25
      244.600   2.27458e-25
      244.700   2.17073e-25
      244.800   2.07183e-25
      244.900   1.97738e-25
      245.000   1.88713e-25
      245.100   1.80095e-25
      245.200   1.71869e-25
      245.300   1.64012e-25
      245.400   1.56507e-25
      245.500   1.49344e-25
      245.600   1.42503e-25
      245.700   1.35968e-25
      245.800   1.29729e-25
      245.900   1.23793e-25
      246.000   1.18133e-25
      246.100   1.12726e-25
      246.200   1.07564e-25
      246.300   1.02634e-25
      246.400   9.79278e-26
      246.500   9.34337e-26
      246.600   8.91427e-26
      246.700   8.50465e-26
      246.800   8.11341e-26
      246.900   7.73998e-26
      247.000   7.38465e-26
      247.100   7.04586e-26
      247.200   6.72243e-26
      247.300   6.41366e-26
      247.400   6.11883e-26
      247.500   5.83733e-26
      247.600   5.56858e-26
      247.700   5.31202e-26
      247.800   5.06709e-26
      247.900   4.83326e-26
      248.000   4.61009e-26
      248.100   4.39823e-26
      248.200   4.19590e-26
      248.300   4.00269e-26
      248.400   3.81825e-26
      248.500   3.64214e-26
      248.600   3.47404e-26
      248.700   3.31359e-26
      248.800   3.16042e-26
      248.900   3.01422e-26
      249.000   2.87469e-26
      249.100   2.74207e-26
      249.200   2.61563e-26
      249.300   2.49486e-26
      249.400   2.37959e-26
      249.500   2.26957e-26
      249.600   2.16453e-26
      249.700   2.06427e-26
      249.800   1.96858e-26
      249.900   1.87724e-26
      250.000   1.79007e-26
      250.100   1.70716e-26
      250.200   1.62814e-26
      250.300   1.55279e-26
      250.400   1.48085e-26
      250.500   1.41222e-26
      250.600   1.34673e-26
      250.700   1.28424e-26
      250.800   1.22461e-26
      250.900   1.16771e-26
      251.000   1.11342e-26
      251.100   1.06162e-26
      251.200   1.01228e-26
      251.300   9.65308e-27
      251.400   9.20493e-27
      251.500   8.77711e-27
      251.600   8.36896e-27
      251.700   7.97981e-27
      251.800   7.60839e-27
      251.900   7.25403e-27
      252.000   6.91591e-27
      252.100   6.59350e-27
      252.200   6.28583e-27
      252.300   5.99281e-27
      252.400   5.71367e-27
      252.500   5.44756e-27
      252.600   5.19359e-27
      252.700   4.95136e-27
      252.800   4.72031e-27
      252.900   4.49990e-27
      253.000   4.28963e-27
      253.100   4.08910e-27
      253.200   3.89782e-27
      253.300   3.71620e-27
      253.400   3.54329e-27
      253.500   3.37856e-27
      253.600   3.22169e-27
      253.700   3.07198e-27
      253.800   2.92917e-27
      253.900   2.79294e-27
      254.000   2.66294e-27
      254.100   2.53889e-27
      254.200   2.42056e-27
      254.300   2.30768e-27
      254.400   2.19998e-27
      254.500   2.09724e-27
      254.600   1.99924e-27
      254.700   1.90577e-27
      254.800   1.81686e-27
      254.900   1.73204e-27
      255.000   1.65115e-27
      255.100   1.57395e-27
      255.200   1.50032e-27
      255.300   1.43010e-27
      255.400   1.36312e-27
      255.500   1.29923e-27
      255.600   1.23831e-27
      255.700   1.18020e-27
      255.800   1.12478e-27
      255.900   1.07191e-27
      256.000   1.02149e-27
      256.100   9.73478e-28
      256.200   9.27755e-28
      256.300   8.84149e-28
      256.400   8.42590e-28
      256.500   8.02924e-28
      256.600   7.65117e-28
      256.700   7.29069e-28
      256.800   6.94689e-28
      256.900   6.61904e-28
      257.000   6.30651e-28
      257.100   6.00850e-28
      257.200   5.72448e-28
      257.300   5.45360e-28
      257.400   5.23150e-28
      257.500   5.03130e-28
      257.600   4.83959e-28
      257.700   4.65520e-28
      257.800   4.47770e-28
      257.900   4.30693e-28
      258.000   4.14257e-28
      258.100   3.98438e-28
      258.200   3.83219e-28
      258.300   3.68578e-28
      258.400   3.54480e-28
      258.500   3.40913e-28
      258.600   3.27865e-28
      258.700   3.15308e-28
      258.800   3.03224e-28
      258.900   2.91605e-28
      259.000   2.80416e-28
      259.100   2.69656e-28
      259.200   2.59309e-28
      259.300   2.49369e-28
      259.400   2.39805e-28
      259.500   2.30599e-28
      259.600   2.21745e-28
      259.700   2.13228e-28
      259.800   2.05032e-28
      259.900   1.97145e-28
      260.000   1.89562e-28
      260.100   1.82267e-28
      260.200   1.75248e-28
      260.300   1.68497e-28
      260.400   1.62004e-28
      260.500   1.55759e-28
      260.600   1.49751e-28
      260.700   1.43971e-28
      260.800   1.38417e-28
      260.900   1.33070e-28
      261.000   1.27933e-28
      261.100   1.22996e-28
      261.200   1.18248e-28
      261.300   1.13681e-28
      261.400   1.09291e-28
      261.500   1.05525e-28
      261.600   1.03370e-28
      261.700   1.01516e-28
      261.800   9.96967e-29
      261.900   9.79081e-29
      262.000   9.61517e-29
      262.100   9.44266e-29
      262.200   9.27332e-29
      262.300   9.10689e-29
      262.400   8.94346e-29
      262.500   8.78301e-29
      262.600   8.62537e-29
      262.700   8.47059e-29
      262.800   8.31855e-29
      262.900   8.16908e-29
      263.000   8.02261e-29
      263.100   7.87860e-29
      263.200   7.73723e-29
      263.300   7.59844e-29
      263.400   7.46208e-29
      263.500   7.32819e-29
      263.600   7.19680e-29
      263.700   7.06767e-29
      263.800   6.94083e-29
      263.900   6.81641e-29
      264.000   6.69417e-29
      264.100   6.57409e-29
      264.200   6.45616e-29
      264.300   6.34044e-29
      264.400   6.22677e-29
      264.500   6.11514e-29
      264.600   6.00547e-29
      264.700   5.89782e-29
      264.800   5.79211e-29
      264.900   5.68837e-29
      265.000   5.58645e-29
      265.100   5.48634e-29
      265.200   5.38806e-29
      265.300   5.29155e-29
      265.400   5.19683e-29
      265.500   5.10380e-29
      265.600   5.01244e-29
      265.700   4.92271e-29
      265.800   4.83472e-29
      265.900   4.74831e-29
      266.000   4.66351e-29
      266.100   4.58028e-29
      266.200   4.49849e-29
      266.300   4.41820e-29
      266.400   4.33935e-29
      266.500   4.26192e-29
      266.600   4.18593e-29
      266.700   4.11125e-29
      266.800   4.03802e-29
      266.900   3.96606e-29
      267.000   3.89541e-29
      267.100   3.82605e-29
      267.200   3.75799e-29
      267.300   3.69113e-29
      267.400   3.62543e-29
      267.500   3.56095e-29
      267.600   3.49765e-29
      267.700   3.43547e-29
      267.800   3.37442e-29
      267.900   3.31449e-29
      268.000   3.25566e-29
      268.100   3.19789e-29
      268.200   3.14117e-29
      268.300   3.08549e-29
      268.400   3.03077e-29
      268.500   2.97707e-29
      268.600   2.92432e-29
      268.700   2.87257e-29
      268.800   2.82171e-29
      268.900   2.77180e-29
      269.000   2.72279e-29
      269.100   2.67465e-29
      269.200   2.62740e-29
      269.300   2.58100e-29
      269.400   2.53542e-29
      269.500   2.49065e-29
      269.600   2.44674e-29
      269.700   2.40357e-29
      269.800   2.36122e-29
      269.900   2.31960e-29
      270.000   2.27878e-29
      270.100   2.23866e-29
      270.200   2.19933e-29
      270.300   2.16066e-29
      270.400   2.12269e-29
      270.500   2.08541e-29
      270.600   2.04879e-29
      270.700   2.01284e-29
      270.800   1.97755e-29
      270.900   1.94286e-29
      271.000   1.90880e-29
      271.100   1.87533e-29
      271.200   1.84247e-29
      271.300   1.81021e-29
      271.400   1.77851e-29
      271.500   1.74740e-29
      271.600   1.71681e-29
      271.700   1.68678e-29
      271.800   1.65728e-29
      271.900   1.62831e-29
      272.000   1.59985e-29
      272.100   1.57190e-29
      272.200   1.54443e-29
      272.300   1.51745e-29
      272.400   1.49094e-29
      272.500   1.46491e-29
      272.600   1.43934e-29
      272.700   1.41422e-29
      272.800   1.38953e-29
      272.900   1.36528e-29
      273.000   1.34147e-29
      273.100   1.31808e-29
      273.200   1.29509e-29
      273.300   1.27251e-29
      273.400   1.25032e-29
      273.500   1.22852e-29
      273.600   1.20710e-29
      273.700   1.18605e-29
      273.800   1.16537e-29
      273.900   1.14506e-29
      274.000   1.12510e-29
      274.100   1.10550e-29
      274.200   1.08623e-29
      274.300   1.06730e-29
      274.400   1.04857e-29
      274.500   1.02989e-29
      274.600   1.01149e-29
      274.700   9.93425e-30
      274.800   9.75677e-30
      274.900   9.58239e-30
      275.000   9.41109e-30
      275.100   9.24289e-30
      275.200   9.07761e-30
      275.300   8.91525e-30
      275.400   8.75589e-30
      275.500   8.59934e-30
      275.600   8.44548e-30
      275.700   8.29436e-30
      275.800   8.14596e-30
      275.900   8.00022e-30
      276.000   7.85707e-30
      276.100   7.71638e-30
      276.200   7.57816e-30
      276.300   7.44242e-30
      276.400   7.30910e-30
      276.500   7.17815e-30
      276.600   7.04953e-30
      276.700   6.92312e-30
      276.800   6.79901e-30
      276.900   6.67703e-30
      277.000   6.55727e-30
      277.100   6.43956e-30
      277.200   6.32399e-30
      277.300   6.21046e-30
      277.400   6.09895e-30
      277.500   5.98931e-30
      277.600   5.88173e-30
      277.700   5.77599e-30
      277.800   5.67204e-30
      277.900   5.57003e-30
      278.000   5.46988e-30
      278.100   5.37146e-30
      278.200   5.27475e-30
      278.300   5.17976e-30
      278.400   5.08649e-30
      278.500   4.99478e-30
      278.600   4.90473e-30
      278.700   4.81632e-30
      278.800   4.72949e-30
      278.900   4.64399e-30
      279.000   4.55999e-30
      279.100   4.47749e-30
      279.200   4.39641e-30
      279.300   4.31684e-30
      279.400   4.23861e-30
      279.500   4.16180e-30
      279.600   4.08637e-30
      279.700   4.01230e-30
      279.800   3.93955e-30
      279.900   3.86806e-30
      280.000   3.79786e-30
      280.100   3.72888e-30
      280.200   3.66117e-30
      280.300   3.59463e-30
      280.400   3.52931e-30
      280.500   3.46519e-30
      280.600   3.40218e-30
      280.700   3.34028e-30
      280.800   3.27951e-30
      280.900   3.21981e-30
      281.000   3.16117e-30
      281.100   3.10358e-30
      281.200   3.04703e-30
      281.300   2.99150e-30
      281.400   2.93699e-30
      281.500   2.88341e-30
      281.600   2.83078e-30
      281.700   2.77912e-30
      281.800   2.72840e-30
      281.900   2.67858e-30
      282.000   2.62966e-30
      282.100   2.58161e-30
      282.200   2.53445e-30
      282.300   2.48811e-30
      282.400   2.44262e-30
      282.500   2.39793e-30
      282.600   2.35405e-30
      282.700   2.31095e-30
      282.800   2.26865e-30
      282.900   2.22713e-30
      283.000   2.18634e-30
      283.100   2.14630e-30
      283.200   2.10701e-30
      283.300   2.06840e-30
      283.400   2.03050e-30
      283.500   1.99331e-30
      283.600   1.95677e-30
      283.700   1.92089e-30
      283.800   1.88566e-30
      283.900   1.85109e-30
      284.000   1.81713e-30
      284.100   1.78377e-30
      284.200   1.75102e-30
      284.300   1.71889e-30
      284.400   1.68734e-30
      284.500   1.65636e-30
      284.600   1.62595e-30
      284.700   1.59610e-30
      284.800   1.56679e-30
      284.900   1.53801e-30
      285.000   1.50974e-30
      285.100   1.48200e-30
      285.200   1.45477e-30
      285.300   1.42803e-30
      285.400   1.40178e-30
      285.500   1.37601e-30
      285.600   1.35074e-30
      285.700   1.32590e-30
      285.800   1.30154e-30
      285.900   1.27761e-30
      286.000   1.25413e-30
      286.100   1.23110e-30
      286.200   1.20848e-30
      286.300   1.18629e-30
      286.400   1.16450e-30
      286.500   1.14310e-30
      286.600   1.12209e-30
      286.700   1.10147e-30
      286.800   1.08125e-30
      286.900   1.06139e-30
      287.000   1.04189e-30
      287.100   1.02275e-30
      287.200   1.00397e-30
      287.300   9.85529e-31
      287.400   9.67429e-31
      287.500   9.49667e-31
      287.600   9.32239e-31
      287.700   9.15122e-31
      287.800   8.98328e-31
      287.900   8.81842e-31
      288.000   8.65666e-31
      288.100   8.49782e-31
      288.200   8.34208e-31
      288.300   8.18921e-31
      288.400   8.03918e-31
      288.500   7.89192e-31
      288.600   7.74730e-31
      288.700   7.60545e-31
      288.800   7.46616e-31
      288.900   7.32955e-31
      289.000   7.19543e-31
      289.100   7.06373e-31
      289.200   6.93448e-31
      289.300   6.80769e-31
      289.400   6.68320e-31
      289.500   6.56101e-31
      289.600   6.44108e-31
      289.700   6.32348e-31
      289.800   6.20793e-31
      289.900   6.09446e-31
      290.000   5.98328e-31
      290.100   5.87400e-31
      290.200   5.76695e-31
      290.300   5.66179e-31
      290.400   5.55859e-31
      290.500   5.45740e-31
      290.600   5.35798e-31
      290.700   5.26040e-31
      290.800   5.16470e-31
      290.900   5.07073e-31
      291.000   4.97843e-31
      291.100   4.88784e-31
      291.200   4.79897e-31
      291.300   4.71172e-31
      291.400   4.62612e-31
      291.500   4.54205e-31
      291.600   4.45953e-31
      291.700   4.37857e-31
      291.800   4.29906e-31
      291.900   4.22111e-31
      292.000   4.14466e-31
      292.100   4.06957e-31
      292.200   3.99587e-31
      292.300   3.92348e-31
      292.400   3.85244e-31
      292.500   3.78269e-31
      292.600   3.71423e-31
      292.700   3.64702e-31
      292.800   3.58105e-31
      292.900   3.51629e-31
      293.000   3.45273e-31
      293.100   3.39032e-31
      293.200   3.32905e-31
      293.300   3.26888e-31
      293.400   3.20989e-31
      293.500   3.15197e-31
      293.600   3.09513e-31
      293.700   3.03930e-31
      293.800   2.98452e-31
      293.900   2.93073e-31
      294.000   2.87790e-31
      294.100   2.82606e-31
      294.200   2.77518e-31
      294.300   2.72523e-31
      294.400   2.67615e-31
      294.500   2.62798e-31
      294.600   2.58066e-31
      294.700   2.53424e-31
      294.800   2.48864e-31
      294.900   2.44387e-31
      295.000   2.39997e-31
      295.100   2.35688e-31
      295.200   2.31456e-31
      295.300   2.27297e-31
      295.400   2.23216e-31
      295.500   2.19210e-31
      295.600   2.15274e-31
      295.700   2.11410e-31
      295.800   2.07616e-31
      295.900   2.03888e-31
      296.000   2.00231e-31
      296.100   1.96636e-31
      296.200   1.93109e-31
      296.300   1.89646e-31
      296.400   1.86251e-31
      296.500   1.82911e-31
      296.600   1.79635e-31
      296.700   1.76417e-31
      296.800   1.73256e-31
      296.900   1.70153e-31
      297.000   1.67104e-31
      297.100   1.64109e-31
      297.200   1.61169e-31
      297.300   1.58282e-31
      297.400   1.55447e-31
      297.500   1.52660e-31
      297.600   1.49928e-31
      297.700   1.47244e-31
      297.800   1.44609e-31
      297.900   1.42022e-31
      298.000   1.39481e-31
      298.100   1.36984e-31
      298.200   1.34532e-31
      298.300   1.32125e-31
      298.400   1.29759e-31
      298.500   1.27435e-31
      298.600   1.25153e-31
      298.700   1.22911e-31
      298.800   1.20709e-31
      298.900   1.18548e-31
      299.000   1.16428e-31
      299.100   1.14345e-31
      299.200   1.12297e-31
      299.300   1.10287e-31
      299.400   1.08312e-31
      299.500   1.06372e-31
      299.600   1.04467e-31
      299.700   1.02594e-31
      299.800   1.00755e-31
      299.900   9.89499e-32
      300.000   9.71759e-32
      300.100   9.54337e-32
      300.192   9.38596e-32
      300.285   9.22921e-32
      300.377   9.07692e-32
      300.470   8.92555e-32
      300.562   8.77819e-32
      300.654   8.63322e-32
      300.747   8.48908e-32
      300.839   8.34891e-32
      300.932   8.20939e-32
      301.025   8.07227e-32
      301.117   7.93895e-32
      301.210   7.80616e-32
      301.303   7.67580e-32
      301.395   7.54896e-32
      301.488   7.42266e-32
      301.581   7.29857e-32
      301.674   7.17651e-32
      301.766   7.05768e-32
      301.859   6.93957e-32
      301.952   6.82346e-32
      302.045   6.70925e-32
      302.138   6.60674e-32
      302.231   6.52787e-32
      302.324   6.45087e-32
      302.417   6.37487e-32
      302.510   6.29961e-32
      302.603   6.22536e-32
      302.696   6.15182e-32
      302.789   6.07913e-32
      302.882   6.00727e-32
      302.976   5.93561e-32
      303.069   5.86544e-32
      303.162   5.79605e-32
      303.255   5.72743e-32
      303.349   5.65891e-32
      303.442   5.59186e-32
      303.535   5.52561e-32
      303.629   5.45940e-32
      303.722   5.39469e-32
      303.816   5.33006e-32
      303.909   5.26677e-32
      304.003   5.20357e-32
      304.096   5.14178e-32
      304.190   5.08003e-32
      304.283   5.01962e-32
      304.377   4.95930e-32
      304.471   4.89962e-32
      304.564   4.84127e-32
      304.658   4.78307e-32
      304.752   4.72544e-32
      304.846   4.66851e-32
      304.939   4.61285e-32
      305.033   4.55722e-32
      305.127   4.50221e-32
      305.221   4.44787e-32
      305.315   4.39422e-32
      305.409   4.34108e-32
      305.503   4.28863e-32
      305.597   4.23682e-32
      305.691   4.18555e-32
      305.785   4.13493e-32
      305.879   4.08484e-32
      305.973   4.03536e-32
      306.067   3.98645e-32
      306.161   3.93812e-32
      306.255   3.89037e-32
      306.350   3.84266e-32
      306.444   3.79599e-32
      306.538   3.74991e-32
      306.633   3.70389e-32
      306.727   3.65887e-32
      306.821   3.61440e-32
      306.916   3.56996e-32
      307.010   3.52740e-32
      307.105   3.48771e-32
      307.199   3.44930e-32
      307.294   3.41089e-32
      307.388   3.37331e-32
      307.483   3.33575e-32
      307.577   3.29897e-32
      307.672   3.26219e-32
      307.767   3.22581e-32
      307.861   3.19019e-32
      307.956   3.15454e-32
      308.051   3.11930e-32
      308.146   3.08449e-32
      308.240   3.05035e-32
      308.335   3.01622e-32
      308.430   2.98245e-32
      308.525   2.94909e-32
      308.620   2.91608e-32
      308.715   2.88342e-32
      308.810   2.85114e-32
      308.905   2.81918e-32
      309.000   2.78754e-32
      309.095   2.75628e-32
      309.190   2.72538e-32
      309.285   2.69480e-32
      309.380   2.66456e-32
      309.476   2.63435e-32
      309.571   2.60475e-32
      309.666   2.57549e-32
      309.761   2.54656e-32
      309.857   2.51764e-32
      309.952   2.48931e-32
      310.047   2.46133e-32
      310.143   2.43336e-32
      310.238   2.40598e-32
      310.334   2.37862e-32
      310.429   2.35185e-32
      310.525   2.32508e-32
      310.620   2.29891e-32
      310.716   2.27275e-32
      310.811   2.24718e-32
      310.907   2.22160e-32
      311.003   2.19631e-32
      311.098   2.17155e-32
      311.194   2.14682e-32
      311.290   2.12241e-32
      311.386   2.09825e-32
      311.481   2.07460e-32
      311.577   2.05096e-32
      311.673   2.02761e-32
      311.769   2.00452e-32
      311.865   1.98168e-32
      311.961   1.95916e-32
      312.057   1.93714e-32
      312.153   1.91547e-32
      312.249   1.89403e-32
      312.345   1.87284e-32
      312.441   1.85188e-32
      312.537   1.83116e-32
      312.633   1.81068e-32
      312.730   1.79020e-32
      312.826   1.77018e-32
      312.922   1.75037e-32
      313.018   1.73079e-32
      313.115   1.71124e-32
      313.211   1.69209e-32
      313.307   1.67317e-32
      313.404   1.65428e-32
      313.500   1.63578e-32
      313.597   1.61732e-32
      313.693   1.59925e-32
      313.790   1.58120e-32
      313.886   1.56354e-32
      313.983   1.54588e-32
      314.079   1.52862e-32
      314.176   1.51138e-32
      314.273   1.49433e-32
      314.369   1.47768e-32
      314.466   1.46103e-32
      314.563   1.44457e-32
      314.660   1.42829e-32
      314.756   1.41237e-32
      314.853   1.39646e-32
      314.950   1.38074e-32
      315.047   1.36521e-32
      315.144   1.34986e-32
      315.241   1.33468e-32
      315.338   1.31968e-32
      315.435   1.30485e-32
      315.532   1.29019e-32
      315.629   1.27570e-32
      315.726   1.26138e-32
      315.823   1.24722e-32
      315.921   1.23308e-32
      316.018   1.21926e-32
      316.115   1.20560e-32
      316.212   1.19209e-32
      316.310   1.17860e-32
      316.407   1.16540e-32
      316.504   1.15235e-32
      316.602   1.13933e-32
      316.699   1.12659e-32
      316.796   1.11399e-32
      316.894   1.10142e-32
      316.991   1.08914e-32
      317.089   1.07702e-32
      317.187   1.06511e-32
      317.284   1.05347e-32
      317.382   1.04183e-32
      317.479   1.03044e-32
      317.577   1.01907e-32
      317.675   1.00782e-32
      317.773   9.96709e-33
      317.870   9.85842e-33
      317.968   9.74980e-33
      318.066   9.64239e-33
      318.164   9.53625e-33
      318.262   9.43132e-33
      318.360   9.32762e-33
      318.458   9.22515e-33
      318.556   9.12392e-33
      318.654   9.02376e-33
      318.752   8.92467e-33
      318.850   8.82682e-33
      318.948   8.73005e-33
      319.046   8.63439e-33
      319.144   8.53980e-33
      319.242   8.44631e-33
      319.341   8.35298e-33
      319.439   8.26163e-33
      319.537   8.17140e-33
      319.635   8.08213e-33
      319.734   7.99296e-33
      319.832   7.90576e-33
      319.930   7.81948e-33
      320.029   7.73333e-33
      320.127   7.64907e-33
      320.226   7.56494e-33
      320.324   7.48254e-33
      320.423   7.40021e-33
      320.522   7.31900e-33
      320.620   7.23944e-33
      320.719   7.15992e-33
      320.818   7.08139e-33
      320.916   7.00451e-33
      321.015   6.92773e-33
      321.114   6.85178e-33
      321.213   6.77673e-33
      321.311   6.70334e-33
      321.410   6.63002e-33
      321.509   6.55744e-33
      321.608   6.48576e-33
      321.707   6.41489e-33
      321.806   6.34482e-33
      321.905   6.27555e-33
      322.004   6.20707e-33
      322.103   6.13936e-33
      322.202   6.07235e-33
      322.301   6.00618e-33
      322.401   5.94011e-33
      322.500   5.87543e-33
      322.599   5.81148e-33
      322.698   5.74819e-33
      322.798   5.68502e-33
      322.897   5.62320e-33
      322.996   5.56208e-33
      323.096   5.50100e-33
      323.195   5.44123e-33
      323.294   5.38209e-33
      323.394   5.32305e-33
      323.493   5.26527e-33
      323.593   5.20762e-33
      323.692   5.15111e-33
      323.792   5.09467e-33
      323.892   5.03885e-33
      323.991   4.98420e-33
      324.091   4.92969e-33
      324.191   4.87577e-33
      324.291   4.82240e-33
      324.390   4.77020e-33
      324.490   4.71805e-33
      324.590   4.66645e-33
      324.690   4.61544e-33
      324.790   4.56500e-33
      324.890   4.51514e-33
      324.990   4.46584e-33
      325.090   4.41707e-33
      325.190   4.36881e-33
      325.290   4.32113e-33
      325.390   4.27392e-33
      325.490   4.22729e-33
      325.590   4.18118e-33
      325.690   4.13549e-33
      325.790   4.09034e-33
      325.891   4.04527e-33
      325.991   4.00113e-33
      326.091   3.95746e-33
      326.192   3.91385e-33
      326.292   3.87116e-33
      326.392   3.82894e-33
      326.493   3.78676e-33
      326.593   3.74544e-33
      326.694   3.70419e-33
      326.794   3.66376e-33
      326.895   3.62339e-33
      326.995   3.58386e-33
      327.096   3.54436e-33
      327.197   3.50530e-33
      327.297   3.46705e-33
      327.398   3.42885e-33
      327.499   3.39107e-33
      327.599   3.35405e-33
      327.700   3.31707e-33
      327.801   3.28048e-33
      327.902   3.24433e-33
      328.003   3.20854e-33
      328.104   3.17316e-33
      328.205   3.13817e-33
      328.306   3.10355e-33
      328.407   3.06931e-33
      328.508   3.03541e-33
      328.609   3.00188e-33
      328.710   2.96871e-33
      328.811   2.93591e-33
      328.912   2.90349e-33
      329.013   2.87138e-33
      329.115   2.83937e-33
      329.216   2.80798e-33
      329.317   2.77689e-33
      329.419   2.74589e-33
      329.520   2.71549e-33
      329.621   2.68539e-33
      329.723   2.65536e-33
      329.824   2.62596e-33
      329.926   2.59658e-33
      330.027   2.56779e-33
      330.129   2.53903e-33
      330.230   2.51087e-33
      330.332   2.48272e-33
      330.434   2.45488e-33
      330.535   2.42762e-33
      330.637   2.40037e-33
      330.739   2.37342e-33
      330.840   2.34701e-33
      330.942   2.32064e-33
      331.044   2.29456e-33
      331.146   2.26874e-33
      331.248   2.24322e-33
      331.350   2.21798e-33
      331.452   2.19302e-33
      331.554   2.16885e-33
      331.656   2.14572e-33
      331.758   2.12284e-33
      331.860   2.10017e-33
      331.962   2.07775e-33
      332.064   2.05556e-33
      332.166   2.03362e-33
      332.268   2.01186e-33
      332.371   1.99014e-33
      332.473   1.96883e-33
      332.575   1.94772e-33
      332.677   1.92685e-33
      332.780   1.90598e-33
      332.882   1.88554e-33
      332.985   1.86511e-33
      333.087   1.84507e-33
      333.190   1.82506e-33
      333.292   1.80519e-33
      333.395   1.78470e-33
      333.497   1.76439e-33
      333.600   1.74412e-33
      333.702   1.72427e-33
      333.805   1.70443e-33
      333.908   1.68480e-33
      334.011   1.66540e-33
      334.113   1.64639e-33
      334.216   1.62740e-33
      334.319   1.60863e-33
      334.422   1.59005e-33
      334.525   1.57168e-33
      334.628   1.55351e-33
      334.731   1.53555e-33
      334.834   1.51778e-33
      334.937   1.50021e-33
      335.040   1.48283e-33
      335.143   1.46565e-33
      335.246   1.44864e-33
      335.349   1.43182e-33
      335.452   1.41520e-33
      335.555   1.39875e-33
      335.659   1.38234e-33
      335.762   1.36627e-33
      335.865   1.35038e-33
      335.969   1.33451e-33
      336.072   1.31894e-33
      336.175   1.30357e-33
      336.279   1.28822e-33
      336.382   1.27319e-33
      336.486   1.25818e-33
      336.589   1.24347e-33
      336.693   1.22881e-33
      336.796   1.21444e-33
      336.900   1.20010e-33
      337.004   1.18590e-33
      337.107   1.17201e-33
      337.211   1.15815e-33
      337.315   1.14446e-33
      337.419   1.13090e-33
      337.523   1.11748e-33
      337.626   1.10436e-33
      337.730   1.09128e-33
      337.834   1.07832e-33
      337.938   1.06553e-33
      338.042   1.05291e-33
      338.146   1.04055e-33
      338.250   1.02836e-33
      338.354   1.01630e-33
      338.458   1.00437e-33
      338.562   9.92578e-34
      338.667   9.80808e-34
      338.771   9.69277e-34
      338.875   9.57885e-34
      338.979   9.46618e-34
      339.084   9.35386e-34
      339.188   9.24370e-34
      339.292   9.13500e-34
      339.397   9.02630e-34
      339.501   8.92004e-34
      339.606   8.81392e-34
      339.710   8.70999e-34
      339.815   8.60637e-34
      339.919   8.50491e-34
      340.024   8.40357e-34
      340.128   8.30444e-34
      340.233   8.20548e-34
      340.338   8.10776e-34
      340.442   8.01196e-34
      340.547   7.91645e-34
      340.652   7.82204e-34
      340.757   7.72867e-34
      340.862   7.63643e-34
      340.966   7.54620e-34
      341.071   7.45597e-34
      341.176   7.36693e-34
      341.281   7.27895e-34
      341.386   7.19211e-34
      341.491   7.10612e-34
      341.596   7.02133e-34
      341.702   6.93666e-34
      341.807   6.85367e-34
      341.912   6.77180e-34
      342.017   6.69093e-34
      342.122   6.61092e-34
      342.228   6.53110e-34
      342.333   6.45303e-34
      342.438   6.37589e-34
      342.544   6.29898e-34
      342.649   6.22360e-34
      342.754   6.14928e-34
      342.860   6.07500e-34
      342.965   6.00233e-34
      343.071   5.92995e-34
      343.176   5.85906e-34
      343.282   5.78832e-34
      343.388   5.71850e-34
      343.493   5.65050e-34
      343.599   5.58561e-34
      343.705   5.52191e-34
      343.810   5.45938e-34
      343.916   5.39702e-34
      344.022   5.33548e-34
      344.128   5.27454e-34
      344.234   5.21430e-34
      344.340   5.15484e-34
      344.446   5.09594e-34
      344.552   5.03778e-34
      344.658   4.98041e-34
      344.764   4.92360e-34
      344.870   4.86746e-34
      344.976   4.81196e-34
      345.082   4.75711e-34
      345.188   4.70295e-34
      345.294   4.64936e-34
      345.401   4.59590e-34
      345.507   4.54357e-34
      345.613   4.49186e-34
      345.719   4.44075e-34
      345.826   4.38977e-34
      345.932   4.33983e-34
      346.039   4.29005e-34
      346.145   4.24124e-34
      346.252   4.19262e-34
      346.358   4.14503e-34
      346.465   4.09749e-34
      346.571   4.05098e-34
      346.678   4.00458e-34
      346.785   3.95871e-34
      346.891   3.91382e-34
      346.998   3.86904e-34
      347.105   3.82485e-34
      347.212   3.78109e-34
      347.319   3.73790e-34
      347.425   3.69554e-34
      347.532   3.65335e-34
      347.639   3.61168e-34
      347.746   3.57044e-34
      347.853   3.52977e-34
      347.960   3.48949e-34
      348.067   3.44977e-34
      348.174   3.41054e-34
      348.281   3.37165e-34
      348.389   3.33298e-34
      348.496   3.29500e-34
      348.603   3.25759e-34
      348.710   3.22054e-34
      348.818   3.18368e-34
      348.925   3.14750e-34
      349.032   3.11182e-34
      349.140   3.07613e-34
      349.247   3.04120e-34
      349.355   3.00642e-34
      349.462   2.97233e-34
      349.570   2.93829e-34
      349.677   2.90502e-34
      349.785   2.87179e-34
      349.892   2.83931e-34
      350.000   2.80691e-34
      350.100   2.77723e-34
      350.193   2.74996e-34
      350.287   2.72265e-34
      350.380   2.69589e-34
      350.473   2.66945e-34
      350.567   2.64296e-34
      350.660   2.61704e-34
      350.754   2.59109e-34
      350.847   2.56575e-34
      350.941   2.54034e-34
      351.034   2.51545e-34
      351.128   2.49059e-34
      351.221   2.46623e-34
      351.315   2.44189e-34
      351.409   2.41774e-34
      351.502   2.39414e-34
      351.596   2.37050e-34
      351.690   2.34712e-34
      351.783   2.32423e-34
      351.877   2.30137e-34
      351.971   2.27867e-34
      352.065   2.25624e-34
      352.159   2.23406e-34
      352.252   2.21231e-34
      352.346   2.19055e-34
      352.440   2.16901e-34
      352.534   2.14774e-34
      352.628   2.12667e-34
      352.722   2.10579e-34
      352.816   2.08512e-34
      352.910   2.06469e-34
      353.004   2.04445e-34
      353.098   2.02442e-34
      353.192   2.00459e-34
      353.287   1.98477e-34
      353.381   1.96535e-34
      353.475   1.94615e-34
      353.569   1.92710e-34
      353.663   1.90826e-34
      353.758   1.88945e-34
      353.852   1.87102e-34
      353.946   1.85277e-34
      354.041   1.83449e-34
      354.135   1.81660e-34
      354.229   1.79889e-34
      354.324   1.78120e-34
      354.418   1.76383e-34
      354.513   1.74647e-34
      354.607   1.72951e-34
      354.702   1.71245e-34
      354.796   1.69562e-34
      354.891   1.67875e-34
      354.985   1.66225e-34
      355.080   1.64572e-34
      355.175   1.62939e-34
      355.269   1.61336e-34
      355.364   1.59734e-34
      355.459   1.58149e-34
      355.553   1.56597e-34
      355.648   1.55044e-34
      355.743   1.53507e-34
      355.838   1.51984e-34
      355.933   1.50480e-34
      356.027   1.49006e-34
      356.122   1.47529e-34
      356.217   1.46068e-34
      356.312   1.44624e-34
      356.407   1.43192e-34
      356.502   1.41776e-34
      356.597   1.40372e-34
      356.692   1.38986e-34
      356.787   1.37613e-34
      356.882   1.36252e-34
      356.977   1.34906e-34
      357.073   1.33561e-34
      357.168   1.32241e-34
      357.263   1.30935e-34
      357.358   1.29643e-34
      357.453   1.28364e-34
      357.549   1.27085e-34
      357.644   1.25831e-34
      357.739   1.24590e-34
      357.835   1.23349e-34
      357.930   1.22134e-34
      358.025   1.20929e-34
      358.121   1.19724e-34
      358.216   1.18544e-34
      358.312   1.17363e-34
      358.407   1.16208e-34
      358.503   1.15051e-34
      358.598   1.13919e-34
      358.694   1.12786e-34
      358.790   1.11663e-34
      358.885   1.10563e-34
      358.981   1.09464e-34
      359.076   1.08386e-34
      359.172   1.07309e-34
      359.268   1.06240e-34
      359.364   1.05183e-34
      359.459   1.04149e-34
      359.555   1.03114e-34
      359.651   1.02088e-34
      359.747   1.01073e-34
      359.843   1.00068e-34
      359.939   9.90725e-35
      360.035   9.80877e-35
      360.131   9.71123e-35
      360.227   9.61464e-35
      360.323   9.51908e-35
      360.419   9.42448e-35
      360.515   9.33081e-35
      360.611   9.23804e-35
      360.707   9.14609e-35
      360.803   9.05517e-35
      360.899   8.96504e-35
      360.995   8.87602e-35
      361.092   8.78684e-35
      361.188   8.69941e-35
      361.284   8.61290e-35
      361.380   8.52726e-35
      361.477   8.44152e-35
      361.573   8.35758e-35
      361.669   8.27441e-35
      361.766   8.19110e-35
      361.862   8.10961e-35
      361.959   8.02809e-35
      362.055   7.94801e-35
      362.152   7.86809e-35
      362.248   7.78966e-35
      362.345   7.71118e-35
      362.441   7.63442e-35
      362.538   7.55758e-35
      362.635   7.48148e-35
      362.731   7.40681e-35
      362.828   7.33208e-35
      362.925   7.25819e-35
      363.021   7.18581e-35
      363.118   7.11334e-35
      363.215   7.04150e-35
      363.312   6.97041e-35
      363.409   6.90010e-35
      363.505   6.83112e-35
      363.602   6.76209e-35
      363.699   6.69385e-35
      363.796   6.62616e-35
      363.893   6.55915e-35
      363.990   6.49281e-35
      364.087   6.42710e-35
      364.184   6.36208e-35
      364.281   6.29767e-35
      364.378   6.23396e-35
      364.475   6.17079e-35
      364.573   6.10755e-35
      364.670   6.04559e-35
      364.767   5.98432e-35
      364.864   5.92362e-35
      364.961   5.86346e-35
      365.059   5.80333e-35
      365.156   5.74440e-35
      365.253   5.68603e-35
      365.351   5.62761e-35
      365.448   5.57036e-35
      365.545   5.51372e-35
      365.643   5.45699e-35
      365.740   5.40139e-35
      365.838   5.34580e-35
      365.935   5.29132e-35
      366.033   5.23685e-35
      366.130   5.18339e-35
      366.228   5.12994e-35
      366.326   5.07704e-35
      366.423   5.02515e-35
      366.521   4.97324e-35
      366.618   4.92235e-35
      366.716   4.87143e-35
      366.814   4.82105e-35
      366.912   4.77118e-35
      367.010   4.72181e-35
      367.107   4.67340e-35
      367.205   4.62495e-35
      367.303   4.57697e-35
      367.401   4.52948e-35
      367.499   4.48246e-35
      367.597   4.43590e-35
      367.695   4.38977e-35
      367.793   4.34414e-35
      367.891   4.29899e-35
      367.989   4.25425e-35
      368.087   4.20995e-35
      368.185   4.16607e-35
      368.283   4.12264e-35
      368.381   4.07963e-35
      368.480   4.03661e-35
      368.578   3.99446e-35
      368.676   3.95274e-35
      368.774   3.91144e-35
      368.873   3.87014e-35
      368.971   3.82965e-35
      369.069   3.78958e-35
      369.168   3.74946e-35
      369.266   3.71013e-35
      369.364   3.67123e-35
      369.463   3.63236e-35
      369.561   3.59423e-35
      369.660   3.55610e-35
      369.758   3.51872e-35
      369.857   3.48137e-35
      369.955   3.44475e-35
      370.054   3.40811e-35
      370.153   3.37183e-35
      370.251   3.33630e-35
      370.350   3.30079e-35
      370.449   3.26565e-35
      370.547   3.23119e-35
      370.646   3.19669e-35
      370.745   3.16259e-35
      370.844   3.12882e-35
      370.943   3.09540e-35
      371.041   3.06266e-35
      371.140   3.02989e-35
      371.239   2.99746e-35
      371.338   2.96540e-35
      371.437   2.93364e-35
      371.536   2.90219e-35
      371.635   2.87107e-35
      371.734   2.84029e-35
      371.833   2.80982e-35
      371.932   2.77965e-35
      372.032   2.74949e-35
      372.131   2.71992e-35
      372.230   2.69069e-35
      372.329   2.66178e-35
      372.428   2.63314e-35
      372.528   2.60452e-35
      372.627   2.57650e-35
      372.726   2.54876e-35
      372.826   2.52104e-35
      372.925   2.49387e-35
      373.024   2.46697e-35
      373.124   2.44008e-35
      373.223   2.41375e-35
      373.323   2.38744e-35
      373.422   2.36165e-35
      373.522   2.33586e-35
      373.621   2.31062e-35
      373.721   2.28538e-35
      373.820   2.26065e-35
      373.920   2.23593e-35
      374.020   2.21146e-35
      374.119   2.18750e-35
      374.219   2.16354e-35
      374.319   2.13987e-35
      374.419   2.11643e-35
      374.518   2.09346e-35
      374.618   2.07051e-35
      374.718   2.04777e-35
      374.818   2.02531e-35
      374.918   2.00308e-35
      375.018   1.98108e-35
      375.118   1.95933e-35
      375.218   1.93780e-35
      375.318   1.91650e-35
      375.418   1.89542e-35
      375.518   1.87459e-35
      375.618   1.85397e-35
      375.718   1.83355e-35
      375.818   1.81336e-35
      375.918   1.79339e-35
      376.019   1.77345e-35
      376.119   1.75391e-35
      376.219   1.73458e-35
      376.319   1.71546e-35
      376.420   1.69635e-35
      376.520   1.67764e-35
      376.620   1.65914e-35
      376.721   1.64064e-35
      376.821   1.62253e-35
      376.922   1.60444e-35
      377.022   1.58671e-35
      377.122   1.56920e-35
      377.223   1.55170e-35
      377.323   1.53456e-35
      377.424   1.51743e-35
      377.525   1.50050e-35
      377.625   1.48390e-35
      377.726   1.46733e-35
      377.827   1.45095e-35
      377.927   1.43490e-35
      378.028   1.41888e-35
      378.129   1.40303e-35
      378.230   1.39072e-35
      378.330   1.38377e-35
      378.431   1.37765e-35
      378.532   1.37156e-35
      378.633   1.36548e-35
      378.734   1.35945e-35
      378.835   1.35343e-35
      378.936   1.34743e-35
      379.037   1.34145e-35
      379.138   1.33549e-35
      379.239   1.32956e-35
      379.340   1.32367e-35
      379.441   1.31780e-35
      379.542   1.31194e-35
      379.643   1.30611e-35
      379.745   1.30024e-35
      379.846   1.29446e-35
      379.947   1.28869e-35
      380.048   1.28295e-35
      380.150   1.27719e-35
      380.251   1.27150e-35
      380.352   1.26584e-35
      380.454   1.26015e-35
      380.555   1.25453e-35
      380.656   1.24893e-35
      380.758   1.24331e-35
      380.859   1.23776e-35
      380.961   1.23218e-35
      381.062   1.22669e-35
      381.164   1.22116e-35
      381.266   1.21566e-35
      381.367   1.21023e-35
      381.469   1.20479e-35
      381.570   1.19942e-35
      381.672   1.19400e-35
      381.774   1.18862e-35
      381.876   1.18327e-35
      381.977   1.17799e-35
      382.079   1.17268e-35
      382.181   1.16739e-35
      382.283   1.16214e-35
      382.385   1.15690e-35
      382.487   1.15170e-35
      382.589   1.14651e-35
      382.691   1.14134e-35
      382.793   1.13621e-35
      382.895   1.13110e-35
      382.997   1.12602e-35
      383.099   1.12095e-35
      383.201   1.11591e-35
      383.303   1.11090e-35
      383.405   1.10590e-35
      383.507   1.10092e-35
      383.610   1.09593e-35
      383.712   1.09101e-35
      383.814   1.08611e-35
      383.916   1.08125e-35
      384.019   1.07635e-35
      384.121   1.07153e-35
      384.223   1.06671e-35
      384.326   1.06229e-35
      384.428   1.05893e-35
      384.531   1.05585e-35
      384.633   1.05282e-35
      384.736   1.04976e-35
      384.838   1.04674e-35
      384.941   1.04370e-35
      385.043   1.04070e-35
      385.146   1.03770e-35
      385.249   1.03469e-35
      385.351   1.03172e-35
      385.454   1.02874e-35
      385.557   1.02577e-35
      385.660   1.02281e-35
      385.762   1.01989e-35
      385.865   1.01695e-35
      385.968   1.01402e-35
      386.071   1.01111e-35
      386.174   1.00820e-35
      386.277   1.00530e-35
      386.380   1.00241e-35
      386.483   9.99532e-36
      386.586   9.96684e-36
      386.689   9.93831e-36
      386.792   9.90986e-36
      386.895   9.88151e-36
      386.998   9.85335e-36
      387.101   9.82519e-36
      387.204   9.79708e-36
      387.308   9.76901e-36
      387.411   9.74127e-36
      387.514   9.71358e-36
      387.617   9.68596e-36
      387.721   9.65822e-36
      387.824   9.63091e-36
      387.927   9.60364e-36
      388.031   9.57621e-36
      388.134   9.54912e-36
      388.238   9.52196e-36
      388.341   9.49510e-36
      388.445   9.46817e-36
      388.548   9.44146e-36
      388.652   9.41481e-36
      388.755   9.38840e-36
      388.859   9.36176e-36
      388.962   9.33551e-36
      389.066   9.30911e-36
      389.170   9.28285e-36
      389.274   9.25676e-36
      389.377   9.23106e-36
      389.481   9.20504e-36
      389.585   9.17917e-36
      389.689   9.15337e-36
      389.793   9.12776e-36
      389.897   9.10217e-36
      390.000   9.07704e-36
      390.104   9.05171e-36
      390.208   9.02641e-36
      390.312   9.00124e-36
      390.416   8.97610e-36
      390.520   8.95096e-36
      390.625   8.92576e-36
      390.729   8.90078e-36
      390.833   8.87595e-36
      390.937   8.85123e-36
      391.041   8.82661e-36
      391.145   8.80194e-36
      391.250   8.77730e-36
      391.354   8.75289e-36
      391.458   8.72857e-36
      391.563   8.70415e-36
      391.667   8.68008e-36
      391.771   8.65612e-36
      391.876   8.63202e-36
      391.980   8.60815e-36
      392.085   8.58419e-36
      392.189   8.56060e-36
      392.294   8.53685e-36
      392.398   8.51340e-36
      392.503   8.48982e-36
      392.607   8.46648e-36
      392.712   8.44317e-36
      392.817   8.41974e-36
      392.921   8.39684e-36
      393.026   8.37363e-36
      393.131   8.35059e-36
      393.236   8.32754e-36
      393.340   8.30497e-36
      393.445   8.28223e-36
      393.550   8.25944e-36
      393.655   8.23684e-36
      393.760   8.21428e-36
      393.865   8.19190e-36
      393.970   8.16946e-36
      394.075   8.14715e-36
      394.180   8.12503e-36
      394.285   8.10294e-36
      394.390   8.08080e-36
      394.495   8.05881e-36
      394.600   8.03695e-36
      394.706   8.01490e-36
      394.811   7.99324e-36
      394.916   7.97144e-36
      395.021   7.94986e-36
      395.126   7.92836e-36
      395.232   7.90670e-36
      395.337   7.88524e-36
      395.443   7.86379e-36
      395.548   7.84250e-36
      395.653   7.82126e-36
      395.759   7.80004e-36
      395.864   7.77906e-36
      395.970   7.75791e-36
      396.075   7.73702e-36
      396.181   7.71600e-36
      396.286   7.69514e-36
      396.392   7.67432e-36
      396.498   7.65356e-36
      396.603   7.63290e-36
      396.709   7.61216e-36
      396.815   7.59140e-36
      396.921   7.57083e-36
      397.026   7.55050e-36
      397.132   7.53012e-36
      397.238   7.50973e-36
      397.344   7.48939e-36
      397.450   7.46917e-36
      397.556   7.44892e-36
      397.662   7.42873e-36
      397.768   7.40863e-36
      397.874   7.38873e-36
      397.980   7.36860e-36
      398.086   7.34877e-36
      398.192   7.32880e-36
      398.298   7.30893e-36
      398.404   7.28931e-36
      398.510   7.26955e-36
      398.617   7.24965e-36
      398.723   7.23003e-36
      398.829   7.21047e-36
      398.935   7.19088e-36
      399.042   7.17134e-36
      399.148   7.15184e-36
      399.255   7.13226e-36
      399.361   7.11291e-36
      399.467   7.09358e-36
      399.574   7.07424e-36
      399.680   7.05496e-36
      399.787   7.03552e-36
      399.893       0.00000
      400.000       0.00000
