Filter Al-med
observation_date 07Jan2024
wavelength effective area
      1.00000   2.66384e-10
      1.10000   7.49520e-10
      1.20000   1.91512e-09
      1.30000   4.48757e-09
      1.40000   9.94626e-09
      1.50000   2.06559e-08
      1.60000   4.05592e-08
      1.70000   7.60781e-08
      1.80000   1.36309e-07
      1.90000   2.34785e-07
      2.00000   3.89492e-07
      2.10000   6.24924e-07
      2.20000   9.74139e-07
      2.30000   1.47323e-06
      2.40000   2.16519e-06
      2.50000   3.08189e-06
      2.60000   4.35690e-06
      2.70000   5.98484e-06
      2.80000   8.02173e-06
      2.90000   1.05751e-05
      3.00000   1.36483e-05
      3.10000   1.72866e-05
      3.20000   2.15247e-05
      3.30000   2.63661e-05
      3.40000   3.17665e-05
      3.50000   3.76753e-05
      3.60000   4.41608e-05
      3.70000   5.09279e-05
      3.80000   5.80711e-05
      3.90000   6.54189e-05
      4.00000   7.27751e-05
      4.10000   8.00477e-05
      4.20000   8.71409e-05
      4.30000   9.39375e-05
      4.40000   0.000100307
      4.50000   0.000106100
      4.60000   0.000111136
      4.70000   0.000115578
      4.80000   0.000119173
      4.90000   0.000120639
      5.00000   0.000124244
      5.10000   0.000125539
      5.20000   0.000126112
      5.30000   0.000124986
      5.40000   0.000122665
      5.50000   0.000119834
      5.60000   0.000112788
      5.70000   0.000111118
      5.80000   9.77231e-05
      5.90000   0.000111502
      6.00000   0.000111370
      6.10000   0.000105114
      6.20000   9.55089e-05
      6.30000   8.25122e-05
      6.40000   6.78037e-05
      6.50000   5.31110e-05
      6.60000   3.94261e-05
      6.70000   2.87212e-05
      6.80000   2.03244e-05
      6.90000   1.86782e-05
      7.00000   1.41712e-05
      7.10000   1.03902e-05
      7.20000   7.47508e-06
      7.30000   5.32994e-06
      7.40000   3.77349e-06
      7.50000   2.62834e-06
      7.60000   1.79850e-06
      7.70000   1.22634e-06
      7.80000   8.18002e-07
      7.90000   5.40427e-07
      8.00000      0.298262
      8.10000      0.314512
      8.20000      0.307476
      8.30000      0.298972
      8.40000      0.289913
      8.50000      0.280578
      8.60000      0.270927
      8.70000      0.261114
      8.80000      0.251112
      8.90000      0.241026
      9.00000      0.230910
      9.10000      0.220810
      9.20000      0.210767
      9.30000      0.200862
      9.40000      0.191090
      9.50000      0.181477
      9.60000      0.172106
      9.70000      0.162946
      9.80000      0.153984
      9.90000      0.145278
      10.0000      0.136829
      10.1000      0.128638
      10.2000      0.120717
      10.3000      0.113123
      10.4000      0.105862
      10.5000     0.0989072
      10.6000     0.0922626
      10.7000     0.0859277
      10.8000     0.0799145
      10.9000     0.0742333
      11.0000     0.0688487
      11.1000     0.0637565
      11.2000     0.0589492
      11.3000     0.0544214
      11.4000     0.0501638
      11.5000     0.0461667
      11.6000     0.0424219
      11.7000     0.0389333
      11.8000     0.0356811
      11.9000     0.0326779
      12.0000     0.0298674
      12.1000     0.0273723
      12.2000     0.0255102
      12.3000     0.0234684
      12.4000     0.0213862
      12.5000     0.0194456
      12.6000     0.0176488
      12.7000     0.0159906
      12.8000     0.0144652
      12.9000     0.0130657
      13.0000     0.0117839
      13.1000     0.0106118
      13.2000    0.00954188
      13.3000    0.00856671
      13.4000    0.00767959
      13.5000    0.00687598
      13.6000    0.00615426
      13.7000    0.00550039
      13.8000    0.00490870
      13.9000    0.00437415
      14.0000    0.00389180
      14.1000    0.00345701
      14.2000    0.00306559
      14.3000    0.00271378
      14.4000    0.00239806
      14.5000    0.00211709
      14.6000    0.00186863
      14.7000    0.00164636
      14.8000    0.00144775
      14.9000    0.00127051
      15.0000    0.00111259
      15.1000   0.000972131
      15.2000   0.000850318
      15.3000   0.000742650
      15.4000   0.000647113
      15.5000   0.000562487
      15.6000   0.000487688
      15.7000   0.000422769
      15.8000   0.000366786
      15.9000   0.000317422
      16.0000   0.000273983
      16.1000   0.000235850
      16.2000   0.000203575
      16.3000   0.000175522
      16.4000   0.000150839
      16.5000   0.000129179
      16.6000   0.000110668
      16.7000   9.49286e-05
      16.8000   8.10980e-05
      16.9000   6.89900e-05
      17.0000   5.87499e-05
      17.1000   5.00867e-05
      17.2000   4.24921e-05
      17.3000   3.58723e-05
      17.4000   3.04963e-05
      17.5000   2.59129e-05
      17.6000   2.19394e-05
      17.7000   1.85856e-05
      17.8000   1.58838e-05
      17.9000   1.35005e-05
      18.0000   1.14011e-05
      18.1000   9.69311e-06
      18.2000   8.18446e-06
      18.3000   6.84612e-06
      18.4000   5.73105e-06
      18.5000   4.77467e-06
      18.6000   3.92998e-06
      18.7000   3.22961e-06
      18.8000   2.65348e-06
      18.9000   2.15551e-06
      19.0000   1.76093e-06
      19.1000   1.43913e-06
      19.2000   1.16226e-06
      19.3000   9.49221e-07
      19.4000   7.73253e-07
      19.5000   6.22122e-07
      19.6000   5.10004e-07
      19.7000   4.14220e-07
      19.8000   3.32906e-07
      19.9000   2.73179e-07
      20.0000   2.20545e-07
      20.1000   1.78107e-07
      20.2000   1.44775e-07
      20.3000   1.15624e-07
      20.4000   9.37885e-08
      20.5000   7.53263e-08
      20.6000   5.98676e-08
      20.7000   4.84547e-08
      20.8000   3.83572e-08
      20.9000   3.07491e-08
      21.0000   2.44872e-08
      21.1000   1.92362e-08
      21.2000   1.54455e-08
      21.3000   1.20738e-08
      21.4000   9.61857e-09
      21.5000   7.56195e-09
      21.6000   5.90826e-09
      21.7000   4.68000e-09
      21.8000   3.59442e-09
      21.9000   2.86354e-09
      22.0000   2.20882e-09
      22.1000   1.72892e-09
      22.2000   1.33790e-09
      22.3000   1.02406e-09
      22.4000   7.85840e-10
      22.5000   5.72435e-10
      22.6000   4.10654e-10
      22.7000   2.76754e-10
      22.8000   2.66772e-10
      22.9000   2.65169e-10
      23.0000   2.68656e-10
      23.1000   2.49711e-10
      23.2000   2.09644e-10
      23.3000   1.70698e-10
      23.4000   1.32323e-10
      23.5000   1.04859e-10
      23.6000   8.01323e-11
      23.7000   6.35982e-11
      23.8000   4.79870e-11
      23.9000   3.80836e-11
      24.0000   2.87058e-11
      24.1000   2.25932e-11
      24.2000   1.69952e-11
      24.3000   1.32881e-11
      24.4000   9.98892e-12
      24.5000   7.76884e-12
      24.6000   5.83686e-12
      24.7000   4.51862e-12
      24.8000   3.39182e-12
      24.9000   2.62143e-12
      25.0000   1.96720e-12
      25.1000   1.51598e-12
      25.2000   1.13393e-12
      25.3000   8.73317e-13
      25.4000   6.50960e-13
      25.5000   5.00844e-13
      25.6000   3.71017e-13
      25.7000   2.85570e-13
      25.8000   2.10006e-13
      25.9000   1.61836e-13
      26.0000   1.17943e-13
      26.1000   9.11025e-14
      26.2000   6.57049e-14
      26.3000   5.09228e-14
      26.4000   3.62930e-14
      26.5000   2.82480e-14
      26.6000   2.02498e-14
      26.7000   1.55425e-14
      26.8000   1.12464e-14
      26.9000   8.47988e-15
      27.0000   6.20036e-15
      27.1000   4.58357e-15
      27.2000   3.38863e-15
      27.3000   2.45508e-15
      27.4000   1.84511e-15
      27.5000   1.31301e-15
      27.6000   9.96259e-16
      27.7000   6.90036e-16
      27.8000   5.29831e-16
      27.9000   3.70559e-16
      28.0000   2.78283e-16
      28.1000   1.99400e-16
      28.2000   1.44961e-16
      28.3000   1.06847e-16
      28.4000   7.55189e-17
      28.5000   5.68810e-17
      28.6000   3.90306e-17
      28.7000   3.02805e-17
      28.8000   2.15826e-17
      28.9000   1.62633e-17
      29.0000   1.19232e-17
      29.1000   8.61883e-18
      29.2000   6.48087e-18
      29.3000   4.50511e-18
      29.4000   3.46538e-18
      29.5000   2.43199e-18
      29.6000   1.82254e-18
      29.7000   1.32665e-18
      29.8000   9.42673e-19
      29.9000   7.07916e-19
      30.0000   4.79465e-19
      30.1000   3.69838e-19
      30.2000   2.60884e-19
      30.3000   1.91027e-19
      30.4000   1.43589e-19
      30.5000   1.01246e-19
      30.6000   7.69980e-20
      30.7000   5.28996e-20
      30.8000   3.90022e-20
      30.9000   2.82089e-20
      31.0000   1.92937e-20
      31.1000   1.45303e-20
      31.2000   9.79662e-21
      31.3000   7.25975e-21
      31.4000   5.20195e-21
      31.5000   3.52826e-21
      31.6000   2.64727e-21
      31.7000   1.77185e-21
      31.8000   1.29990e-21
      31.9000   9.30872e-22
      32.0000   6.18513e-22
      32.1000   4.65376e-22
      32.2000   3.13211e-22
      32.3000   2.23442e-22
      32.4000   1.61333e-22
      32.5000   1.03633e-22
      32.6000   7.87065e-23
      32.7000   5.39383e-23
      32.8000   3.67785e-23
      32.9000   2.69913e-23
      33.0000   1.72666e-23
      33.1000   1.27642e-23
      33.2000   8.98849e-24
      33.3000   5.77418e-24
      33.4000   4.33151e-24
      33.5000   2.89775e-24
      33.6000   1.97308e-24
      33.7000   1.43485e-24
      33.8000   8.99889e-25
      33.9000   6.60721e-25
      34.0000   4.63426e-25
      34.1000   2.88036e-25
      34.2000   2.15614e-25
      34.3000   1.43613e-25
      34.4000   9.22828e-26
      34.5000   6.73680e-26
      34.6000   4.26000e-26
      34.7000   2.87559e-26
      34.8000   2.00026e-26
      34.9000   1.13005e-26
      35.0000   8.07708e-27
      35.1000   5.43330e-27
      35.2000   3.00303e-27
      35.3000   2.21910e-27
      35.4000   1.43977e-27
      35.5000   8.22141e-28
      35.6000   5.96685e-28
      35.7000   3.72558e-28
      35.8000   2.20334e-28
      35.9000   1.57113e-28
      36.0000   9.42665e-29
      36.1000   5.78219e-29
      36.2000   4.05438e-29
      36.3000   2.33683e-29
      36.4000   1.48613e-29
      36.5000   1.02610e-29
      36.6000   5.68846e-30
      36.7000   3.74048e-30
      36.8000   2.54863e-30
      36.9000   1.36399e-30
      37.0000   9.22331e-31
      37.1000   6.21885e-31
      37.2000   3.23242e-31
      37.3000   2.22814e-31
      37.4000   1.49153e-31
      37.5000   7.59418e-32
      37.6000   5.27242e-32
      37.7000   3.51743e-32
      37.8000   1.77317e-32
      37.9000   1.22181e-32
      38.0000   8.15576e-33
      38.1000   4.11814e-33
      38.2000   2.77095e-33
      38.3000   1.85796e-33
      38.4000   9.50555e-34
      38.5000   6.14407e-34
      38.6000   4.15390e-34
      38.7000   2.17594e-34
      38.8000   1.33095e-34
      38.9000   9.10308e-35
      39.0000   4.92241e-35
      39.1000   2.81360e-35
      39.2000   1.95207e-35
      39.3000   1.09584e-35
      39.4000   5.79693e-36
      39.5000   4.08813e-36
      39.6000   2.38997e-36
      39.7000   1.16247e-36
      39.8000   8.34493e-37
      39.9000   5.08541e-37
      40.0000   2.26581e-37
      40.1000   1.65697e-37
      40.2000   1.05190e-37
      40.3000   4.50652e-38
      40.4000   3.19414e-38
      40.5000   2.10859e-38
      40.6000   1.02974e-38
      40.7000   5.96652e-39
      40.8000   4.08517e-39
      40.9000   2.21570e-39
      41.0000   1.07780e-39
      41.1000   7.63244e-40
      41.2000   4.50687e-40
      41.3000   1.88036e-40
      41.4000   1.37326e-40
      41.5000   8.69281e-41
      41.6000   3.68471e-41
      41.7000   2.37646e-41
      41.8000   1.59328e-41
      41.9000   8.14715e-42
      42.0000   3.95166e-42
      42.1000   2.78018e-42
      42.2000   1.61289e-42
      42.3000   6.29183e-43
      42.4000   4.59626e-43
      42.5000   2.94273e-43
      42.6000   1.27518e-43
      42.7000   7.28675e-44
      42.8000   4.76441e-44
      42.9000   2.52234e-44
      43.0000   1.26117e-44
      43.1000   9.80909e-45
      43.2000   2.80260e-45
      43.3000       0.00000
      43.4000   2.80260e-45
      43.5000   2.80260e-45
      43.6000   2.80260e-45
      43.7000       0.00000
      43.8000       0.00000
      43.9000       0.00000
      44.0000       0.00000
      44.1000       0.00000
      44.2000       0.00000
      44.3000       0.00000
      44.4000       0.00000
      44.5000       0.00000
      44.6000       0.00000
      44.7000       0.00000
      44.8000       0.00000
      44.9000       0.00000
      45.0000       0.00000
      45.1000       0.00000
      45.2000       0.00000
      45.3000       0.00000
      45.4000       0.00000
      45.5000       0.00000
      45.6000       0.00000
      45.7000       0.00000
      45.8000       0.00000
      45.9000       0.00000
      46.0000       0.00000
      46.1000       0.00000
      46.2000       0.00000
      46.3000       0.00000
      46.4000       0.00000
      46.5000       0.00000
      46.6000       0.00000
      46.7000       0.00000
      46.8000       0.00000
      46.9000       0.00000
      47.0000       0.00000
      47.1000       0.00000
      47.2000       0.00000
      47.3000       0.00000
      47.4000       0.00000
      47.5000       0.00000
      47.6000       0.00000
      47.7000       0.00000
      47.8000       0.00000
      47.9000       0.00000
      48.0000       0.00000
      48.1000       0.00000
      48.2000       0.00000
      48.3000       0.00000
      48.4000       0.00000
      48.5000       0.00000
      48.6000       0.00000
      48.7000       0.00000
      48.8000       0.00000
      48.9000       0.00000
      49.0000       0.00000
      49.1000       0.00000
      49.2000       0.00000
      49.3000       0.00000
      49.4000       0.00000
      49.5000       0.00000
      49.6000       0.00000
      49.7000       0.00000
      49.8000       0.00000
      49.9000       0.00000
      50.0000       0.00000
      50.1000       0.00000
      50.2000       0.00000
      50.3000       0.00000
      50.4000       0.00000
      50.5000       0.00000
      50.6000       0.00000
      50.7000       0.00000
      50.8000       0.00000
      50.9000       0.00000
      51.0000       0.00000
      51.1000       0.00000
      51.2000       0.00000
      51.3000       0.00000
      51.4000       0.00000
      51.5000       0.00000
      51.6000       0.00000
      51.7000       0.00000
      51.8000       0.00000
      51.9000       0.00000
      52.0000       0.00000
      52.1000       0.00000
      52.2000       0.00000
      52.3000       0.00000
      52.4000       0.00000
      52.5000       0.00000
      52.6000       0.00000
      52.7000       0.00000
      52.8000       0.00000
      52.9000       0.00000
      53.0000       0.00000
      53.1000       0.00000
      53.2000       0.00000
      53.3000       0.00000
      53.4000       0.00000
      53.5000       0.00000
      53.6000       0.00000
      53.7000       0.00000
      53.8000       0.00000
      53.9000       0.00000
      54.0000       0.00000
      54.1000       0.00000
      54.2000       0.00000
      54.3000       0.00000
      54.4000       0.00000
      54.5000       0.00000
      54.6000       0.00000
      54.7000       0.00000
      54.8000       0.00000
      54.9000       0.00000
      55.0000       0.00000
      55.1000       0.00000
      55.2000       0.00000
      55.3000       0.00000
      55.4000       0.00000
      55.5000       0.00000
      55.6000       0.00000
      55.7000       0.00000
      55.8000       0.00000
      55.9000       0.00000
      56.0000       0.00000
      56.1000       0.00000
      56.2000       0.00000
      56.3000       0.00000
      56.4000       0.00000
      56.5000       0.00000
      56.6000       0.00000
      56.7000       0.00000
      56.8000       0.00000
      56.9000       0.00000
      57.0000       0.00000
      57.1000       0.00000
      57.2000       0.00000
      57.3000       0.00000
      57.4000       0.00000
      57.5000       0.00000
      57.6000       0.00000
      57.7000       0.00000
      57.8000       0.00000
      57.9000       0.00000
      58.0000       0.00000
      58.1000       0.00000
      58.2000       0.00000
      58.3000       0.00000
      58.4000       0.00000
      58.5000       0.00000
      58.6000       0.00000
      58.7000       0.00000
      58.8000       0.00000
      58.9000       0.00000
      59.0000       0.00000
      59.1000       0.00000
      59.2000       0.00000
      59.3000       0.00000
      59.4000       0.00000
      59.5000       0.00000
      59.6000       0.00000
      59.7000       0.00000
      59.8000       0.00000
      59.9000       0.00000
      60.0000       0.00000
      60.1000       0.00000
      60.2000       0.00000
      60.3000       0.00000
      60.4000       0.00000
      60.5000       0.00000
      60.6000       0.00000
      60.7000       0.00000
      60.8000       0.00000
      60.9000       0.00000
      61.0000       0.00000
      61.1000       0.00000
      61.2000       0.00000
      61.3000       0.00000
      61.4000       0.00000
      61.5000       0.00000
      61.6000       0.00000
      61.7000       0.00000
      61.8000       0.00000
      61.9000       0.00000
      62.0000       0.00000
      62.1000       0.00000
      62.2000       0.00000
      62.3000       0.00000
      62.4000       0.00000
      62.5000       0.00000
      62.6000       0.00000
      62.7000       0.00000
      62.8000       0.00000
      62.9000       0.00000
      63.0000       0.00000
      63.1000       0.00000
      63.2000       0.00000
      63.3000       0.00000
      63.4000       0.00000
      63.5000       0.00000
      63.6000       0.00000
      63.7000       0.00000
      63.8000       0.00000
      63.9000       0.00000
      64.0000       0.00000
      64.1000       0.00000
      64.2000       0.00000
      64.3000       0.00000
      64.4000       0.00000
      64.5000       0.00000
      64.6000       0.00000
      64.7000       0.00000
      64.8000       0.00000
      64.9000       0.00000
      65.0000       0.00000
      65.1000       0.00000
      65.2000       0.00000
      65.3000       0.00000
      65.4000       0.00000
      65.5000       0.00000
      65.6000       0.00000
      65.7000       0.00000
      65.8000       0.00000
      65.9000       0.00000
      66.0000       0.00000
      66.1000       0.00000
      66.2000       0.00000
      66.3000       0.00000
      66.4000       0.00000
      66.5000       0.00000
      66.6000       0.00000
      66.7000       0.00000
      66.8000       0.00000
      66.9000       0.00000
      67.0000       0.00000
      67.1000       0.00000
      67.2000       0.00000
      67.3000       0.00000
      67.4000       0.00000
      67.5000       0.00000
      67.6000       0.00000
      67.7000       0.00000
      67.8000       0.00000
      67.9000       0.00000
      68.0000       0.00000
      68.1000       0.00000
      68.2000       0.00000
      68.3000       0.00000
      68.4000       0.00000
      68.5000       0.00000
      68.6000       0.00000
      68.7000       0.00000
      68.8000       0.00000
      68.9000       0.00000
      69.0000       0.00000
      69.1000       0.00000
      69.2000       0.00000
      69.3000       0.00000
      69.4000       0.00000
      69.5000       0.00000
      69.6000       0.00000
      69.7000       0.00000
      69.8000       0.00000
      69.9000       0.00000
      70.0000       0.00000
      70.1000       0.00000
      70.2000       0.00000
      70.3000       0.00000
      70.4000       0.00000
      70.5000       0.00000
      70.6000       0.00000
      70.7000       0.00000
      70.8000       0.00000
      70.9000       0.00000
      71.0000       0.00000
      71.1000       0.00000
      71.2000       0.00000
      71.3000       0.00000
      71.4000       0.00000
      71.5000       0.00000
      71.6000       0.00000
      71.7000       0.00000
      71.8000       0.00000
      71.9000       0.00000
      72.0000       0.00000
      72.1000       0.00000
      72.2000       0.00000
      72.3000       0.00000
      72.4000       0.00000
      72.5000       0.00000
      72.6000       0.00000
      72.7000       0.00000
      72.8000       0.00000
      72.9000       0.00000
      73.0000       0.00000
      73.1000       0.00000
      73.2000       0.00000
      73.3000       0.00000
      73.4000       0.00000
      73.5000       0.00000
      73.6000       0.00000
      73.7000       0.00000
      73.8000       0.00000
      73.9000       0.00000
      74.0000       0.00000
      74.1000       0.00000
      74.2000       0.00000
      74.3000       0.00000
      74.4000       0.00000
      74.5000       0.00000
      74.6000       0.00000
      74.7000       0.00000
      74.8000       0.00000
      74.9000       0.00000
      75.0000       0.00000
      75.1000       0.00000
      75.2000       0.00000
      75.3000       0.00000
      75.4000       0.00000
      75.5000       0.00000
      75.6000       0.00000
      75.7000       0.00000
      75.8000       0.00000
      75.9000       0.00000
      76.0000       0.00000
      76.1000       0.00000
      76.2000       0.00000
      76.3000       0.00000
      76.4000       0.00000
      76.5000       0.00000
      76.6000       0.00000
      76.7000       0.00000
      76.8000       0.00000
      76.9000       0.00000
      77.0000       0.00000
      77.1000       0.00000
      77.2000       0.00000
      77.3000       0.00000
      77.4000       0.00000
      77.5000       0.00000
      77.6000       0.00000
      77.7000       0.00000
      77.8000       0.00000
      77.9000       0.00000
      78.0000       0.00000
      78.1000       0.00000
      78.2000       0.00000
      78.3000       0.00000
      78.4000       0.00000
      78.5000       0.00000
      78.6000       0.00000
      78.7000       0.00000
      78.8000       0.00000
      78.9000       0.00000
      79.0000       0.00000
      79.1000       0.00000
      79.2000       0.00000
      79.3000       0.00000
      79.4000       0.00000
      79.5000       0.00000
      79.6000       0.00000
      79.7000       0.00000
      79.8000       0.00000
      79.9000       0.00000
      80.0000       0.00000
      80.1000       0.00000
      80.2000       0.00000
      80.3000       0.00000
      80.4000       0.00000
      80.5000       0.00000
      80.6000       0.00000
      80.7000       0.00000
      80.8000       0.00000
      80.9000       0.00000
      81.0000       0.00000
      81.1000       0.00000
      81.2000       0.00000
      81.3000       0.00000
      81.4000       0.00000
      81.5000       0.00000
      81.6000       0.00000
      81.7000       0.00000
      81.8000       0.00000
      81.9000       0.00000
      82.0000       0.00000
      82.1000       0.00000
      82.2000       0.00000
      82.3000       0.00000
      82.4000       0.00000
      82.5000       0.00000
      82.6000       0.00000
      82.7000       0.00000
      82.8000       0.00000
      82.9000       0.00000
      83.0000       0.00000
      83.1000       0.00000
      83.2000       0.00000
      83.3000       0.00000
      83.4000       0.00000
      83.5000       0.00000
      83.6000       0.00000
      83.7000       0.00000
      83.8000       0.00000
      83.9000       0.00000
      84.0000       0.00000
      84.1000       0.00000
      84.2000       0.00000
      84.3000       0.00000
      84.4000       0.00000
      84.5000       0.00000
      84.6000       0.00000
      84.7000       0.00000
      84.8000       0.00000
      84.9000       0.00000
      85.0000       0.00000
      85.1000       0.00000
      85.2000       0.00000
      85.3000       0.00000
      85.4000       0.00000
      85.5000       0.00000
      85.6000       0.00000
      85.7000       0.00000
      85.8000       0.00000
      85.9000       0.00000
      86.0000       0.00000
      86.1000       0.00000
      86.2000       0.00000
      86.3000       0.00000
      86.4000       0.00000
      86.5000       0.00000
      86.6000       0.00000
      86.7000       0.00000
      86.8000       0.00000
      86.9000       0.00000
      87.0000       0.00000
      87.1000       0.00000
      87.2000       0.00000
      87.3000       0.00000
      87.4000       0.00000
      87.5000       0.00000
      87.6000       0.00000
      87.7000       0.00000
      87.8000       0.00000
      87.9000       0.00000
      88.0000       0.00000
      88.1000       0.00000
      88.2000       0.00000
      88.3000       0.00000
      88.4000       0.00000
      88.5000       0.00000
      88.6000       0.00000
      88.7000       0.00000
      88.8000       0.00000
      88.9000       0.00000
      89.0000       0.00000
      89.1000       0.00000
      89.2000       0.00000
      89.3000       0.00000
      89.4000       0.00000
      89.5000       0.00000
      89.6000       0.00000
      89.7000       0.00000
      89.8000       0.00000
      89.9000       0.00000
      90.0000       0.00000
      90.1000       0.00000
      90.2000       0.00000
      90.3000       0.00000
      90.4000       0.00000
      90.5000       0.00000
      90.6000       0.00000
      90.7000       0.00000
      90.8000       0.00000
      90.9000       0.00000
      91.0000       0.00000
      91.1000       0.00000
      91.2000       0.00000
      91.3000       0.00000
      91.4000       0.00000
      91.5000       0.00000
      91.6000       0.00000
      91.7000       0.00000
      91.8000       0.00000
      91.9000       0.00000
      92.0000       0.00000
      92.1000       0.00000
      92.2000       0.00000
      92.3000       0.00000
      92.4000       0.00000
      92.5000       0.00000
      92.6000       0.00000
      92.7000       0.00000
      92.8000       0.00000
      92.9000       0.00000
      93.0000       0.00000
      93.1000       0.00000
      93.2000       0.00000
      93.3000       0.00000
      93.4000       0.00000
      93.5000       0.00000
      93.6000       0.00000
      93.7000       0.00000
      93.8000       0.00000
      93.9000       0.00000
      94.0000       0.00000
      94.1000       0.00000
      94.2000       0.00000
      94.3000       0.00000
      94.4000       0.00000
      94.5000       0.00000
      94.6000       0.00000
      94.7000       0.00000
      94.8000       0.00000
      94.9000       0.00000
      95.0000       0.00000
      95.1000       0.00000
      95.2000       0.00000
      95.3000       0.00000
      95.4000       0.00000
      95.5000       0.00000
      95.6000       0.00000
      95.7000       0.00000
      95.8000       0.00000
      95.9000       0.00000
      96.0000       0.00000
      96.1000       0.00000
      96.2000       0.00000
      96.3000       0.00000
      96.4000       0.00000
      96.5000       0.00000
      96.6000       0.00000
      96.7000       0.00000
      96.8000       0.00000
      96.9000       0.00000
      97.0000       0.00000
      97.1000       0.00000
      97.2000       0.00000
      97.3000       0.00000
      97.4000       0.00000
      97.5000       0.00000
      97.6000       0.00000
      97.7000       0.00000
      97.8000       0.00000
      97.9000       0.00000
      98.0000       0.00000
      98.1000       0.00000
      98.2000       0.00000
      98.3000       0.00000
      98.4000       0.00000
      98.5000       0.00000
      98.6000       0.00000
      98.7000       0.00000
      98.8000       0.00000
      98.9000       0.00000
      99.0000       0.00000
      99.1000       0.00000
      99.2000       0.00000
      99.3000       0.00000
      99.4000       0.00000
      99.5000       0.00000
      99.6000       0.00000
      99.7000       0.00000
      99.8000       0.00000
      99.9000       0.00000
      100.000       0.00000
      100.100       0.00000
      100.200       0.00000
      100.300       0.00000
      100.400       0.00000
      100.500       0.00000
      100.600       0.00000
      100.700       0.00000
      100.800       0.00000
      100.900       0.00000
      101.000       0.00000
      101.100       0.00000
      101.200       0.00000
      101.300       0.00000
      101.400       0.00000
      101.500       0.00000
      101.600       0.00000
      101.700       0.00000
      101.800       0.00000
      101.900       0.00000
      102.000       0.00000
      102.100       0.00000
      102.200       0.00000
      102.300       0.00000
      102.400       0.00000
      102.500       0.00000
      102.600       0.00000
      102.700       0.00000
      102.800       0.00000
      102.900       0.00000
      103.000       0.00000
      103.100       0.00000
      103.200       0.00000
      103.300       0.00000
      103.400       0.00000
      103.500       0.00000
      103.600       0.00000
      103.700       0.00000
      103.800       0.00000
      103.900       0.00000
      104.000       0.00000
      104.100       0.00000
      104.200       0.00000
      104.300       0.00000
      104.400       0.00000
      104.500       0.00000
      104.600       0.00000
      104.700       0.00000
      104.800       0.00000
      104.900       0.00000
      105.000       0.00000
      105.100       0.00000
      105.200       0.00000
      105.300       0.00000
      105.400       0.00000
      105.500       0.00000
      105.600       0.00000
      105.700       0.00000
      105.800       0.00000
      105.900       0.00000
      106.000       0.00000
      106.100       0.00000
      106.200       0.00000
      106.300       0.00000
      106.400       0.00000
      106.500       0.00000
      106.600       0.00000
      106.700       0.00000
      106.800       0.00000
      106.900       0.00000
      107.000       0.00000
      107.100       0.00000
      107.200       0.00000
      107.300       0.00000
      107.400       0.00000
      107.500       0.00000
      107.600       0.00000
      107.700       0.00000
      107.800       0.00000
      107.900       0.00000
      108.000       0.00000
      108.100       0.00000
      108.200       0.00000
      108.300       0.00000
      108.400       0.00000
      108.500       0.00000
      108.600       0.00000
      108.700       0.00000
      108.800       0.00000
      108.900       0.00000
      109.000       0.00000
      109.100       0.00000
      109.200       0.00000
      109.300       0.00000
      109.400       0.00000
      109.500       0.00000
      109.600       0.00000
      109.700       0.00000
      109.800       0.00000
      109.900       0.00000
      110.000       0.00000
      110.100       0.00000
      110.200       0.00000
      110.300       0.00000
      110.400       0.00000
      110.500       0.00000
      110.600       0.00000
      110.700       0.00000
      110.800       0.00000
      110.900       0.00000
      111.000       0.00000
      111.100       0.00000
      111.200       0.00000
      111.300       0.00000
      111.400       0.00000
      111.500       0.00000
      111.600       0.00000
      111.700       0.00000
      111.800       0.00000
      111.900       0.00000
      112.000       0.00000
      112.100       0.00000
      112.200       0.00000
      112.300       0.00000
      112.400       0.00000
      112.500       0.00000
      112.600       0.00000
      112.700       0.00000
      112.800       0.00000
      112.900       0.00000
      113.000       0.00000
      113.100       0.00000
      113.200       0.00000
      113.300       0.00000
      113.400       0.00000
      113.500       0.00000
      113.600       0.00000
      113.700       0.00000
      113.800       0.00000
      113.900       0.00000
      114.000       0.00000
      114.100       0.00000
      114.200       0.00000
      114.300       0.00000
      114.400       0.00000
      114.500       0.00000
      114.600       0.00000
      114.700       0.00000
      114.800       0.00000
      114.900       0.00000
      115.000       0.00000
      115.100       0.00000
      115.200       0.00000
      115.300       0.00000
      115.400       0.00000
      115.500       0.00000
      115.600       0.00000
      115.700       0.00000
      115.800       0.00000
      115.900       0.00000
      116.000       0.00000
      116.100       0.00000
      116.200       0.00000
      116.300       0.00000
      116.400       0.00000
      116.500       0.00000
      116.600       0.00000
      116.700       0.00000
      116.800       0.00000
      116.900       0.00000
      117.000       0.00000
      117.100       0.00000
      117.200       0.00000
      117.300       0.00000
      117.400       0.00000
      117.500       0.00000
      117.600       0.00000
      117.700       0.00000
      117.800       0.00000
      117.900       0.00000
      118.000       0.00000
      118.100       0.00000
      118.200       0.00000
      118.300       0.00000
      118.400       0.00000
      118.500       0.00000
      118.600       0.00000
      118.700       0.00000
      118.800       0.00000
      118.900       0.00000
      119.000       0.00000
      119.100       0.00000
      119.200       0.00000
      119.300       0.00000
      119.400       0.00000
      119.500       0.00000
      119.600       0.00000
      119.700       0.00000
      119.800       0.00000
      119.900       0.00000
      120.000       0.00000
      120.100       0.00000
      120.200       0.00000
      120.300       0.00000
      120.400       0.00000
      120.500       0.00000
      120.600       0.00000
      120.700       0.00000
      120.800       0.00000
      120.900       0.00000
      121.000       0.00000
      121.100       0.00000
      121.200       0.00000
      121.300       0.00000
      121.400       0.00000
      121.500       0.00000
      121.600       0.00000
      121.700       0.00000
      121.800       0.00000
      121.900       0.00000
      122.000       0.00000
      122.100       0.00000
      122.200       0.00000
      122.300       0.00000
      122.400       0.00000
      122.500       0.00000
      122.600       0.00000
      122.700       0.00000
      122.800       0.00000
      122.900       0.00000
      123.000       0.00000
      123.100       0.00000
      123.200       0.00000
      123.300       0.00000
      123.400       0.00000
      123.500       0.00000
      123.600       0.00000
      123.700       0.00000
      123.800       0.00000
      123.900       0.00000
      124.000       0.00000
      124.100       0.00000
      124.200       0.00000
      124.300       0.00000
      124.400       0.00000
      124.500       0.00000
      124.600       0.00000
      124.700       0.00000
      124.800       0.00000
      124.900       0.00000
      125.000       0.00000
      125.100       0.00000
      125.200       0.00000
      125.300       0.00000
      125.400       0.00000
      125.500       0.00000
      125.600       0.00000
      125.700       0.00000
      125.800       0.00000
      125.900       0.00000
      126.000       0.00000
      126.100       0.00000
      126.200       0.00000
      126.300       0.00000
      126.400       0.00000
      126.500       0.00000
      126.600       0.00000
      126.700       0.00000
      126.800       0.00000
      126.900       0.00000
      127.000       0.00000
      127.100       0.00000
      127.200       0.00000
      127.300       0.00000
      127.400       0.00000
      127.500       0.00000
      127.600       0.00000
      127.700       0.00000
      127.800       0.00000
      127.900       0.00000
      128.000       0.00000
      128.100       0.00000
      128.200       0.00000
      128.300       0.00000
      128.400       0.00000
      128.500       0.00000
      128.600       0.00000
      128.700       0.00000
      128.800       0.00000
      128.900       0.00000
      129.000       0.00000
      129.100       0.00000
      129.200       0.00000
      129.300       0.00000
      129.400       0.00000
      129.500       0.00000
      129.600       0.00000
      129.700       0.00000
      129.800       0.00000
      129.900       0.00000
      130.000       0.00000
      130.100       0.00000
      130.200       0.00000
      130.300       0.00000
      130.400       0.00000
      130.500       0.00000
      130.600       0.00000
      130.700       0.00000
      130.800       0.00000
      130.900       0.00000
      131.000       0.00000
      131.100       0.00000
      131.200       0.00000
      131.300       0.00000
      131.400       0.00000
      131.500       0.00000
      131.600       0.00000
      131.700       0.00000
      131.800       0.00000
      131.900       0.00000
      132.000       0.00000
      132.100       0.00000
      132.200       0.00000
      132.300       0.00000
      132.400       0.00000
      132.500       0.00000
      132.600       0.00000
      132.700       0.00000
      132.800       0.00000
      132.900       0.00000
      133.000       0.00000
      133.100       0.00000
      133.200       0.00000
      133.300       0.00000
      133.400       0.00000
      133.500       0.00000
      133.600       0.00000
      133.700       0.00000
      133.800       0.00000
      133.900       0.00000
      134.000       0.00000
      134.100       0.00000
      134.200       0.00000
      134.300       0.00000
      134.400       0.00000
      134.500       0.00000
      134.600       0.00000
      134.700       0.00000
      134.800       0.00000
      134.900       0.00000
      135.000       0.00000
      135.100       0.00000
      135.200       0.00000
      135.300       0.00000
      135.400       0.00000
      135.500       0.00000
      135.600       0.00000
      135.700       0.00000
      135.800       0.00000
      135.900       0.00000
      136.000       0.00000
      136.100       0.00000
      136.200       0.00000
      136.300       0.00000
      136.400       0.00000
      136.500       0.00000
      136.600       0.00000
      136.700       0.00000
      136.800       0.00000
      136.900       0.00000
      137.000       0.00000
      137.100       0.00000
      137.200       0.00000
      137.300       0.00000
      137.400       0.00000
      137.500       0.00000
      137.600       0.00000
      137.700       0.00000
      137.800       0.00000
      137.900       0.00000
      138.000       0.00000
      138.100       0.00000
      138.200       0.00000
      138.300       0.00000
      138.400       0.00000
      138.500       0.00000
      138.600       0.00000
      138.700       0.00000
      138.800       0.00000
      138.900       0.00000
      139.000       0.00000
      139.100       0.00000
      139.200       0.00000
      139.300       0.00000
      139.400       0.00000
      139.500       0.00000
      139.600       0.00000
      139.700       0.00000
      139.800       0.00000
      139.900       0.00000
      140.000       0.00000
      140.100       0.00000
      140.200       0.00000
      140.300       0.00000
      140.400       0.00000
      140.500       0.00000
      140.600       0.00000
      140.700       0.00000
      140.800       0.00000
      140.900       0.00000
      141.000       0.00000
      141.100       0.00000
      141.200       0.00000
      141.300       0.00000
      141.400       0.00000
      141.500       0.00000
      141.600       0.00000
      141.700       0.00000
      141.800       0.00000
      141.900       0.00000
      142.000       0.00000
      142.100       0.00000
      142.200       0.00000
      142.300       0.00000
      142.400       0.00000
      142.500       0.00000
      142.600       0.00000
      142.700       0.00000
      142.800       0.00000
      142.900       0.00000
      143.000       0.00000
      143.100       0.00000
      143.200       0.00000
      143.300       0.00000
      143.400       0.00000
      143.500       0.00000
      143.600       0.00000
      143.700       0.00000
      143.800       0.00000
      143.900       0.00000
      144.000       0.00000
      144.100       0.00000
      144.200       0.00000
      144.300       0.00000
      144.400       0.00000
      144.500       0.00000
      144.600       0.00000
      144.700       0.00000
      144.800       0.00000
      144.900       0.00000
      145.000       0.00000
      145.100       0.00000
      145.200       0.00000
      145.300       0.00000
      145.400       0.00000
      145.500       0.00000
      145.600       0.00000
      145.700       0.00000
      145.800       0.00000
      145.900       0.00000
      146.000       0.00000
      146.100       0.00000
      146.200       0.00000
      146.300       0.00000
      146.400       0.00000
      146.500       0.00000
      146.600       0.00000
      146.700       0.00000
      146.800       0.00000
      146.900       0.00000
      147.000       0.00000
      147.100       0.00000
      147.200       0.00000
      147.300       0.00000
      147.400       0.00000
      147.500       0.00000
      147.600       0.00000
      147.700       0.00000
      147.800       0.00000
      147.900       0.00000
      148.000       0.00000
      148.100       0.00000
      148.200       0.00000
      148.300       0.00000
      148.400       0.00000
      148.500       0.00000
      148.600       0.00000
      148.700       0.00000
      148.800       0.00000
      148.900       0.00000
      149.000       0.00000
      149.100       0.00000
      149.200       0.00000
      149.300       0.00000
      149.400       0.00000
      149.500       0.00000
      149.600       0.00000
      149.700       0.00000
      149.800       0.00000
      149.900       0.00000
      150.000       0.00000
      150.100       0.00000
      150.200       0.00000
      150.300       0.00000
      150.400       0.00000
      150.500       0.00000
      150.600       0.00000
      150.700       0.00000
      150.800       0.00000
      150.900       0.00000
      151.000       0.00000
      151.100       0.00000
      151.200       0.00000
      151.300       0.00000
      151.400       0.00000
      151.500       0.00000
      151.600       0.00000
      151.700       0.00000
      151.800       0.00000
      151.900       0.00000
      152.000       0.00000
      152.100       0.00000
      152.200       0.00000
      152.300       0.00000
      152.400       0.00000
      152.500       0.00000
      152.600       0.00000
      152.700       0.00000
      152.800       0.00000
      152.900       0.00000
      153.000       0.00000
      153.100       0.00000
      153.200       0.00000
      153.300       0.00000
      153.400       0.00000
      153.500       0.00000
      153.600       0.00000
      153.700       0.00000
      153.800       0.00000
      153.900       0.00000
      154.000       0.00000
      154.100       0.00000
      154.200       0.00000
      154.300       0.00000
      154.400       0.00000
      154.500       0.00000
      154.600       0.00000
      154.700       0.00000
      154.800       0.00000
      154.900       0.00000
      155.000       0.00000
      155.100       0.00000
      155.200       0.00000
      155.300       0.00000
      155.400       0.00000
      155.500       0.00000
      155.600       0.00000
      155.700       0.00000
      155.800       0.00000
      155.900       0.00000
      156.000       0.00000
      156.100       0.00000
      156.200       0.00000
      156.300       0.00000
      156.400       0.00000
      156.500       0.00000
      156.600       0.00000
      156.700       0.00000
      156.800       0.00000
      156.900       0.00000
      157.000       0.00000
      157.100       0.00000
      157.200       0.00000
      157.300       0.00000
      157.400       0.00000
      157.500       0.00000
      157.600       0.00000
      157.700       0.00000
      157.800       0.00000
      157.900       0.00000
      158.000       0.00000
      158.100       0.00000
      158.200       0.00000
      158.300       0.00000
      158.400       0.00000
      158.500       0.00000
      158.600       0.00000
      158.700       0.00000
      158.800       0.00000
      158.900       0.00000
      159.000       0.00000
      159.100       0.00000
      159.200       0.00000
      159.300       0.00000
      159.400       0.00000
      159.500       0.00000
      159.600       0.00000
      159.700       0.00000
      159.800       0.00000
      159.900       0.00000
      160.000       0.00000
      160.100       0.00000
      160.200       0.00000
      160.300       0.00000
      160.400       0.00000
      160.500       0.00000
      160.600       0.00000
      160.700       0.00000
      160.800       0.00000
      160.900       0.00000
      161.000       0.00000
      161.100       0.00000
      161.200       0.00000
      161.300       0.00000
      161.400       0.00000
      161.500       0.00000
      161.600       0.00000
      161.700       0.00000
      161.800       0.00000
      161.900       0.00000
      162.000       0.00000
      162.100       0.00000
      162.200       0.00000
      162.300       0.00000
      162.400       0.00000
      162.500       0.00000
      162.600       0.00000
      162.700       0.00000
      162.800       0.00000
      162.900       0.00000
      163.000       0.00000
      163.100       0.00000
      163.200       0.00000
      163.300       0.00000
      163.400       0.00000
      163.500       0.00000
      163.600       0.00000
      163.700       0.00000
      163.800       0.00000
      163.900       0.00000
      164.000       0.00000
      164.100       0.00000
      164.200       0.00000
      164.300       0.00000
      164.400       0.00000
      164.500       0.00000
      164.600       0.00000
      164.700       0.00000
      164.800       0.00000
      164.900       0.00000
      165.000       0.00000
      165.100       0.00000
      165.200       0.00000
      165.300       0.00000
      165.400       0.00000
      165.500       0.00000
      165.600       0.00000
      165.700       0.00000
      165.800       0.00000
      165.900       0.00000
      166.000       0.00000
      166.100       0.00000
      166.200       0.00000
      166.300       0.00000
      166.400       0.00000
      166.500       0.00000
      166.600       0.00000
      166.700       0.00000
      166.800       0.00000
      166.900       0.00000
      167.000       0.00000
      167.100       0.00000
      167.200       0.00000
      167.300       0.00000
      167.400       0.00000
      167.500       0.00000
      167.600       0.00000
      167.700       0.00000
      167.800       0.00000
      167.900       0.00000
      168.000       0.00000
      168.100       0.00000
      168.200       0.00000
      168.300       0.00000
      168.400       0.00000
      168.500       0.00000
      168.600       0.00000
      168.700       0.00000
      168.800       0.00000
      168.900       0.00000
      169.000       0.00000
      169.100       0.00000
      169.200       0.00000
      169.300       0.00000
      169.400       0.00000
      169.500       0.00000
      169.600       0.00000
      169.700       0.00000
      169.800       0.00000
      169.900       0.00000
      170.000       0.00000
      170.100       0.00000
      170.200       0.00000
      170.300       0.00000
      170.400       0.00000
      170.500   2.22258e-31
      170.600   1.02618e-19
      170.700   1.08464e-12
      170.800   9.19438e-11
      170.900   1.50303e-10
      171.000   1.51598e-10
      171.100   1.52893e-10
      171.200   1.54187e-10
      171.300   1.55481e-10
      171.400   1.56772e-10
      171.500   1.58062e-10
      171.600   1.59351e-10
      171.700   1.60642e-10
      171.800   1.61933e-10
      171.900   1.63226e-10
      172.000   1.64524e-10
      172.100   1.65829e-10
      172.200   1.67139e-10
      172.300   1.68451e-10
      172.400   1.69741e-10
      172.500   1.71032e-10
      172.600   1.72334e-10
      172.700   1.73645e-10
      172.800   1.74964e-10
      172.900   1.76296e-10
      173.000   1.77637e-10
      173.100   1.78987e-10
      173.200   1.80349e-10
      173.300   1.81721e-10
      173.400   1.83107e-10
      173.500   1.84502e-10
      173.600   1.85909e-10
      173.700   1.87326e-10
      173.800   1.88757e-10
      173.900   1.90195e-10
      174.000   1.91645e-10
      174.100   1.93109e-10
      174.200   1.94581e-10
      174.300   1.96061e-10
      174.400   1.97553e-10
      174.500   1.99053e-10
      174.600   2.00565e-10
      174.700   2.02084e-10
      174.800   2.03612e-10
      174.900   2.05148e-10
      175.000   2.06693e-10
      175.100   2.08243e-10
      175.200   2.09811e-10
      175.300   2.11383e-10
      175.400   2.12966e-10
      175.500   2.14555e-10
      175.600   2.16150e-10
      175.700   2.17754e-10
      175.800   2.19368e-10
      175.900   2.20987e-10
      176.000   2.22613e-10
      176.100   2.24247e-10
      176.200   2.25889e-10
      176.300   2.27540e-10
      176.400   2.29197e-10
      176.500   2.30861e-10
      176.600   2.32535e-10
      176.700   2.34216e-10
      176.800   2.35902e-10
      176.900   2.37597e-10
      177.000   2.39301e-10
      177.100   2.41012e-10
      177.200   2.42728e-10
      177.300   2.44451e-10
      177.400   2.46183e-10
      177.500   2.47922e-10
      177.600   2.49666e-10
      177.700   2.51416e-10
      177.800   2.53171e-10
      177.900   2.54934e-10
      178.000   2.56720e-10
      178.100   2.58512e-10
      178.200   2.60310e-10
      178.300   2.62117e-10
      178.400   2.63928e-10
      178.500   2.65745e-10
      178.600   2.67568e-10
      178.700   2.69400e-10
      178.800   2.71236e-10
      178.900   2.73077e-10
      179.000   2.74923e-10
      179.100   2.76778e-10
      179.200   2.78641e-10
      179.300   2.80509e-10
      179.400   2.82384e-10
      179.500   2.84266e-10
      179.600   2.86162e-10
      179.700   2.88061e-10
      179.800   2.89968e-10
      179.900   2.91885e-10
      180.000   2.93815e-10
      180.100   2.95750e-10
      180.200   2.97697e-10
      180.300   2.99653e-10
      180.400   3.01623e-10
      180.500   3.03604e-10
      180.600   3.05594e-10
      180.700   3.07595e-10
      180.800   3.09635e-10
      180.900   3.11732e-10
      181.000   3.13862e-10
      181.100   3.16003e-10
      181.200   3.18160e-10
      181.300   3.20334e-10
      181.400   3.22517e-10
      181.500   3.24714e-10
      181.600   3.26926e-10
      181.700   3.29154e-10
      181.800   3.31392e-10
      181.900   3.33645e-10
      182.000   3.35913e-10
      182.100   3.38191e-10
      182.200   3.40489e-10
      182.300   3.42796e-10
      182.400   3.45115e-10
      182.500   3.47447e-10
      182.600   3.49796e-10
      182.700   3.52154e-10
      182.800   3.54521e-10
      182.900   3.56904e-10
      183.000   3.59299e-10
      183.100   3.61705e-10
      183.200   3.64121e-10
      183.300   3.66551e-10
      183.400   3.68993e-10
      183.500   3.71444e-10
      183.600   3.73908e-10
      183.700   3.76488e-10
      183.800   3.79534e-10
      183.900   3.82877e-10
      184.000   3.86236e-10
      184.100   3.89625e-10
      184.200   3.93034e-10
      184.300   3.96472e-10
      184.400   3.99932e-10
      184.500   4.03413e-10
      184.600   4.06918e-10
      184.700   4.10450e-10
      184.800   4.14006e-10
      184.900   4.17583e-10
      185.000   4.21185e-10
      185.100   4.24813e-10
      185.200   4.28467e-10
      185.300   4.32141e-10
      185.400   4.35839e-10
      185.500   4.39559e-10
      185.600   4.43305e-10
      185.700   4.47080e-10
      185.800   4.50878e-10
      185.900   4.54694e-10
      186.000   4.58542e-10
      186.100   4.62408e-10
      186.200   4.66293e-10
      186.300   4.70201e-10
      186.400   4.74133e-10
      186.500   4.78089e-10
      186.600   4.82062e-10
      186.700   4.86052e-10
      186.800   4.90061e-10
      186.900   4.94094e-10
      187.000   4.98148e-10
      187.100   5.02215e-10
      187.200   5.06306e-10
      187.300   5.10421e-10
      187.400   5.14553e-10
      187.500   5.18703e-10
      187.600   5.22871e-10
      187.700   5.27058e-10
      187.800   5.31270e-10
      187.900   5.35502e-10
      188.000   5.39749e-10
      188.100   5.44014e-10
      188.200   5.48303e-10
      188.300   5.52615e-10
      188.400   5.56950e-10
      188.500   5.61305e-10
      188.600   5.65681e-10
      188.700   5.70088e-10
      188.800   5.74513e-10
      188.900   5.78960e-10
      189.000   5.83432e-10
      189.100   5.87935e-10
      189.200   5.92461e-10
      189.300   5.97010e-10
      189.400   6.01584e-10
      189.500   6.06187e-10
      189.600   6.10825e-10
      189.700   6.15483e-10
      189.800   6.20223e-10
      189.900   6.24999e-10
      190.000   6.29814e-10
      190.100   6.34654e-10
      190.200   6.39525e-10
      190.300   6.44425e-10
      190.400   6.49360e-10
      190.500   6.54326e-10
      190.600   6.59321e-10
      190.700   6.64346e-10
      190.800   6.69402e-10
      190.900   6.74491e-10
      191.000   6.79622e-10
      191.100   6.84778e-10
      191.200   6.89967e-10
      191.300   6.95187e-10
      191.400   7.00441e-10
      191.500   7.05728e-10
      191.600   7.11043e-10
      191.700   7.16389e-10
      191.800   7.21772e-10
      191.900   7.27182e-10
      192.000   7.32619e-10
      192.100   7.38091e-10
      192.200   7.43600e-10
      192.300   7.49139e-10
      192.400   7.54718e-10
      192.500   7.60326e-10
      192.600   7.65961e-10
      192.700   7.71628e-10
      192.800   7.77031e-10
      192.900   7.81704e-10
      193.000   7.86321e-10
      193.100   7.90961e-10
      193.200   7.95632e-10
      193.300   8.00317e-10
      193.400   8.05021e-10
      193.500   8.09748e-10
      193.600   8.14501e-10
      193.700   8.19276e-10
      193.800   8.24069e-10
      193.900   8.28879e-10
      194.000   8.33718e-10
      194.100   8.38589e-10
      194.200   8.43473e-10
      194.300   8.48381e-10
      194.400   8.53311e-10
      194.500   8.58269e-10
      194.600   8.63249e-10
      194.700   8.68242e-10
      194.800   8.73258e-10
      194.900   8.78298e-10
      195.000   8.83358e-10
      195.100   8.88452e-10
      195.200   8.93554e-10
      195.300   8.98674e-10
      195.400   9.03815e-10
      195.500   9.08977e-10
      195.600   9.14155e-10
      195.700   9.19344e-10
      195.800   9.24491e-10
      195.900   9.29212e-10
      196.000   9.18741e-10
      196.100   9.08188e-10
      196.200   8.97749e-10
      196.300   8.87421e-10
      196.400   8.77204e-10
      196.500   8.67092e-10
      196.600   8.57089e-10
      196.700   8.47191e-10
      196.800   8.37400e-10
      196.900   8.27718e-10
      197.000   8.18137e-10
      197.100   8.08655e-10
      197.200   7.99273e-10
      197.300   7.89988e-10
      197.400   7.80797e-10
      197.500   7.71701e-10
      197.600   7.62703e-10
      197.700   7.53807e-10
      197.800   7.45010e-10
      197.900   7.36302e-10
      198.000   7.27686e-10
      198.100   7.19162e-10
      198.200   7.10728e-10
      198.300   7.02383e-10
      198.400   6.94131e-10
      198.500   6.85974e-10
      198.600   6.77910e-10
      198.700   6.69932e-10
      198.800   6.62043e-10
      198.900   6.54244e-10
      199.000   6.46527e-10
      199.100   6.38896e-10
      199.200   6.31354e-10
      199.300   6.23904e-10
      199.400   6.16542e-10
      199.500   6.09265e-10
      199.600   6.02067e-10
      199.700   5.94951e-10
      199.800   5.87919e-10
      199.900   5.80966e-10
      200.000   5.74093e-10
      200.100   5.67336e-10
      200.200   5.60628e-10
      200.300   5.54003e-10
      200.400   5.47453e-10
      200.500   5.40979e-10
      200.600   5.34583e-10
      200.700   5.28262e-10
      200.800   5.22011e-10
      200.900   5.15839e-10
      201.000   5.09739e-10
      201.100   5.03713e-10
      201.200   4.97758e-10
      201.300   4.91873e-10
      201.400   4.86059e-10
      201.500   4.80311e-10
      201.600   4.74632e-10
      201.700   4.69021e-10
      201.800   4.63475e-10
      201.900   4.57994e-10
      202.000   4.52585e-10
      202.100   4.47237e-10
      202.200   4.41955e-10
      202.300   4.36772e-10
      202.400   4.31730e-10
      202.500   4.26770e-10
      202.600   4.21862e-10
      202.700   4.17017e-10
      202.800   4.12228e-10
      202.900   4.07497e-10
      203.000   4.02822e-10
      203.100   3.98205e-10
      203.200   3.93639e-10
      203.300   3.89128e-10
      203.400   3.84670e-10
      203.500   3.80265e-10
      203.600   3.75913e-10
      203.700   3.71614e-10
      203.800   3.67367e-10
      203.900   3.63175e-10
      204.000   3.59031e-10
      204.100   3.54937e-10
      204.200   3.50894e-10
      204.300   3.46899e-10
      204.400   3.42953e-10
      204.500   3.39054e-10
      204.600   3.35201e-10
      204.700   3.31395e-10
      204.800   3.27638e-10
      204.900   3.23926e-10
      205.000   3.20259e-10
      205.100   3.16636e-10
      205.200   3.13056e-10
      205.300   3.09520e-10
      205.400   3.06025e-10
      205.500   3.02572e-10
      205.600   2.98928e-10
      205.700   2.95120e-10
      205.800   2.91331e-10
      205.900   2.87593e-10
      206.000   2.83906e-10
      206.100   2.80266e-10
      206.200   2.76672e-10
      206.300   2.73126e-10
      206.400   2.69626e-10
      206.500   2.66169e-10
      206.600   2.62757e-10
      206.700   2.59390e-10
      206.800   2.56062e-10
      206.900   2.52777e-10
      207.000   2.49535e-10
      207.100   2.46334e-10
      207.200   2.43174e-10
      207.300   2.40052e-10
      207.400   2.36969e-10
      207.500   2.33924e-10
      207.600   2.30916e-10
      207.700   2.27945e-10
      207.800   2.25010e-10
      207.900   2.22110e-10
      208.000   2.19247e-10
      208.100   2.16419e-10
      208.200   2.13624e-10
      208.300   2.10864e-10
      208.400   2.08138e-10
      208.500   2.05447e-10
      208.600   2.02786e-10
      208.700   2.00158e-10
      208.800   1.97563e-10
      208.900   1.94735e-10
      209.000   1.91471e-10
      209.100   1.88146e-10
      209.200   1.84876e-10
      209.300   1.81660e-10
      209.400   1.78498e-10
      209.500   1.75388e-10
      209.600   1.72330e-10
      209.700   1.69324e-10
      209.800   1.66371e-10
      209.900   1.63466e-10
      210.000   1.60611e-10
      210.100   1.57803e-10
      210.200   1.55042e-10
      210.300   1.52328e-10
      210.400   1.49660e-10
      210.500   1.47036e-10
      210.600   1.44457e-10
      210.700   1.41921e-10
      210.800   1.39429e-10
      210.900   1.36978e-10
      211.000   1.34569e-10
      211.100   1.32202e-10
      211.200   1.29874e-10
      211.300   1.27588e-10
      211.400   1.25342e-10
      211.500   1.23134e-10
      211.600   1.20963e-10
      211.700   1.18830e-10
      211.800   1.16732e-10
      211.900   1.14670e-10
      212.000   1.12645e-10
      212.100   1.10654e-10
      212.200   1.08696e-10
      212.300   1.06773e-10
      212.400   1.04882e-10
      212.500   1.03024e-10
      212.600   1.01198e-10
      212.700   9.94035e-11
      212.800   9.76399e-11
      212.900   9.59071e-11
      213.000   9.42039e-11
      213.100   9.25314e-11
      213.200   9.08880e-11
      213.300   8.92727e-11
      213.400   8.76856e-11
      213.500   8.61259e-11
      213.600   8.45932e-11
      213.700   8.30877e-11
      213.800   8.16079e-11
      213.900   8.01546e-11
      214.000   7.87263e-11
      214.100   7.73230e-11
      214.200   7.59449e-11
      214.300   7.45905e-11
      214.400   7.32599e-11
      214.500   7.19529e-11
      214.600   7.06693e-11
      214.700   6.94081e-11
      214.800   6.81694e-11
      214.900   6.69530e-11
      215.000   6.57576e-11
      215.100   6.45840e-11
      215.200   6.34315e-11
      215.300   6.23002e-11
      215.400   6.11887e-11
      215.500   6.00972e-11
      215.600   5.90261e-11
      215.700   5.79733e-11
      215.800   5.69394e-11
      215.900   5.59246e-11
      216.000   5.49277e-11
      216.100   5.39487e-11
      216.200   5.29874e-11
      216.300   5.20436e-11
      216.400   5.11169e-11
      216.500   5.02066e-11
      216.600   4.93129e-11
      216.700   4.84355e-11
      216.800   4.75737e-11
      216.900   4.67276e-11
      217.000   4.58967e-11
      217.100   4.50806e-11
      217.200   4.42794e-11
      217.300   4.34925e-11
      217.400   4.27196e-11
      217.500   4.19611e-11
      217.600   4.12159e-11
      217.700   4.04836e-11
      217.800   3.97649e-11
      217.900   3.90592e-11
      218.000   3.83663e-11
      218.100   3.76854e-11
      218.200   3.70169e-11
      218.300   3.63604e-11
      218.400   3.57156e-11
      218.500   3.50818e-11
      218.600   3.44595e-11
      218.700   3.38481e-11
      218.800   3.32475e-11
      218.900   3.26577e-11
      219.000   3.20781e-11
      219.100   3.15086e-11
      219.200   3.09492e-11
      219.300   3.03995e-11
      219.400   2.98593e-11
      219.500   2.93286e-11
      219.600   2.88072e-11
      219.700   2.82949e-11
      219.800   2.77917e-11
      219.900   2.72971e-11
      220.000   2.68111e-11
      220.100   2.63336e-11
      220.200   2.58643e-11
      220.300   2.54033e-11
      220.400   2.49503e-11
      220.500   2.45053e-11
      220.600   2.40680e-11
      220.700   2.36382e-11
      220.800   2.32158e-11
      220.900   2.28010e-11
      221.000   2.23932e-11
      221.100   2.19925e-11
      221.200   2.15989e-11
      221.300   2.12121e-11
      221.400   2.08321e-11
      221.500   2.04587e-11
      221.600   2.00918e-11
      221.700   1.97312e-11
      221.800   1.93768e-11
      221.900   1.90288e-11
      222.000   1.86869e-11
      222.100   1.83508e-11
      222.200   1.80207e-11
      222.300   1.76962e-11
      222.400   1.73776e-11
      222.500   1.70644e-11
      222.600   1.67568e-11
      222.700   1.64545e-11
      222.800   1.61574e-11
      222.900   1.58656e-11
      223.000   1.55788e-11
      223.100   1.52971e-11
      223.200   1.50204e-11
      223.300   1.47484e-11
      223.400   1.44814e-11
      223.500   1.42188e-11
      223.600   1.39611e-11
      223.700   1.37078e-11
      223.800   1.34589e-11
      223.900   1.32146e-11
      224.000   1.29744e-11
      224.100   1.27384e-11
      224.200   1.25066e-11
      224.300   1.22790e-11
      224.400   1.20553e-11
      224.500   1.18355e-11
      224.600   1.16196e-11
      224.700   1.14076e-11
      224.800   1.11993e-11
      224.900   1.09947e-11
      225.000   1.07937e-11
      225.100   1.05962e-11
      225.200   1.04022e-11
      225.300   1.02118e-11
      225.400   1.00246e-11
      225.500   9.84073e-12
      225.600   9.66013e-12
      225.700   9.48282e-12
      225.800   9.30856e-12
      225.900   9.13744e-12
      226.000   8.96942e-12
      226.100   8.80435e-12
      226.200   8.64226e-12
      226.300   8.48368e-12
      226.400   8.32824e-12
      226.500   8.17538e-12
      226.600   8.02507e-12
      226.700   7.87740e-12
      226.800   7.73224e-12
      226.900   7.58966e-12
      227.000   7.44964e-12
      227.100   7.31210e-12
      227.200   7.17708e-12
      227.300   7.04451e-12
      227.400   6.91434e-12
      227.500   6.78652e-12
      227.600   6.66103e-12
      227.700   6.53782e-12
      227.800   6.41687e-12
      227.900   6.29814e-12
      228.000   6.18158e-12
      228.100   6.06714e-12
      228.200   5.95479e-12
      228.300   5.84451e-12
      228.400   5.73629e-12
      228.500   5.63003e-12
      228.600   5.52574e-12
      228.700   5.42338e-12
      228.800   5.32289e-12
      228.900   5.22432e-12
      229.000   5.12754e-12
      229.100   5.03256e-12
      229.200   4.93934e-12
      229.300   4.84785e-12
      229.400   4.75808e-12
      229.500   4.66998e-12
      229.600   4.58349e-12
      229.700   4.49864e-12
      229.800   4.41536e-12
      229.900   4.33364e-12
      230.000   4.25266e-12
      230.100   4.16759e-12
      230.200   4.08405e-12
      230.300   4.00222e-12
      230.400   3.92203e-12
      230.500   3.84345e-12
      230.600   3.76649e-12
      230.700   3.69104e-12
      230.800   3.61714e-12
      230.900   3.54472e-12
      231.000   3.47375e-12
      231.100   3.40420e-12
      231.200   3.33605e-12
      231.300   3.26928e-12
      231.400   3.20388e-12
      231.500   3.13974e-12
      231.600   3.07689e-12
      231.700   3.01531e-12
      231.800   2.95498e-12
      231.900   2.89584e-12
      232.000   2.83789e-12
      232.100   2.78108e-12
      232.200   2.72543e-12
      232.300   2.67089e-12
      232.400   2.61743e-12
      232.500   2.56503e-12
      232.600   2.51368e-12
      232.700   2.46336e-12
      232.800   2.41405e-12
      232.900   2.36571e-12
      233.000   2.31833e-12
      233.100   2.27191e-12
      233.200   2.22639e-12
      233.300   2.18180e-12
      233.400   2.13809e-12
      233.500   2.09526e-12
      233.600   2.05330e-12
      233.700   2.01215e-12
      233.800   1.96691e-12
      233.900   1.92202e-12
      234.000   1.87812e-12
      234.100   1.83522e-12
      234.200   1.79330e-12
      234.300   1.75232e-12
      234.400   1.71225e-12
      234.500   1.67309e-12
      234.600   1.63481e-12
      234.700   1.59739e-12
      234.800   1.56083e-12
      234.900   1.52508e-12
      235.000   1.49013e-12
      235.100   1.45597e-12
      235.200   1.42258e-12
      235.300   1.38995e-12
      235.400   1.35805e-12
      235.500   1.32687e-12
      235.600   1.29640e-12
      235.700   1.26661e-12
      235.800   1.23753e-12
      235.900   1.20909e-12
      236.000   1.18131e-12
      236.100   1.15414e-12
      236.200   1.12759e-12
      236.300   1.10163e-12
      236.400   1.07627e-12
      236.500   1.05147e-12
      236.600   1.02723e-12
      236.700   1.00354e-12
      236.800   9.80385e-13
      236.900   9.57751e-13
      237.000   9.35627e-13
      237.100   9.13999e-13
      237.200   8.92864e-13
      237.300   8.72204e-13
      237.400   8.52010e-13
      237.500   8.32268e-13
      237.600   8.12969e-13
      237.700   7.94123e-13
      237.800   7.75705e-13
      237.900   7.57700e-13
      238.000   7.40107e-13
      238.100   7.22904e-13
      238.200   7.06091e-13
      238.300   6.89658e-13
      238.400   6.73596e-13
      238.500   6.57893e-13
      238.600   6.42548e-13
      238.700   6.27553e-13
      238.800   6.12893e-13
      238.900   5.98565e-13
      239.000   5.84559e-13
      239.100   5.70871e-13
      239.200   5.57497e-13
      239.300   5.44431e-13
      239.400   5.31672e-13
      239.500   5.19201e-13
      239.600   5.07010e-13
      239.700   4.95102e-13
      239.800   4.83461e-13
      239.900   4.72083e-13
      240.000   4.60965e-13
      240.100   4.50097e-13
      240.200   4.39475e-13
      240.300   4.29097e-13
      240.400   4.18952e-13
      240.500   4.09044e-13
      240.600   3.99362e-13
      240.700   3.89899e-13
      240.800   3.80659e-13
      240.900   3.71636e-13
      241.000   3.62822e-13
      241.100   3.54209e-13
      241.200   3.45794e-13
      241.300   3.37571e-13
      241.400   3.29539e-13
      241.500   3.21691e-13
      241.600   3.14024e-13
      241.700   3.06533e-13
      241.800   2.99214e-13
      241.900   2.92064e-13
      242.000   2.85080e-13
      242.100   2.78259e-13
      242.200   2.71603e-13
      242.300   2.65106e-13
      242.400   2.58759e-13
      242.500   2.52559e-13
      242.600   2.46504e-13
      242.700   2.40589e-13
      242.800   2.34814e-13
      242.900   2.29173e-13
      243.000   2.23664e-13
      243.100   2.18283e-13
      243.200   2.13028e-13
      243.300   2.07896e-13
      243.400   2.02887e-13
      243.500   1.97998e-13
      243.600   1.93231e-13
      243.700   1.88573e-13
      243.800   1.84025e-13
      243.900   1.79587e-13
      244.000   1.75251e-13
      244.100   1.71019e-13
      244.200   1.66887e-13
      244.300   1.62851e-13
      244.400   1.58911e-13
      244.500   1.55065e-13
      244.600   1.51310e-13
      244.700   1.47647e-13
      244.800   1.44076e-13
      244.900   1.40590e-13
      245.000   1.37185e-13
      245.100   1.33861e-13
      245.200   1.30618e-13
      245.300   1.27451e-13
      245.400   1.24360e-13
      245.500   1.21343e-13
      245.600   1.18397e-13
      245.700   1.15521e-13
      245.800   1.12713e-13
      245.900   1.09978e-13
      246.000   1.07310e-13
      246.100   1.04705e-13
      246.200   1.02162e-13
      246.300   9.96801e-14
      246.400   9.72579e-14
      246.500   9.48932e-14
      246.600   9.25851e-14
      246.700   9.03324e-14
      246.800   8.81328e-14
      246.900   8.59862e-14
      247.000   8.38947e-14
      247.100   8.18543e-14
      247.200   7.98630e-14
      247.300   7.79196e-14
      247.400   7.60225e-14
      247.500   7.41708e-14
      247.600   7.23635e-14
      247.700   7.05995e-14
      247.800   6.88777e-14
      247.900   6.71972e-14
      248.000   6.55571e-14
      248.100   6.39611e-14
      248.200   6.24030e-14
      248.300   6.08819e-14
      248.400   5.93974e-14
      248.500   5.79481e-14
      248.600   5.65338e-14
      248.700   5.51537e-14
      248.800   5.38065e-14
      248.900   5.24919e-14
      249.000   5.12088e-14
      249.100   4.99591e-14
      249.200   4.87403e-14
      249.300   4.75502e-14
      249.400   4.63887e-14
      249.500   4.52554e-14
      249.600   4.41490e-14
      249.700   4.30692e-14
      249.800   4.20155e-14
      249.900   4.09869e-14
      250.000   3.99833e-14
      250.100   3.90054e-14
      250.200   3.80514e-14
      250.300   3.71212e-14
      250.400   3.62131e-14
      250.500   3.53271e-14
      250.600   3.44625e-14
      250.700   3.36187e-14
      250.800   3.27953e-14
      250.900   3.19918e-14
      251.000   3.12076e-14
      251.100   3.04424e-14
      251.200   2.96964e-14
      251.300   2.89692e-14
      251.400   2.82596e-14
      251.500   2.75668e-14
      251.600   2.68909e-14
      251.700   2.62317e-14
      251.800   2.55882e-14
      251.900   2.49602e-14
      252.000   2.43473e-14
      252.100   2.37495e-14
      252.200   2.31660e-14
      252.300   2.25972e-14
      252.400   2.20423e-14
      252.500   2.15012e-14
      252.600   2.09729e-14
      252.700   2.04575e-14
      252.800   1.99546e-14
      252.900   1.94638e-14
      253.000   1.89849e-14
      253.100   1.85176e-14
      253.200   1.80617e-14
      253.300   1.76208e-14
      253.400   1.71923e-14
      253.500   1.67744e-14
      253.600   1.63669e-14
      253.700   1.59689e-14
      253.800   1.55806e-14
      253.900   1.52016e-14
      254.000   1.48316e-14
      254.100   1.44703e-14
      254.200   1.41176e-14
      254.300   1.37735e-14
      254.400   1.34374e-14
      254.500   1.31094e-14
      254.600   1.27892e-14
      254.700   1.24768e-14
      254.800   1.21722e-14
      254.900   1.18748e-14
      255.000   1.15846e-14
      255.100   1.13012e-14
      255.200   1.10246e-14
      255.300   1.07546e-14
      255.400   1.04911e-14
      255.500   1.02338e-14
      255.600   9.98277e-15
      255.700   9.73770e-15
      255.800   9.49847e-15
      255.900   9.26492e-15
      256.000   9.03697e-15
      256.100   8.81464e-15
      256.200   8.59775e-15
      256.300   8.38606e-15
      256.400   8.17956e-15
      256.500   7.97784e-15
      256.600   7.78105e-15
      256.700   7.58899e-15
      256.800   7.40150e-15
      256.900   7.21850e-15
      257.000   7.03993e-15
      257.100   6.86563e-15
      257.200   6.69559e-15
      257.300   6.52959e-15
      257.400   6.38857e-15
      257.500   6.25810e-15
      257.600   6.13069e-15
      257.700   6.00584e-15
      257.800   5.88343e-15
      257.900   5.76347e-15
      258.000   5.64587e-15
      258.100   5.53059e-15
      258.200   5.41763e-15
      258.300   5.30694e-15
      258.400   5.19837e-15
      258.500   5.09195e-15
      258.600   4.98769e-15
      258.700   4.88550e-15
      258.800   4.78532e-15
      258.900   4.68720e-15
      259.000   4.59096e-15
      259.100   4.49668e-15
      259.200   4.40429e-15
      259.300   4.31384e-15
      259.400   4.22519e-15
      259.500   4.13827e-15
      259.600   4.05313e-15
      259.700   3.96970e-15
      259.800   3.88792e-15
      259.900   3.80775e-15
      260.000   3.72924e-15
      260.100   3.65231e-15
      260.200   3.57691e-15
      260.300   3.50303e-15
      260.400   3.43066e-15
      260.500   3.35976e-15
      260.600   3.29026e-15
      260.700   3.22217e-15
      260.800   3.15551e-15
      260.900   3.09014e-15
      261.000   3.02615e-15
      261.100   2.96347e-15
      261.200   2.90206e-15
      261.300   2.84189e-15
      261.400   2.78297e-15
      261.500   2.73081e-15
      261.600   2.69762e-15
      261.700   2.66796e-15
      261.800   2.63864e-15
      261.900   2.60961e-15
      262.000   2.58090e-15
      262.100   2.55249e-15
      262.200   2.52441e-15
      262.300   2.49662e-15
      262.400   2.46913e-15
      262.500   2.44195e-15
      262.600   2.41505e-15
      262.700   2.38845e-15
      262.800   2.36214e-15
      262.900   2.33610e-15
      263.000   2.31038e-15
      263.100   2.28492e-15
      263.200   2.25975e-15
      263.300   2.23485e-15
      263.400   2.21022e-15
      263.500   2.18587e-15
      263.600   2.16179e-15
      263.700   2.13797e-15
      263.800   2.11441e-15
      263.900   2.09112e-15
      264.000   2.06809e-15
      264.100   2.04530e-15
      264.200   2.02276e-15
      264.300   2.00049e-15
      264.400   1.97846e-15
      264.500   1.95667e-15
      264.600   1.93512e-15
      264.700   1.91381e-15
      264.800   1.89274e-15
      264.900   1.87192e-15
      265.000   1.85132e-15
      265.100   1.83094e-15
      265.200   1.81080e-15
      265.300   1.79088e-15
      265.400   1.77119e-15
      265.500   1.75172e-15
      265.600   1.73247e-15
      265.700   1.71343e-15
      265.800   1.69463e-15
      265.900   1.67604e-15
      266.000   1.65767e-15
      266.100   1.63951e-15
      266.200   1.62155e-15
      266.300   1.60379e-15
      266.400   1.58623e-15
      266.500   1.56886e-15
      266.600   1.55171e-15
      266.700   1.53473e-15
      266.800   1.51796e-15
      266.900   1.50138e-15
      267.000   1.48498e-15
      267.100   1.46877e-15
      267.200   1.45275e-15
      267.300   1.43691e-15
      267.400   1.42124e-15
      267.500   1.40575e-15
      267.600   1.39044e-15
      267.700   1.37530e-15
      267.800   1.36033e-15
      267.900   1.34554e-15
      268.000   1.33091e-15
      268.100   1.31646e-15
      268.200   1.30217e-15
      268.300   1.28804e-15
      268.400   1.27406e-15
      268.500   1.26025e-15
      268.600   1.24659e-15
      268.700   1.23310e-15
      268.800   1.21975e-15
      268.900   1.20656e-15
      269.000   1.19352e-15
      269.100   1.18063e-15
      269.200   1.16788e-15
      269.300   1.15528e-15
      269.400   1.14282e-15
      269.500   1.13049e-15
      269.600   1.11832e-15
      269.700   1.10628e-15
      269.800   1.09438e-15
      269.900   1.08260e-15
      270.000   1.07098e-15
      270.100   1.05948e-15
      270.200   1.04813e-15
      270.300   1.03690e-15
      270.400   1.02580e-15
      270.500   1.01482e-15
      270.600   1.00396e-15
      270.700   9.93231e-16
      270.800   9.82622e-16
      270.900   9.72126e-16
      271.000   9.61748e-16
      271.100   9.51484e-16
      271.200   9.41332e-16
      271.300   9.31300e-16
      271.400   9.21373e-16
      271.500   9.11564e-16
      271.600   9.01853e-16
      271.700   8.92253e-16
      271.800   8.82759e-16
      271.900   8.73371e-16
      272.000   8.64086e-16
      272.100   8.54901e-16
      272.200   8.45814e-16
      272.300   8.36825e-16
      272.400   8.27935e-16
      272.500   8.19144e-16
      272.600   8.10446e-16
      272.700   8.01842e-16
      272.800   7.93330e-16
      272.900   7.84911e-16
      273.000   7.76585e-16
      273.100   7.68347e-16
      273.200   7.60197e-16
      273.300   7.52135e-16
      273.400   7.44156e-16
      273.500   7.36264e-16
      273.600   7.28455e-16
      273.700   7.20727e-16
      273.800   7.13081e-16
      273.900   7.05522e-16
      274.000   6.98039e-16
      274.100   6.90636e-16
      274.200   6.83309e-16
      274.300   6.76060e-16
      274.400   6.68806e-16
      274.500   6.61424e-16
      274.600   6.54085e-16
      274.700   6.46830e-16
      274.800   6.39652e-16
      274.900   6.32550e-16
      275.000   6.25525e-16
      275.100   6.18577e-16
      275.200   6.11703e-16
      275.300   6.04902e-16
      275.400   5.98179e-16
      275.500   5.91528e-16
      275.600   5.84944e-16
      275.700   5.78433e-16
      275.800   5.71994e-16
      275.900   5.65624e-16
      276.000   5.59323e-16
      276.100   5.53086e-16
      276.200   5.46916e-16
      276.300   5.40813e-16
      276.400   5.34776e-16
      276.500   5.28803e-16
      276.600   5.22896e-16
      276.700   5.17049e-16
      276.800   5.11267e-16
      276.900   5.05544e-16
      277.000   4.99885e-16
      277.100   4.94283e-16
      277.200   4.88743e-16
      277.300   4.83263e-16
      277.400   4.77841e-16
      277.500   4.72474e-16
      277.600   4.67168e-16
      277.700   4.61916e-16
      277.800   4.56718e-16
      277.900   4.51578e-16
      278.000   4.46496e-16
      278.100   4.41467e-16
      278.200   4.36489e-16
      278.300   4.31566e-16
      278.400   4.26697e-16
      278.500   4.21875e-16
      278.600   4.17107e-16
      278.700   4.12391e-16
      278.800   4.07726e-16
      278.900   4.03095e-16
      279.000   3.98509e-16
      279.100   3.93974e-16
      279.200   3.89484e-16
      279.300   3.85047e-16
      279.400   3.80653e-16
      279.500   3.76309e-16
      279.600   3.72012e-16
      279.700   3.67762e-16
      279.800   3.63558e-16
      279.900   3.59397e-16
      280.000   3.55283e-16
      280.100   3.51212e-16
      280.200   3.47186e-16
      280.300   3.43203e-16
      280.400   3.39264e-16
      280.500   3.35370e-16
      280.600   3.31517e-16
      280.700   3.27704e-16
      280.800   3.23935e-16
      280.900   3.20205e-16
      281.000   3.16516e-16
      281.100   3.12867e-16
      281.200   3.09259e-16
      281.300   3.05691e-16
      281.400   3.02162e-16
      281.500   2.98671e-16
      281.600   2.95216e-16
      281.700   2.91801e-16
      281.800   2.88425e-16
      281.900   2.85085e-16
      282.000   2.81782e-16
      282.100   2.78515e-16
      282.200   2.75286e-16
      282.300   2.72091e-16
      282.400   2.68932e-16
      282.500   2.65806e-16
      282.600   2.62717e-16
      282.700   2.59661e-16
      282.800   2.56639e-16
      282.900   2.53654e-16
      283.000   2.50699e-16
      283.100   2.47778e-16
      283.200   2.44891e-16
      283.300   2.42036e-16
      283.400   2.39213e-16
      283.500   2.36423e-16
      283.600   2.33663e-16
      283.700   2.30933e-16
      283.800   2.28235e-16
      283.900   2.25569e-16
      284.000   2.22931e-16
      284.100   2.20322e-16
      284.200   2.17744e-16
      284.300   2.15196e-16
      284.400   2.12676e-16
      284.500   2.10186e-16
      284.600   2.07724e-16
      284.700   2.05290e-16
      284.800   2.02885e-16
      284.900   2.00506e-16
      285.000   1.98154e-16
      285.100   1.95829e-16
      285.200   1.93532e-16
      285.300   1.91261e-16
      285.400   1.89015e-16
      285.500   1.86796e-16
      285.600   1.84604e-16
      285.700   1.82436e-16
      285.800   1.80294e-16
      285.900   1.78176e-16
      286.000   1.76083e-16
      286.100   1.74016e-16
      286.200   1.71971e-16
      286.300   1.69952e-16
      286.400   1.67957e-16
      286.500   1.65983e-16
      286.600   1.64033e-16
      286.700   1.62106e-16
      286.800   1.60202e-16
      286.900   1.58320e-16
      287.000   1.56460e-16
      287.100   1.54622e-16
      287.200   1.52806e-16
      287.300   1.51012e-16
      287.400   1.49238e-16
      287.500   1.47486e-16
      287.600   1.45755e-16
      287.700   1.44043e-16
      287.800   1.42353e-16
      287.900   1.40683e-16
      288.000   1.39032e-16
      288.100   1.37401e-16
      288.200   1.35791e-16
      288.300   1.34199e-16
      288.400   1.32627e-16
      288.500   1.31073e-16
      288.600   1.29537e-16
      288.700   1.28021e-16
      288.800   1.26522e-16
      288.900   1.25042e-16
      289.000   1.23579e-16
      289.100   1.22133e-16
      289.200   1.20705e-16
      289.300   1.19294e-16
      289.400   1.17900e-16
      289.500   1.16523e-16
      289.600   1.15162e-16
      289.700   1.13819e-16
      289.800   1.12490e-16
      289.900   1.11177e-16
      290.000   1.09882e-16
      290.100   1.08600e-16
      290.200   1.07335e-16
      290.300   1.06085e-16
      290.400   1.04851e-16
      290.500   1.03632e-16
      290.600   1.02426e-16
      290.700   1.01236e-16
      290.800   1.00060e-16
      290.900   9.88981e-17
      291.000   9.77493e-17
      291.100   9.66146e-17
      291.200   9.54939e-17
      291.300   9.43865e-17
      291.400   9.32928e-17
      291.500   9.22117e-17
      291.600   9.11436e-17
      291.700   9.00887e-17
      291.800   8.90459e-17
      291.900   8.80166e-17
      292.000   8.70001e-17
      292.100   8.59953e-17
      292.200   8.50027e-17
      292.300   8.40215e-17
      292.400   8.30521e-17
      292.500   8.20941e-17
      292.600   8.11476e-17
      292.700   8.02125e-17
      292.800   7.92885e-17
      292.900   7.83756e-17
      293.000   7.74736e-17
      293.100   7.65822e-17
      293.200   7.57013e-17
      293.300   7.48306e-17
      293.400   7.39712e-17
      293.500   7.31215e-17
      293.600   7.22822e-17
      293.700   7.14525e-17
      293.800   7.06330e-17
      293.900   6.98231e-17
      294.000   6.90226e-17
      294.100   6.82316e-17
      294.200   6.74503e-17
      294.300   6.66782e-17
      294.400   6.59146e-17
      294.500   6.51603e-17
      294.600   6.44144e-17
      294.700   6.36777e-17
      294.800   6.29495e-17
      294.900   6.22297e-17
      295.000   6.15189e-17
      295.100   6.08166e-17
      295.200   6.01223e-17
      295.300   5.94356e-17
      295.400   5.87573e-17
      295.500   5.80871e-17
      295.600   5.74243e-17
      295.700   5.67694e-17
      295.800   5.61220e-17
      295.900   5.54817e-17
      296.000   5.48493e-17
      296.100   5.42237e-17
      296.200   5.36058e-17
      296.300   5.29949e-17
      296.400   5.23919e-17
      296.500   5.17949e-17
      296.600   5.12051e-17
      296.700   5.06221e-17
      296.800   5.00458e-17
      296.900   4.94760e-17
      297.000   4.89127e-17
      297.100   4.83557e-17
      297.200   4.78052e-17
      297.300   4.72610e-17
      297.400   4.67230e-17
      297.500   4.61908e-17
      297.600   4.56652e-17
      297.700   4.51454e-17
      297.800   4.46315e-17
      297.900   4.41237e-17
      298.000   4.36217e-17
      298.100   4.31251e-17
      298.200   4.26341e-17
      298.300   4.21489e-17
      298.400   4.16689e-17
      298.500   4.11943e-17
      298.600   4.07250e-17
      298.700   4.02610e-17
      298.800   3.98020e-17
      298.900   3.93486e-17
      299.000   3.89006e-17
      299.100   3.84574e-17
      299.200   3.80189e-17
      299.300   3.75855e-17
      299.400   3.71569e-17
      299.500   3.67331e-17
      299.600   3.63140e-17
      299.700   3.58995e-17
      299.800   3.54895e-17
      299.900   3.50844e-17
      300.000   3.46836e-17
      300.100   3.42873e-17
      300.192   3.39268e-17
      300.285   3.35657e-17
      300.377   3.32125e-17
      300.470   3.28593e-17
      300.562   3.25133e-17
      300.654   3.21707e-17
      300.747   3.18281e-17
      300.839   3.14927e-17
      300.932   3.11568e-17
      301.025   3.08246e-17
      301.117   3.04995e-17
      301.210   3.01738e-17
      301.303   2.98519e-17
      301.395   2.95367e-17
      301.488   2.92210e-17
      301.581   2.89088e-17
      301.674   2.85997e-17
      301.766   2.82970e-17
      301.859   2.79941e-17
      301.952   2.76945e-17
      302.045   2.73979e-17
      302.138   2.71232e-17
      302.231   2.68935e-17
      302.324   2.66674e-17
      302.417   2.64433e-17
      302.510   2.62206e-17
      302.603   2.60001e-17
      302.696   2.57810e-17
      302.789   2.55636e-17
      302.882   2.53479e-17
      302.976   2.51319e-17
      303.069   2.49197e-17
      303.162   2.47090e-17
      303.255   2.45000e-17
      303.349   2.42904e-17
      303.442   2.40846e-17
      303.535   2.38806e-17
      303.629   2.36759e-17
      303.722   2.34750e-17
      303.816   2.32736e-17
      303.909   2.30758e-17
      304.003   2.28774e-17
      304.096   2.26828e-17
      304.190   2.24875e-17
      304.283   2.22958e-17
      304.377   2.21037e-17
      304.471   2.19129e-17
      304.564   2.17257e-17
      304.658   2.15382e-17
      304.752   2.13519e-17
      304.846   2.11672e-17
      304.939   2.09859e-17
      305.033   2.08040e-17
      305.127   2.06236e-17
      305.221   2.04447e-17
      305.315   2.02673e-17
      305.409   2.00910e-17
      305.503   1.99163e-17
      305.597   1.97431e-17
      305.691   1.95711e-17
      305.785   1.94006e-17
      305.879   1.92313e-17
      305.973   1.90635e-17
      306.067   1.88969e-17
      306.161   1.87318e-17
      306.255   1.85679e-17
      306.350   1.84037e-17
      306.444   1.82424e-17
      306.538   1.80825e-17
      306.633   1.79223e-17
      306.727   1.77650e-17
      306.821   1.76089e-17
      306.916   1.74525e-17
      307.010   1.73010e-17
      307.105   1.71556e-17
      307.199   1.70139e-17
      307.294   1.68717e-17
      307.388   1.67321e-17
      307.483   1.65922e-17
      307.577   1.64547e-17
      307.672   1.63169e-17
      307.767   1.61801e-17
      307.861   1.60458e-17
      307.956   1.59110e-17
      308.051   1.57773e-17
      308.146   1.56448e-17
      308.240   1.55145e-17
      308.335   1.53839e-17
      308.430   1.52543e-17
      308.525   1.51257e-17
      308.620   1.49982e-17
      308.715   1.48717e-17
      308.810   1.47462e-17
      308.905   1.46216e-17
      309.000   1.44979e-17
      309.095   1.43753e-17
      309.190   1.42538e-17
      309.285   1.41331e-17
      309.380   1.40134e-17
      309.476   1.38935e-17
      309.571   1.37757e-17
      309.666   1.36588e-17
      309.761   1.35429e-17
      309.857   1.34268e-17
      309.952   1.33127e-17
      310.047   1.31996e-17
      310.143   1.30862e-17
      310.238   1.29749e-17
      310.334   1.28634e-17
      310.429   1.27539e-17
      310.525   1.26442e-17
      310.620   1.25365e-17
      310.716   1.24286e-17
      310.811   1.23227e-17
      310.907   1.22166e-17
      311.003   1.21113e-17
      311.098   1.20080e-17
      311.194   1.19044e-17
      311.290   1.18019e-17
      311.386   1.17001e-17
      311.481   1.16002e-17
      311.577   1.15001e-17
      311.673   1.14009e-17
      311.769   1.13025e-17
      311.865   1.12049e-17
      311.961   1.11085e-17
      312.057   1.10144e-17
      312.153   1.09217e-17
      312.249   1.08297e-17
      312.345   1.07385e-17
      312.441   1.06481e-17
      312.537   1.05584e-17
      312.633   1.04695e-17
      312.730   1.03803e-17
      312.826   1.02929e-17
      312.922   1.02062e-17
      313.018   1.01202e-17
      313.115   1.00341e-17
      313.211   9.94954e-18
      313.307   9.86574e-18
      313.404   9.78182e-18
      313.500   9.69941e-18
      313.597   9.61693e-18
      313.693   9.53597e-18
      313.790   9.45487e-18
      313.886   9.37529e-18
      313.983   9.29553e-18
      314.079   9.21729e-18
      314.176   9.13894e-18
      314.273   9.06125e-18
      314.369   8.98512e-18
      314.466   8.90881e-18
      314.563   8.83314e-18
      314.660   8.75813e-18
      314.756   8.68453e-18
      314.853   8.61080e-18
      314.950   8.53774e-18
      315.047   8.46534e-18
      315.144   8.39357e-18
      315.241   8.32241e-18
      315.338   8.25189e-18
      315.435   8.18197e-18
      315.532   8.11265e-18
      315.629   8.04396e-18
      315.726   7.97590e-18
      315.823   7.90837e-18
      315.921   7.84081e-18
      316.018   7.77453e-18
      316.115   7.70884e-18
      316.212   7.64369e-18
      316.310   7.57848e-18
      316.407   7.51449e-18
      316.504   7.45106e-18
      316.602   7.38757e-18
      316.699   7.32532e-18
      316.796   7.26355e-18
      316.894   7.20175e-18
      316.991   7.14126e-18
      317.089   7.08170e-18
      317.187   7.02324e-18
      317.284   6.96584e-18
      317.382   6.90835e-18
      317.479   6.85191e-18
      317.577   6.79540e-18
      317.675   6.73941e-18
      317.773   6.68388e-18
      317.870   6.62943e-18
      317.968   6.57486e-18
      318.066   6.52076e-18
      318.164   6.46715e-18
      318.262   6.41400e-18
      318.360   6.36132e-18
      318.458   6.30913e-18
      318.556   6.25741e-18
      318.654   6.20612e-18
      318.752   6.15524e-18
      318.850   6.10484e-18
      318.948   6.05487e-18
      319.046   6.00533e-18
      319.144   5.95622e-18
      319.242   5.90754e-18
      319.341   5.85880e-18
      319.439   5.81097e-18
      319.537   5.76359e-18
      319.635   5.71659e-18
      319.734   5.66952e-18
      319.832   5.62336e-18
      319.930   5.57756e-18
      320.029   5.53171e-18
      320.127   5.48673e-18
      320.226   5.44170e-18
      320.324   5.39747e-18
      320.423   5.35316e-18
      320.522   5.30932e-18
      320.620   5.26627e-18
      320.719   5.22312e-18
      320.818   5.18038e-18
      320.916   5.13843e-18
      321.015   5.09641e-18
      321.114   5.05474e-18
      321.213   5.01345e-18
      321.311   4.97294e-18
      321.410   4.93237e-18
      321.509   4.89211e-18
      321.608   4.85223e-18
      321.707   4.81269e-18
      321.806   4.77348e-18
      321.905   4.73462e-18
      322.004   4.69609e-18
      322.103   4.65790e-18
      322.202   4.61999e-18
      322.301   4.58245e-18
      322.401   4.54487e-18
      322.500   4.50796e-18
      322.599   4.47138e-18
      322.698   4.43508e-18
      322.798   4.39874e-18
      322.897   4.36308e-18
      322.996   4.32772e-18
      323.096   4.29229e-18
      323.195   4.25752e-18
      323.294   4.22302e-18
      323.394   4.18849e-18
      323.493   4.15459e-18
      323.593   4.12067e-18
      323.692   4.08733e-18
      323.792   4.05395e-18
      323.892   4.02084e-18
      323.991   3.98832e-18
      324.091   3.95579e-18
      324.191   3.92352e-18
      324.291   3.89151e-18
      324.390   3.86010e-18
      324.490   3.82862e-18
      324.590   3.79740e-18
      324.690   3.76645e-18
      324.790   3.73575e-18
      324.890   3.70532e-18
      324.990   3.67513e-18
      325.090   3.64519e-18
      325.190   3.61549e-18
      325.290   3.58605e-18
      325.390   3.55683e-18
      325.490   3.52787e-18
      325.590   3.49916e-18
      325.690   3.47063e-18
      325.790   3.44236e-18
      325.891   3.41405e-18
      325.991   3.38625e-18
      326.091   3.35866e-18
      326.192   3.33104e-18
      326.292   3.30391e-18
      326.392   3.27700e-18
      326.493   3.25004e-18
      326.593   3.22356e-18
      326.694   3.19705e-18
      326.794   3.17099e-18
      326.895   3.14489e-18
      326.995   3.11925e-18
      327.096   3.09357e-18
      327.197   3.06809e-18
      327.297   3.04306e-18
      327.398   3.01800e-18
      327.499   2.99314e-18
      327.599   2.96870e-18
      327.700   2.94422e-18
      327.801   2.91993e-18
      327.902   2.89586e-18
      328.003   2.87196e-18
      328.104   2.84825e-18
      328.205   2.82474e-18
      328.306   2.80142e-18
      328.407   2.77827e-18
      328.508   2.75529e-18
      328.609   2.73250e-18
      328.710   2.70989e-18
      328.811   2.68746e-18
      328.912   2.66522e-18
      329.013   2.64313e-18
      329.115   2.62103e-18
      329.216   2.59930e-18
      329.317   2.57772e-18
      329.419   2.55614e-18
      329.520   2.53491e-18
      329.621   2.51383e-18
      329.723   2.49273e-18
      329.824   2.47201e-18
      329.926   2.45124e-18
      330.027   2.43083e-18
      330.129   2.41038e-18
      330.230   2.39029e-18
      330.332   2.37016e-18
      330.434   2.35018e-18
      330.535   2.33056e-18
      330.637   2.31089e-18
      330.739   2.29137e-18
      330.840   2.27220e-18
      330.942   2.25298e-18
      331.044   2.23392e-18
      331.146   2.21500e-18
      331.248   2.19624e-18
      331.350   2.17763e-18
      331.452   2.15917e-18
      331.554   2.14137e-18
      331.656   2.12449e-18
      331.758   2.10773e-18
      331.860   2.09108e-18
      331.962   2.07456e-18
      332.064   2.05816e-18
      332.166   2.04189e-18
      332.268   2.02571e-18
      332.371   2.00951e-18
      332.473   1.99356e-18
      332.575   1.97772e-18
      332.677   1.96200e-18
      332.780   1.94625e-18
      332.882   1.93076e-18
      332.985   1.91523e-18
      333.087   1.89995e-18
      333.190   1.88464e-18
      333.292   1.86934e-18
      333.395   1.85334e-18
      333.497   1.83738e-18
      333.600   1.82139e-18
      333.702   1.80568e-18
      333.805   1.78994e-18
      333.908   1.77432e-18
      334.011   1.75883e-18
      334.113   1.74360e-18
      334.216   1.72835e-18
      334.319   1.71323e-18
      334.422   1.69821e-18
      334.525   1.68331e-18
      334.628   1.66854e-18
      334.731   1.65389e-18
      334.834   1.63935e-18
      334.937   1.62493e-18
      335.040   1.61062e-18
      335.143   1.59643e-18
      335.246   1.58234e-18
      335.349   1.56837e-18
      335.452   1.55451e-18
      335.555   1.54077e-18
      335.659   1.52700e-18
      335.762   1.51348e-18
      335.865   1.50008e-18
      335.969   1.48664e-18
      336.072   1.47343e-18
      336.175   1.46034e-18
      336.279   1.44724e-18
      336.382   1.43436e-18
      336.486   1.42146e-18
      336.589   1.40879e-18
      336.693   1.39611e-18
      336.796   1.38365e-18
      336.900   1.37118e-18
      337.004   1.35879e-18
      337.107   1.34664e-18
      337.211   1.33447e-18
      337.315   1.32242e-18
      337.419   1.31044e-18
      337.523   1.29856e-18
      337.626   1.28691e-18
      337.730   1.27525e-18
      337.834   1.26367e-18
      337.938   1.25220e-18
      338.042   1.24086e-18
      338.146   1.22977e-18
      338.250   1.21879e-18
      338.354   1.20791e-18
      338.458   1.19710e-18
      338.562   1.18639e-18
      338.667   1.17567e-18
      338.771   1.16514e-18
      338.875   1.15469e-18
      338.979   1.14433e-18
      339.084   1.13398e-18
      339.188   1.12379e-18
      339.292   1.11371e-18
      339.397   1.10360e-18
      339.501   1.09368e-18
      339.606   1.08375e-18
      339.710   1.07399e-18
      339.815   1.06423e-18
      339.919   1.05465e-18
      340.024   1.04505e-18
      340.128   1.03563e-18
      340.233   1.02620e-18
      340.338   1.01686e-18
      340.442   1.00768e-18
      340.547   9.98498e-19
      340.652   9.89393e-19
      340.757   9.80366e-19
      340.862   9.71419e-19
      340.966   9.62639e-19
      341.071   9.53841e-19
      341.176   9.45129e-19
      341.281   9.36494e-19
      341.386   9.27943e-19
      341.491   9.19455e-19
      341.596   9.11057e-19
      341.702   9.02648e-19
      341.807   8.94386e-19
      341.912   8.86206e-19
      342.017   8.78102e-19
      342.122   8.70062e-19
      342.228   8.62022e-19
      342.333   8.54131e-19
      342.438   8.46311e-19
      342.544   8.38493e-19
      342.649   8.30810e-19
      342.754   8.23209e-19
      342.860   8.15594e-19
      342.965   8.08119e-19
      343.071   8.00653e-19
      343.176   7.93320e-19
      343.282   7.85982e-19
      343.388   7.78718e-19
      343.493   7.71634e-19
      343.599   7.64976e-19
      343.705   7.58426e-19
      343.810   7.51982e-19
      343.916   7.45536e-19
      344.022   7.39153e-19
      344.128   7.32819e-19
      344.234   7.26538e-19
      344.340   7.20318e-19
      344.446   7.14143e-19
      344.552   7.08026e-19
      344.658   7.01971e-19
      344.764   6.95963e-19
      344.870   6.90006e-19
      344.976   6.84102e-19
      345.082   6.78250e-19
      345.188   6.72453e-19
      345.294   6.66702e-19
      345.401   6.60949e-19
      345.507   6.55302e-19
      345.613   6.49705e-19
      345.719   6.44157e-19
      345.826   6.38607e-19
      345.932   6.33156e-19
      346.039   6.27706e-19
      346.145   6.22349e-19
      346.252   6.16996e-19
      346.358   6.11739e-19
      346.465   6.06478e-19
      346.571   6.01314e-19
      346.678   5.96147e-19
      346.785   5.91026e-19
      346.891   5.85999e-19
      346.998   5.80972e-19
      347.105   5.75993e-19
      347.212   5.71053e-19
      347.319   5.66161e-19
      347.425   5.61352e-19
      347.532   5.56546e-19
      347.639   5.51787e-19
      347.746   5.47065e-19
      347.853   5.42391e-19
      347.960   5.37754e-19
      348.067   5.33166e-19
      348.174   5.28620e-19
      348.281   5.24106e-19
      348.389   5.19600e-19
      348.496   5.15167e-19
      348.603   5.10785e-19
      348.710   5.06435e-19
      348.818   5.02091e-19
      348.925   4.97819e-19
      349.032   4.93592e-19
      349.140   4.89352e-19
      349.247   4.85187e-19
      349.355   4.81029e-19
      349.462   4.76942e-19
      349.570   4.72851e-19
      349.677   4.68840e-19
      349.785   4.64824e-19
      349.892   4.60885e-19
      350.000   4.56947e-19
      350.100   4.53330e-19
      350.193   4.49997e-19
      350.287   4.46652e-19
      350.380   4.43367e-19
      350.473   4.40112e-19
      350.567   4.36844e-19
      350.660   4.33638e-19
      350.754   4.30423e-19
      350.847   4.27271e-19
      350.941   4.24107e-19
      351.034   4.21000e-19
      351.128   4.17888e-19
      351.221   4.14831e-19
      351.315   4.11769e-19
      351.409   4.08725e-19
      351.502   4.05742e-19
      351.596   4.02748e-19
      351.690   3.99778e-19
      351.783   3.96865e-19
      351.877   3.93946e-19
      351.971   3.91044e-19
      352.065   3.88168e-19
      352.159   3.85316e-19
      352.252   3.82514e-19
      352.346   3.79703e-19
      352.440   3.76916e-19
      352.534   3.74154e-19
      352.628   3.71412e-19
      352.722   3.68689e-19
      352.816   3.65988e-19
      352.910   3.63310e-19
      353.004   3.60653e-19
      353.098   3.58015e-19
      353.192   3.55397e-19
      353.287   3.52775e-19
      353.381   3.50199e-19
      353.475   3.47645e-19
      353.569   3.45107e-19
      353.663   3.42591e-19
      353.758   3.40071e-19
      353.852   3.37596e-19
      353.946   3.35139e-19
      354.041   3.32674e-19
      354.135   3.30255e-19
      354.229   3.27853e-19
      354.324   3.25449e-19
      354.418   3.23083e-19
      354.513   3.20712e-19
      354.607   3.18389e-19
      354.702   3.16047e-19
      354.796   3.13719e-19
      354.891   3.11379e-19
      354.985   3.09086e-19
      355.080   3.06783e-19
      355.175   3.04500e-19
      355.269   3.02257e-19
      355.364   3.00009e-19
      355.459   2.97778e-19
      355.553   2.95588e-19
      355.648   2.93392e-19
      355.743   2.91213e-19
      355.838   2.89049e-19
      355.933   2.86905e-19
      356.027   2.84799e-19
      356.122   2.82686e-19
      356.217   2.80589e-19
      356.312   2.78510e-19
      356.407   2.76446e-19
      356.502   2.74398e-19
      356.597   2.72364e-19
      356.692   2.70349e-19
      356.787   2.68348e-19
      356.882   2.66360e-19
      356.977   2.64390e-19
      357.073   2.62415e-19
      357.168   2.60472e-19
      357.263   2.58546e-19
      357.358   2.56635e-19
      357.453   2.54739e-19
      357.549   2.52837e-19
      357.644   2.50969e-19
      357.739   2.49116e-19
      357.835   2.47257e-19
      357.930   2.45431e-19
      358.025   2.43619e-19
      358.121   2.41801e-19
      358.216   2.40016e-19
      358.312   2.38225e-19
      358.407   2.36468e-19
      358.503   2.34704e-19
      358.598   2.32974e-19
      358.694   2.31237e-19
      358.790   2.29513e-19
      358.885   2.27819e-19
      358.981   2.26121e-19
      359.076   2.24453e-19
      359.172   2.22781e-19
      359.268   2.21119e-19
      359.364   2.19470e-19
      359.459   2.17852e-19
      359.555   2.16229e-19
      359.651   2.14616e-19
      359.747   2.13016e-19
      359.843   2.11429e-19
      359.939   2.09852e-19
      360.035   2.08287e-19
      360.131   2.06734e-19
      360.227   2.05192e-19
      360.323   2.03662e-19
      360.419   2.02144e-19
      360.515   2.00637e-19
      360.611   1.99140e-19
      360.707   1.97652e-19
      360.803   1.96178e-19
      360.899   1.94713e-19
      360.995   1.93261e-19
      361.092   1.91803e-19
      361.188   1.90370e-19
      361.284   1.88948e-19
      361.380   1.87537e-19
      361.477   1.86121e-19
      361.573   1.84730e-19
      361.669   1.83349e-19
      361.766   1.81962e-19
      361.862   1.80601e-19
      361.959   1.79237e-19
      362.055   1.77893e-19
      362.152   1.76548e-19
      362.248   1.75225e-19
      362.345   1.73897e-19
      362.441   1.72594e-19
      362.538   1.71287e-19
      362.635   1.69989e-19
      362.731   1.68712e-19
      362.828   1.67432e-19
      362.925   1.66161e-19
      363.021   1.64913e-19
      363.118   1.63661e-19
      363.215   1.62416e-19
      363.312   1.61180e-19
      363.409   1.59955e-19
      363.505   1.58750e-19
      363.602   1.57541e-19
      363.699   1.56342e-19
      363.796   1.55150e-19
      363.893   1.53966e-19
      363.990   1.52792e-19
      364.087   1.51625e-19
      364.184   1.50467e-19
      364.281   1.49317e-19
      364.378   1.48176e-19
      364.475   1.47042e-19
      364.573   1.45904e-19
      364.670   1.44786e-19
      364.767   1.43677e-19
      364.864   1.42575e-19
      364.961   1.41481e-19
      365.059   1.40384e-19
      365.156   1.39305e-19
      365.253   1.38234e-19
      365.351   1.37160e-19
      365.448   1.36104e-19
      365.545   1.35056e-19
      365.643   1.34004e-19
      365.740   1.32970e-19
      365.838   1.31933e-19
      365.935   1.30914e-19
      366.033   1.29893e-19
      366.130   1.28888e-19
      366.228   1.27880e-19
      366.326   1.26880e-19
      366.423   1.25896e-19
      366.521   1.24910e-19
      366.618   1.23940e-19
      366.716   1.22967e-19
      366.814   1.22001e-19
      366.912   1.21043e-19
      367.010   1.20091e-19
      367.107   1.19156e-19
      367.205   1.18217e-19
      367.303   1.17285e-19
      367.401   1.16359e-19
      367.499   1.15440e-19
      367.597   1.14528e-19
      367.695   1.13622e-19
      367.793   1.12723e-19
      367.891   1.11831e-19
      367.989   1.10945e-19
      368.087   1.10065e-19
      368.185   1.09191e-19
      368.283   1.08323e-19
      368.381   1.07462e-19
      368.480   1.06598e-19
      368.578   1.05749e-19
      368.676   1.04906e-19
      368.774   1.04070e-19
      368.873   1.03231e-19
      368.971   1.02406e-19
      369.069   1.01587e-19
      369.168   1.00766e-19
      369.266   9.99583e-20
      369.364   9.91571e-20
      369.463   9.83541e-20
      369.561   9.75646e-20
      369.660   9.67727e-20
      369.758   9.59944e-20
      369.857   9.52144e-20
      369.955   9.44477e-20
      370.054   9.36783e-20
      370.153   9.29147e-20
      370.251   9.21646e-20
      370.350   9.14127e-20
      370.449   9.06665e-20
      370.547   8.99328e-20
      370.646   8.91964e-20
      370.745   8.84664e-20
      370.844   8.77415e-20
      370.943   8.70221e-20
      371.041   8.63154e-20
      371.140   8.56061e-20
      371.239   8.49022e-20
      371.338   8.42043e-20
      371.437   8.35112e-20
      371.536   8.28231e-20
      371.635   8.21400e-20
      371.734   8.14626e-20
      371.833   8.07901e-20
      371.932   8.01225e-20
      372.032   7.94535e-20
      372.131   7.87955e-20
      372.230   7.81434e-20
      372.329   7.74963e-20
      372.428   7.68538e-20
      372.528   7.62100e-20
      372.627   7.55777e-20
      372.726   7.49500e-20
      372.826   7.43211e-20
      372.925   7.37030e-20
      373.024   7.30895e-20
      373.124   7.24743e-20
      373.223   7.18705e-20
      373.323   7.12654e-20
      373.422   7.06706e-20
      373.522   7.00743e-20
      373.621   6.94891e-20
      373.721   6.89023e-20
      373.820   6.83258e-20
      373.920   6.77479e-20
      374.020   6.71744e-20
      374.119   6.66113e-20
      374.219   6.60467e-20
      374.319   6.54871e-20
      374.419   6.49319e-20
      374.518   6.43861e-20
      374.618   6.38393e-20
      374.718   6.32962e-20
      374.818   6.27582e-20
      374.918   6.22245e-20
      375.018   6.16947e-20
      375.118   6.11695e-20
      375.218   6.06480e-20
      375.318   6.01310e-20
      375.418   5.96178e-20
      375.518   5.91093e-20
      375.618   5.86047e-20
      375.718   5.81037e-20
      375.818   5.76070e-20
      375.918   5.71143e-20
      376.019   5.66210e-20
      376.119   5.61364e-20
      376.219   5.56557e-20
      376.319   5.51787e-20
      376.420   5.47012e-20
      376.520   5.42320e-20
      376.620   5.37670e-20
      376.721   5.33009e-20
      376.821   5.28433e-20
      376.922   5.23849e-20
      377.022   5.19346e-20
      377.122   5.14885e-20
      377.223   5.10415e-20
      377.323   5.06026e-20
      377.424   5.01629e-20
      377.525   4.97270e-20
      377.625   4.92988e-20
      377.726   4.88700e-20
      377.827   4.84451e-20
      377.927   4.80275e-20
      378.028   4.76096e-20
      378.129   4.71950e-20
      378.230   4.68365e-20
      378.330   4.65645e-20
      378.431   4.63046e-20
      378.532   4.60464e-20
      378.633   4.57891e-20
      378.734   4.55334e-20
      378.835   4.52790e-20
      378.936   4.50259e-20
      379.037   4.47741e-20
      379.138   4.45232e-20
      379.239   4.42739e-20
      379.340   4.40263e-20
      379.441   4.37798e-20
      379.542   4.35344e-20
      379.643   4.32904e-20
      379.745   4.30453e-20
      379.846   4.28039e-20
      379.947   4.25635e-20
      380.048   4.23247e-20
      380.150   4.20848e-20
      380.251   4.18485e-20
      380.352   4.16135e-20
      380.454   4.13777e-20
      380.555   4.11451e-20
      380.656   4.09137e-20
      380.758   4.06815e-20
      380.859   4.04528e-20
      380.961   4.02232e-20
      381.062   3.99970e-20
      381.164   3.97699e-20
      381.266   3.95440e-20
      381.367   3.93217e-20
      381.469   3.90984e-20
      381.570   3.88786e-20
      381.672   3.86577e-20
      381.774   3.84381e-20
      381.876   3.82197e-20
      381.977   3.80048e-20
      382.079   3.77889e-20
      382.181   3.75743e-20
      382.283   3.73611e-20
      382.385   3.71489e-20
      382.487   3.69379e-20
      382.589   3.67282e-20
      382.691   3.65196e-20
      382.793   3.63124e-20
      382.895   3.61064e-20
      382.997   3.59016e-20
      383.099   3.56979e-20
      383.201   3.54954e-20
      383.303   3.52942e-20
      383.405   3.50939e-20
      383.507   3.48948e-20
      383.610   3.46951e-20
      383.712   3.44985e-20
      383.814   3.43031e-20
      383.916   3.41090e-20
      384.019   3.39140e-20
      384.121   3.37220e-20
      384.223   3.35310e-20
      384.326   3.33454e-20
      384.428   3.31771e-20
      384.531   3.30123e-20
      384.633   3.28500e-20
      384.736   3.26870e-20
      384.838   3.25262e-20
      384.941   3.23649e-20
      385.043   3.22058e-20
      385.146   3.20465e-20
      385.249   3.18876e-20
      385.351   3.17312e-20
      385.454   3.15742e-20
      385.557   3.14180e-20
      385.660   3.12627e-20
      385.762   3.11097e-20
      385.865   3.09561e-20
      385.968   3.08032e-20
      386.071   3.06511e-20
      386.174   3.04999e-20
      386.277   3.03495e-20
      386.380   3.02000e-20
      386.483   3.00511e-20
      386.586   2.99035e-20
      386.689   2.97564e-20
      386.792   2.96100e-20
      386.895   2.94645e-20
      386.998   2.93199e-20
      387.101   2.91759e-20
      387.204   2.90326e-20
      387.308   2.88890e-20
      387.411   2.87475e-20
      387.514   2.86067e-20
      387.617   2.84666e-20
      387.721   2.83261e-20
      387.824   2.81877e-20
      387.927   2.80500e-20
      388.031   2.79117e-20
      388.134   2.77755e-20
      388.238   2.76389e-20
      388.341   2.75042e-20
      388.445   2.73691e-20
      388.548   2.72357e-20
      388.652   2.71022e-20
      388.755   2.69706e-20
      388.859   2.68382e-20
      388.962   2.67080e-20
      389.066   2.65772e-20
      389.170   2.64472e-20
      389.274   2.63180e-20
      389.377   2.61907e-20
      389.481   2.60627e-20
      389.585   2.59356e-20
      389.689   2.58090e-20
      389.793   2.56833e-20
      389.897   2.55583e-20
      390.000   2.54352e-20
      390.104   2.53116e-20
      390.208   2.51885e-20
      390.312   2.50662e-20
      390.416   2.49443e-20
      390.520   2.48229e-20
      390.625   2.47010e-20
      390.729   2.45810e-20
      390.833   2.44616e-20
      390.937   2.43429e-20
      391.041   2.42249e-20
      391.145   2.41074e-20
      391.250   2.39896e-20
      391.354   2.38734e-20
      391.458   2.37579e-20
      391.563   2.36419e-20
      391.667   2.35278e-20
      391.771   2.34142e-20
      391.876   2.33002e-20
      391.980   2.31878e-20
      392.085   2.30750e-20
      392.189   2.29640e-20
      392.294   2.28524e-20
      392.398   2.27426e-20
      392.503   2.26322e-20
      392.607   2.25235e-20
      392.712   2.24145e-20
      392.817   2.23058e-20
      392.921   2.21990e-20
      393.026   2.20916e-20
      393.131   2.19849e-20
      393.236   2.18785e-20
      393.340   2.17741e-20
      393.445   2.16691e-20
      393.550   2.15646e-20
      393.655   2.14607e-20
      393.760   2.13574e-20
      393.865   2.12546e-20
      393.970   2.11524e-20
      394.075   2.10507e-20
      394.180   2.09497e-20
      394.285   2.08491e-20
      394.390   2.07490e-20
      394.495   2.06494e-20
      394.600   2.05505e-20
      394.706   2.04511e-20
      394.811   2.03533e-20
      394.916   2.02556e-20
      395.021   2.01587e-20
      395.126   2.00624e-20
      395.232   1.99655e-20
      395.337   1.98700e-20
      395.443   1.97742e-20
      395.548   1.96798e-20
      395.653   1.95858e-20
      395.759   1.94915e-20
      395.864   1.93986e-20
      395.970   1.93053e-20
      396.075   1.92133e-20
      396.181   1.91208e-20
      396.286   1.90296e-20
      396.392   1.89383e-20
      396.498   1.88474e-20
      396.603   1.87575e-20
      396.709   1.86674e-20
      396.815   1.85775e-20
      396.921   1.84883e-20
      397.026   1.84004e-20
      397.132   1.83121e-20
      397.238   1.82242e-20
      397.344   1.81367e-20
      397.450   1.80498e-20
      397.556   1.79632e-20
      397.662   1.78770e-20
      397.768   1.77912e-20
      397.874   1.77061e-20
      397.980   1.76210e-20
      398.086   1.75366e-20
      398.192   1.74525e-20
      398.298   1.73687e-20
      398.404   1.72856e-20
      398.510   1.72027e-20
      398.617   1.71194e-20
      398.723   1.70373e-20
      398.829   1.69556e-20
      398.935   1.68742e-20
      399.042   1.67927e-20
      399.148   1.67120e-20
      399.255   1.66311e-20
      399.361   1.65514e-20
      399.467   1.64718e-20
      399.574   1.63922e-20
      399.680   1.63134e-20
      399.787   1.62342e-20
      399.893       0.00000
      400.000       0.00000
