Filter Al-med
observation_date 22-Sept-2019 22:40:45
wavelength effective area 
      1.00000   2.66385e-10
      1.10000   7.49524e-10
      1.20000   1.91513e-09
      1.30000   4.48762e-09
      1.40000   9.94637e-09
      1.50000   2.06562e-08
      1.60000   4.05599e-08
      1.70000   7.60797e-08
      1.80000   1.36313e-07
      1.90000   2.34792e-07
      2.00000   3.89505e-07
      2.10000   6.24949e-07
      2.20000   9.74184e-07
      2.30000   1.47331e-06
      2.40000   2.16533e-06
      2.50000   3.08210e-06
      2.60000   4.35724e-06
      2.70000   5.98536e-06
      2.80000   8.02251e-06
      2.90000   1.05762e-05
      3.00000   1.36499e-05
      3.10000   1.72889e-05
      3.20000   2.15279e-05
      3.30000   2.63703e-05
      3.40000   3.17721e-05
      3.50000   3.76826e-05
      3.60000   4.41701e-05
      3.70000   5.09395e-05
      3.80000   5.80854e-05
      3.90000   6.54363e-05
      4.00000   7.27960e-05
      4.10000   8.00725e-05
      4.20000   8.71698e-05
      4.30000   9.39710e-05
      4.40000   0.000100345
      4.50000   0.000106143
      4.60000   0.000111184
      4.70000   0.000115631
      4.80000   0.000119232
      4.90000   0.000120702
      5.00000   0.000124313
      5.10000   0.000125613
      5.20000   0.000126190
      5.30000   0.000125069
      5.40000   0.000122750
      5.50000   0.000119922
      5.60000   0.000112875
      5.70000   0.000111209
      5.80000   9.78070e-05
      5.90000   0.000111602
      6.00000   0.000111475
      6.10000   0.000105219
      6.20000   9.56083e-05
      6.30000   8.26021e-05
      6.40000   6.78810e-05
      6.50000   5.31743e-05
      6.60000   3.94752e-05
      6.70000   2.87586e-05
      6.80000   2.03520e-05
      6.90000   1.87047e-05
      7.00000   1.41921e-05
      7.10000   1.04062e-05
      7.20000   7.48706e-06
      7.30000   5.33882e-06
      7.40000   3.78003e-06
      7.50000   2.63307e-06
      7.60000   1.80186e-06
      7.70000   1.22872e-06
      7.80000   8.19650e-07
      7.90000   5.41557e-07
      8.00000      0.298908
      8.10000      0.315218
      8.20000      0.308190
      8.30000      0.299691
      8.40000      0.290635
      8.50000      0.281300
      8.60000      0.271648
      8.70000      0.261832
      8.80000      0.251825
      8.90000      0.241732
      9.00000      0.231609
      9.10000      0.221499
      9.20000      0.211446
      9.30000      0.201529
      9.40000      0.191744
      9.50000      0.182117
      9.60000      0.172730
      9.70000      0.163555
      9.80000      0.154577
      9.90000      0.145854
      10.0000      0.137386
      10.1000      0.129176
      10.2000      0.121237
      10.3000      0.113623
      10.4000      0.106343
      10.5000     0.0993685
      10.6000     0.0927045
      10.7000     0.0863501
      10.8000     0.0803176
      10.9000     0.0746175
      11.0000     0.0692142
      11.1000     0.0641036
      11.2000     0.0592781
      11.3000     0.0547327
      11.4000     0.0504579
      11.5000     0.0464440
      11.6000     0.0426829
      11.7000     0.0391786
      11.8000     0.0359113
      11.9000     0.0328937
      12.0000     0.0300692
      12.1000     0.0275615
      12.2000     0.0256905
      12.3000     0.0236381
      12.4000     0.0215443
      12.5000     0.0195925
      12.6000     0.0177851
      12.7000     0.0161169
      12.8000     0.0145819
      12.9000     0.0131733
      13.0000     0.0118831
      13.1000     0.0107030
      13.2000    0.00962561
      13.3000    0.00864345
      13.4000    0.00774980
      13.5000    0.00694011
      13.6000    0.00621281
      13.7000    0.00555376
      13.8000    0.00495726
      13.9000    0.00441826
      14.0000    0.00393182
      14.1000    0.00349324
      14.2000    0.00309834
      14.3000    0.00274331
      14.4000    0.00242465
      14.5000    0.00214101
      14.6000    0.00189013
      14.7000    0.00166566
      14.8000    0.00146504
      14.9000    0.00128596
      15.0000    0.00112637
      15.1000   0.000984388
      15.2000   0.000861234
      15.3000   0.000752355
      15.4000   0.000655720
      15.5000   0.000570101
      15.6000   0.000494406
      15.7000   0.000428695
      15.8000   0.000372016
      15.9000   0.000322027
      16.0000   0.000278025
      16.1000   0.000239389
      16.2000   0.000206680
      16.3000   0.000178244
      16.4000   0.000153217
      16.5000   0.000131249
      16.6000   0.000112470
      16.7000   9.64996e-05
      16.8000   8.24618e-05
      16.9000   7.01688e-05
      17.0000   5.97697e-05
      17.1000   5.09700e-05
      17.2000   4.32533e-05
      17.3000   3.65250e-05
      17.4000   3.10597e-05
      17.5000   2.63987e-05
      17.6000   2.23567e-05
      17.7000   1.89442e-05
      17.8000   1.61943e-05
      17.9000   1.37680e-05
      18.0000   1.16301e-05
      18.1000   9.89035e-06
      18.2000   8.35323e-06
      18.3000   6.98920e-06
      18.4000   5.85246e-06
      18.5000   4.87720e-06
      18.6000   4.01554e-06
      18.7000   3.30090e-06
      18.8000   2.71287e-06
      18.9000   2.20442e-06
      19.0000   1.80143e-06
      19.1000   1.47268e-06
      19.2000   1.18973e-06
      19.3000   9.71954e-07
      19.4000   7.92019e-07
      19.5000   6.37420e-07
      19.6000   5.22709e-07
      19.7000   4.24674e-07
      19.8000   3.41415e-07
      19.9000   2.80251e-07
      20.0000   2.26328e-07
      20.1000   1.82836e-07
      20.2000   1.48668e-07
      20.3000   1.18772e-07
      20.4000   9.63735e-08
      20.5000   7.74282e-08
      20.6000   6.15588e-08
      20.7000   4.98403e-08
      20.8000   3.94675e-08
      20.9000   3.16500e-08
      21.0000   2.52134e-08
      21.1000   1.98135e-08
      21.2000   1.59146e-08
      21.3000   1.24449e-08
      21.4000   9.91775e-09
      21.5000   7.79996e-09
      21.6000   6.09641e-09
      21.7000   4.83079e-09
      21.8000   3.71159e-09
      21.9000   2.95799e-09
      22.0000   2.28252e-09
      22.1000   1.78728e-09
      22.2000   1.38359e-09
      22.3000   1.05943e-09
      22.4000   8.13295e-10
      22.5000   5.92663e-10
      22.6000   4.25331e-10
      22.7000   2.86324e-10
      22.8000   2.74714e-10
      22.9000   2.72219e-10
      23.0000   2.75793e-10
      23.1000   2.56383e-10
      23.2000   2.15354e-10
      23.3000   1.75399e-10
      23.4000   1.36007e-10
      23.5000   1.07811e-10
      23.6000   8.24127e-11
      23.7000   6.54279e-11
      23.8000   4.93826e-11
      23.9000   3.92031e-11
      24.0000   2.95588e-11
      24.1000   2.32717e-11
      24.2000   1.75110e-11
      24.3000   1.36957e-11
      24.4000   1.02986e-11
      24.5000   8.01221e-12
      24.6000   6.02164e-12
      24.7000   4.66317e-12
      24.8000   3.50145e-12
      24.9000   2.70704e-12
      25.0000   2.03212e-12
      25.1000   1.56651e-12
      25.2000   1.17212e-12
      25.3000   9.03032e-13
      25.4000   6.73334e-13
      25.5000   5.18233e-13
      25.6000   3.84027e-13
      25.7000   2.95683e-13
      25.8000   2.17517e-13
      25.9000   1.67681e-13
      26.0000   1.22244e-13
      26.1000   9.44571e-14
      26.2000   6.81479e-14
      26.3000   5.28344e-14
      26.4000   3.76685e-14
      26.5000   2.93289e-14
      26.6000   2.10321e-14
      26.7000   1.61486e-14
      26.8000   1.16892e-14
      26.9000   8.81689e-15
      27.0000   6.44910e-15
      27.1000   4.76917e-15
      27.2000   3.52713e-15
      27.3000   2.55636e-15
      27.4000   1.92193e-15
      27.5000   1.36819e-15
      27.6000   1.03851e-15
      27.7000   7.19570e-16
      27.8000   5.52716e-16
      27.9000   3.86711e-16
      28.0000   2.90523e-16
      28.1000   2.08250e-16
      28.2000   1.51453e-16
      28.3000   1.11675e-16
      28.4000   7.89622e-17
      28.5000   5.94976e-17
      28.6000   4.08421e-17
      28.7000   3.16984e-17
      28.8000   2.26022e-17
      28.9000   1.70384e-17
      29.0000   1.24965e-17
      29.1000   9.03683e-18
      29.2000   6.79794e-18
      29.3000   4.72745e-18
      29.4000   3.63789e-18
      29.5000   2.55410e-18
      29.6000   1.91484e-18
      29.7000   1.39442e-18
      29.8000   9.91239e-19
      29.9000   7.44699e-19
      30.0000   5.04590e-19
      30.1000   3.89383e-19
      30.2000   2.74789e-19
      30.3000   2.01295e-19
      30.4000   1.51372e-19
      30.5000   1.06780e-19
      30.6000   8.12415e-20
      30.7000   5.58394e-20
      30.8000   4.11877e-20
      30.9000   2.98027e-20
      31.0000   2.03929e-20
      31.1000   1.53649e-20
      31.2000   1.03639e-20
      31.3000   7.68361e-21
      31.4000   5.50814e-21
      31.5000   3.73763e-21
      31.6000   2.80563e-21
      31.7000   1.87870e-21
      31.8000   1.37893e-21
      31.9000   9.87919e-22
      32.0000   6.56722e-22
      32.1000   4.94355e-22
      32.2000   3.32870e-22
      32.3000   2.37578e-22
      32.4000   1.71621e-22
      32.5000   1.10294e-22
      32.6000   8.38037e-23
      32.7000   5.74576e-23
      32.8000   3.91961e-23
      32.9000   2.87789e-23
      33.0000   1.84187e-23
      33.1000   1.36220e-23
      33.2000   9.59671e-24
      33.3000   6.16757e-24
      33.4000   4.62865e-24
      33.5000   3.09792e-24
      33.6000   2.11031e-24
      33.7000   1.53533e-24
      33.8000   9.63339e-25
      33.9000   7.07625e-25
      34.0000   4.96548e-25
      34.1000   3.08762e-25
      34.2000   2.31235e-25
      34.3000   1.54087e-25
      34.4000   9.90589e-26
      34.5000   7.23479e-26
      34.6000   4.57701e-26
      34.7000   3.09101e-26
      34.8000   2.15110e-26
      34.9000   1.21583e-26
      35.0000   8.69430e-27
      35.1000   5.85124e-27
      35.2000   3.23555e-27
      35.3000   2.39205e-27
      35.4000   1.55273e-27
      35.5000   8.87061e-28
      35.6000   6.44110e-28
      35.7000   4.02362e-28
      35.8000   2.38075e-28
      35.9000   1.69845e-28
      36.0000   1.01955e-28
      36.1000   6.25681e-29
      36.2000   4.38932e-29
      36.3000   2.53113e-29
      36.4000   1.61048e-29
      36.5000   1.11251e-29
      36.6000   6.17053e-30
      36.7000   4.05948e-30
      36.8000   2.76736e-30
      36.9000   1.48179e-30
      37.0000   1.00249e-30
      37.1000   6.76273e-31
      37.2000   3.51689e-31
      37.3000   2.42545e-31
      37.4000   1.62444e-31
      37.5000   8.27508e-32
      37.6000   5.74810e-32
      37.7000   3.83674e-32
      37.8000   1.93513e-32
      37.9000   1.33410e-32
      38.0000   8.90990e-33
      38.1000   4.50126e-33
      38.2000   3.03032e-33
      38.3000   2.03293e-33
      38.4000   1.04062e-33
      38.5000   6.72975e-34
      38.6000   4.55227e-34
      38.7000   2.38588e-34
      38.8000   1.46014e-34
      38.9000   9.99200e-35
      39.0000   5.40597e-35
      39.1000   3.09165e-35
      39.2000   2.14614e-35
      39.3000   1.20543e-35
      39.4000   6.38013e-36
      39.5000   4.50185e-36
      39.6000   2.63327e-36
      39.7000   1.28151e-36
      39.8000   9.20450e-37
      39.9000   5.61232e-37
      40.0000   2.50195e-37
      40.1000   1.83068e-37
      40.2000   1.16282e-37
      40.3000   4.98450e-38
      40.4000   3.53489e-38
      40.5000   2.33483e-38
      40.6000   1.14087e-38
      40.7000   6.61413e-39
      40.8000   4.53114e-39
      40.9000   2.45897e-39
      41.0000   1.19682e-39
      41.1000   8.48010e-40
      41.2000   5.01030e-40
      41.3000   2.09158e-40
      41.4000   1.52841e-40
      41.5000   9.68045e-41
      41.6000   4.10580e-41
      41.7000   2.64958e-41
      41.8000   1.77741e-41
      41.9000   9.09583e-42
      42.0000   4.41549e-42
      42.1000   3.10528e-42
      42.2000   1.80487e-42
      42.3000   7.03452e-43
      42.4000   5.14277e-43
      42.5000   3.29305e-43
      42.6000   1.44334e-43
      42.7000   8.26766e-44
      42.8000   5.46506e-44
      42.9000   2.94273e-44
      43.0000   1.26117e-44
      43.1000   9.80909e-45
      43.2000   7.00649e-45
      43.3000       0.00000
      43.4000   2.80260e-45
      43.5000   2.80260e-45
      43.6000   2.80260e-45
      43.7000       0.00000
      43.8000       0.00000
      43.9000       0.00000
      44.0000       0.00000
      44.1000       0.00000
      44.2000       0.00000
      44.3000       0.00000
      44.4000       0.00000
      44.5000       0.00000
      44.6000       0.00000
      44.7000       0.00000
      44.8000       0.00000
      44.9000       0.00000
      45.0000       0.00000
      45.1000       0.00000
      45.2000       0.00000
      45.3000       0.00000
      45.4000       0.00000
      45.5000       0.00000
      45.6000       0.00000
      45.7000       0.00000
      45.8000       0.00000
      45.9000       0.00000
      46.0000       0.00000
      46.1000       0.00000
      46.2000       0.00000
      46.3000       0.00000
      46.4000       0.00000
      46.5000       0.00000
      46.6000       0.00000
      46.7000       0.00000
      46.8000       0.00000
      46.9000       0.00000
      47.0000       0.00000
      47.1000       0.00000
      47.2000       0.00000
      47.3000       0.00000
      47.4000       0.00000
      47.5000       0.00000
      47.6000       0.00000
      47.7000       0.00000
      47.8000       0.00000
      47.9000       0.00000
      48.0000       0.00000
      48.1000       0.00000
      48.2000       0.00000
      48.3000       0.00000
      48.4000       0.00000
      48.5000       0.00000
      48.6000       0.00000
      48.7000       0.00000
      48.8000       0.00000
      48.9000       0.00000
      49.0000       0.00000
      49.1000       0.00000
      49.2000       0.00000
      49.3000       0.00000
      49.4000       0.00000
      49.5000       0.00000
      49.6000       0.00000
      49.7000       0.00000
      49.8000       0.00000
      49.9000       0.00000
      50.0000       0.00000
      50.1000       0.00000
      50.2000       0.00000
      50.3000       0.00000
      50.4000       0.00000
      50.5000       0.00000
      50.6000       0.00000
      50.7000       0.00000
      50.8000       0.00000
      50.9000       0.00000
      51.0000       0.00000
      51.1000       0.00000
      51.2000       0.00000
      51.3000       0.00000
      51.4000       0.00000
      51.5000       0.00000
      51.6000       0.00000
      51.7000       0.00000
      51.8000       0.00000
      51.9000       0.00000
      52.0000       0.00000
      52.1000       0.00000
      52.2000       0.00000
      52.3000       0.00000
      52.4000       0.00000
      52.5000       0.00000
      52.6000       0.00000
      52.7000       0.00000
      52.8000       0.00000
      52.9000       0.00000
      53.0000       0.00000
      53.1000       0.00000
      53.2000       0.00000
      53.3000       0.00000
      53.4000       0.00000
      53.5000       0.00000
      53.6000       0.00000
      53.7000       0.00000
      53.8000       0.00000
      53.9000       0.00000
      54.0000       0.00000
      54.1000       0.00000
      54.2000       0.00000
      54.3000       0.00000
      54.4000       0.00000
      54.5000       0.00000
      54.6000       0.00000
      54.7000       0.00000
      54.8000       0.00000
      54.9000       0.00000
      55.0000       0.00000
      55.1000       0.00000
      55.2000       0.00000
      55.3000       0.00000
      55.4000       0.00000
      55.5000       0.00000
      55.6000       0.00000
      55.7000       0.00000
      55.8000       0.00000
      55.9000       0.00000
      56.0000       0.00000
      56.1000       0.00000
      56.2000       0.00000
      56.3000       0.00000
      56.4000       0.00000
      56.5000       0.00000
      56.6000       0.00000
      56.7000       0.00000
      56.8000       0.00000
      56.9000       0.00000
      57.0000       0.00000
      57.1000       0.00000
      57.2000       0.00000
      57.3000       0.00000
      57.4000       0.00000
      57.5000       0.00000
      57.6000       0.00000
      57.7000       0.00000
      57.8000       0.00000
      57.9000       0.00000
      58.0000       0.00000
      58.1000       0.00000
      58.2000       0.00000
      58.3000       0.00000
      58.4000       0.00000
      58.5000       0.00000
      58.6000       0.00000
      58.7000       0.00000
      58.8000       0.00000
      58.9000       0.00000
      59.0000       0.00000
      59.1000       0.00000
      59.2000       0.00000
      59.3000       0.00000
      59.4000       0.00000
      59.5000       0.00000
      59.6000       0.00000
      59.7000       0.00000
      59.8000       0.00000
      59.9000       0.00000
      60.0000       0.00000
      60.1000       0.00000
      60.2000       0.00000
      60.3000       0.00000
      60.4000       0.00000
      60.5000       0.00000
      60.6000       0.00000
      60.7000       0.00000
      60.8000       0.00000
      60.9000       0.00000
      61.0000       0.00000
      61.1000       0.00000
      61.2000       0.00000
      61.3000       0.00000
      61.4000       0.00000
      61.5000       0.00000
      61.6000       0.00000
      61.7000       0.00000
      61.8000       0.00000
      61.9000       0.00000
      62.0000       0.00000
      62.1000       0.00000
      62.2000       0.00000
      62.3000       0.00000
      62.4000       0.00000
      62.5000       0.00000
      62.6000       0.00000
      62.7000       0.00000
      62.8000       0.00000
      62.9000       0.00000
      63.0000       0.00000
      63.1000       0.00000
      63.2000       0.00000
      63.3000       0.00000
      63.4000       0.00000
      63.5000       0.00000
      63.6000       0.00000
      63.7000       0.00000
      63.8000       0.00000
      63.9000       0.00000
      64.0000       0.00000
      64.1000       0.00000
      64.2000       0.00000
      64.3000       0.00000
      64.4000       0.00000
      64.5000       0.00000
      64.6000       0.00000
      64.7000       0.00000
      64.8000       0.00000
      64.9000       0.00000
      65.0000       0.00000
      65.1000       0.00000
      65.2000       0.00000
      65.3000       0.00000
      65.4000       0.00000
      65.5000       0.00000
      65.6000       0.00000
      65.7000       0.00000
      65.8000       0.00000
      65.9000       0.00000
      66.0000       0.00000
      66.1000       0.00000
      66.2000       0.00000
      66.3000       0.00000
      66.4000       0.00000
      66.5000       0.00000
      66.6000       0.00000
      66.7000       0.00000
      66.8000       0.00000
      66.9000       0.00000
      67.0000       0.00000
      67.1000       0.00000
      67.2000       0.00000
      67.3000       0.00000
      67.4000       0.00000
      67.5000       0.00000
      67.6000       0.00000
      67.7000       0.00000
      67.8000       0.00000
      67.9000       0.00000
      68.0000       0.00000
      68.1000       0.00000
      68.2000       0.00000
      68.3000       0.00000
      68.4000       0.00000
      68.5000       0.00000
      68.6000       0.00000
      68.7000       0.00000
      68.8000       0.00000
      68.9000       0.00000
      69.0000       0.00000
      69.1000       0.00000
      69.2000       0.00000
      69.3000       0.00000
      69.4000       0.00000
      69.5000       0.00000
      69.6000       0.00000
      69.7000       0.00000
      69.8000       0.00000
      69.9000       0.00000
      70.0000       0.00000
      70.1000       0.00000
      70.2000       0.00000
      70.3000       0.00000
      70.4000       0.00000
      70.5000       0.00000
      70.6000       0.00000
      70.7000       0.00000
      70.8000       0.00000
      70.9000       0.00000
      71.0000       0.00000
      71.1000       0.00000
      71.2000       0.00000
      71.3000       0.00000
      71.4000       0.00000
      71.5000       0.00000
      71.6000       0.00000
      71.7000       0.00000
      71.8000       0.00000
      71.9000       0.00000
      72.0000       0.00000
      72.1000       0.00000
      72.2000       0.00000
      72.3000       0.00000
      72.4000       0.00000
      72.5000       0.00000
      72.6000       0.00000
      72.7000       0.00000
      72.8000       0.00000
      72.9000       0.00000
      73.0000       0.00000
      73.1000       0.00000
      73.2000       0.00000
      73.3000       0.00000
      73.4000       0.00000
      73.5000       0.00000
      73.6000       0.00000
      73.7000       0.00000
      73.8000       0.00000
      73.9000       0.00000
      74.0000       0.00000
      74.1000       0.00000
      74.2000       0.00000
      74.3000       0.00000
      74.4000       0.00000
      74.5000       0.00000
      74.6000       0.00000
      74.7000       0.00000
      74.8000       0.00000
      74.9000       0.00000
      75.0000       0.00000
      75.1000       0.00000
      75.2000       0.00000
      75.3000       0.00000
      75.4000       0.00000
      75.5000       0.00000
      75.6000       0.00000
      75.7000       0.00000
      75.8000       0.00000
      75.9000       0.00000
      76.0000       0.00000
      76.1000       0.00000
      76.2000       0.00000
      76.3000       0.00000
      76.4000       0.00000
      76.5000       0.00000
      76.6000       0.00000
      76.7000       0.00000
      76.8000       0.00000
      76.9000       0.00000
      77.0000       0.00000
      77.1000       0.00000
      77.2000       0.00000
      77.3000       0.00000
      77.4000       0.00000
      77.5000       0.00000
      77.6000       0.00000
      77.7000       0.00000
      77.8000       0.00000
      77.9000       0.00000
      78.0000       0.00000
      78.1000       0.00000
      78.2000       0.00000
      78.3000       0.00000
      78.4000       0.00000
      78.5000       0.00000
      78.6000       0.00000
      78.7000       0.00000
      78.8000       0.00000
      78.9000       0.00000
      79.0000       0.00000
      79.1000       0.00000
      79.2000       0.00000
      79.3000       0.00000
      79.4000       0.00000
      79.5000       0.00000
      79.6000       0.00000
      79.7000       0.00000
      79.8000       0.00000
      79.9000       0.00000
      80.0000       0.00000
      80.1000       0.00000
      80.2000       0.00000
      80.3000       0.00000
      80.4000       0.00000
      80.5000       0.00000
      80.6000       0.00000
      80.7000       0.00000
      80.8000       0.00000
      80.9000       0.00000
      81.0000       0.00000
      81.1000       0.00000
      81.2000       0.00000
      81.3000       0.00000
      81.4000       0.00000
      81.5000       0.00000
      81.6000       0.00000
      81.7000       0.00000
      81.8000       0.00000
      81.9000       0.00000
      82.0000       0.00000
      82.1000       0.00000
      82.2000       0.00000
      82.3000       0.00000
      82.4000       0.00000
      82.5000       0.00000
      82.6000       0.00000
      82.7000       0.00000
      82.8000       0.00000
      82.9000       0.00000
      83.0000       0.00000
      83.1000       0.00000
      83.2000       0.00000
      83.3000       0.00000
      83.4000       0.00000
      83.5000       0.00000
      83.6000       0.00000
      83.7000       0.00000
      83.8000       0.00000
      83.9000       0.00000
      84.0000       0.00000
      84.1000       0.00000
      84.2000       0.00000
      84.3000       0.00000
      84.4000       0.00000
      84.5000       0.00000
      84.6000       0.00000
      84.7000       0.00000
      84.8000       0.00000
      84.9000       0.00000
      85.0000       0.00000
      85.1000       0.00000
      85.2000       0.00000
      85.3000       0.00000
      85.4000       0.00000
      85.5000       0.00000
      85.6000       0.00000
      85.7000       0.00000
      85.8000       0.00000
      85.9000       0.00000
      86.0000       0.00000
      86.1000       0.00000
      86.2000       0.00000
      86.3000       0.00000
      86.4000       0.00000
      86.5000       0.00000
      86.6000       0.00000
      86.7000       0.00000
      86.8000       0.00000
      86.9000       0.00000
      87.0000       0.00000
      87.1000       0.00000
      87.2000       0.00000
      87.3000       0.00000
      87.4000       0.00000
      87.5000       0.00000
      87.6000       0.00000
      87.7000       0.00000
      87.8000       0.00000
      87.9000       0.00000
      88.0000       0.00000
      88.1000       0.00000
      88.2000       0.00000
      88.3000       0.00000
      88.4000       0.00000
      88.5000       0.00000
      88.6000       0.00000
      88.7000       0.00000
      88.8000       0.00000
      88.9000       0.00000
      89.0000       0.00000
      89.1000       0.00000
      89.2000       0.00000
      89.3000       0.00000
      89.4000       0.00000
      89.5000       0.00000
      89.6000       0.00000
      89.7000       0.00000
      89.8000       0.00000
      89.9000       0.00000
      90.0000       0.00000
      90.1000       0.00000
      90.2000       0.00000
      90.3000       0.00000
      90.4000       0.00000
      90.5000       0.00000
      90.6000       0.00000
      90.7000       0.00000
      90.8000       0.00000
      90.9000       0.00000
      91.0000       0.00000
      91.1000       0.00000
      91.2000       0.00000
      91.3000       0.00000
      91.4000       0.00000
      91.5000       0.00000
      91.6000       0.00000
      91.7000       0.00000
      91.8000       0.00000
      91.9000       0.00000
      92.0000       0.00000
      92.1000       0.00000
      92.2000       0.00000
      92.3000       0.00000
      92.4000       0.00000
      92.5000       0.00000
      92.6000       0.00000
      92.7000       0.00000
      92.8000       0.00000
      92.9000       0.00000
      93.0000       0.00000
      93.1000       0.00000
      93.2000       0.00000
      93.3000       0.00000
      93.4000       0.00000
      93.5000       0.00000
      93.6000       0.00000
      93.7000       0.00000
      93.8000       0.00000
      93.9000       0.00000
      94.0000       0.00000
      94.1000       0.00000
      94.2000       0.00000
      94.3000       0.00000
      94.4000       0.00000
      94.5000       0.00000
      94.6000       0.00000
      94.7000       0.00000
      94.8000       0.00000
      94.9000       0.00000
      95.0000       0.00000
      95.1000       0.00000
      95.2000       0.00000
      95.3000       0.00000
      95.4000       0.00000
      95.5000       0.00000
      95.6000       0.00000
      95.7000       0.00000
      95.8000       0.00000
      95.9000       0.00000
      96.0000       0.00000
      96.1000       0.00000
      96.2000       0.00000
      96.3000       0.00000
      96.4000       0.00000
      96.5000       0.00000
      96.6000       0.00000
      96.7000       0.00000
      96.8000       0.00000
      96.9000       0.00000
      97.0000       0.00000
      97.1000       0.00000
      97.2000       0.00000
      97.3000       0.00000
      97.4000       0.00000
      97.5000       0.00000
      97.6000       0.00000
      97.7000       0.00000
      97.8000       0.00000
      97.9000       0.00000
      98.0000       0.00000
      98.1000       0.00000
      98.2000       0.00000
      98.3000       0.00000
      98.4000       0.00000
      98.5000       0.00000
      98.6000       0.00000
      98.7000       0.00000
      98.8000       0.00000
      98.9000       0.00000
      99.0000       0.00000
      99.1000       0.00000
      99.2000       0.00000
      99.3000       0.00000
      99.4000       0.00000
      99.5000       0.00000
      99.6000       0.00000
      99.7000       0.00000
      99.8000       0.00000
      99.9000       0.00000
      100.000       0.00000
      100.100       0.00000
      100.200       0.00000
      100.300       0.00000
      100.400       0.00000
      100.500       0.00000
      100.600       0.00000
      100.700       0.00000
      100.800       0.00000
      100.900       0.00000
      101.000       0.00000
      101.100       0.00000
      101.200       0.00000
      101.300       0.00000
      101.400       0.00000
      101.500       0.00000
      101.600       0.00000
      101.700       0.00000
      101.800       0.00000
      101.900       0.00000
      102.000       0.00000
      102.100       0.00000
      102.200       0.00000
      102.300       0.00000
      102.400       0.00000
      102.500       0.00000
      102.600       0.00000
      102.700       0.00000
      102.800       0.00000
      102.900       0.00000
      103.000       0.00000
      103.100       0.00000
      103.200       0.00000
      103.300       0.00000
      103.400       0.00000
      103.500       0.00000
      103.600       0.00000
      103.700       0.00000
      103.800       0.00000
      103.900       0.00000
      104.000       0.00000
      104.100       0.00000
      104.200       0.00000
      104.300       0.00000
      104.400       0.00000
      104.500       0.00000
      104.600       0.00000
      104.700       0.00000
      104.800       0.00000
      104.900       0.00000
      105.000       0.00000
      105.100       0.00000
      105.200       0.00000
      105.300       0.00000
      105.400       0.00000
      105.500       0.00000
      105.600       0.00000
      105.700       0.00000
      105.800       0.00000
      105.900       0.00000
      106.000       0.00000
      106.100       0.00000
      106.200       0.00000
      106.300       0.00000
      106.400       0.00000
      106.500       0.00000
      106.600       0.00000
      106.700       0.00000
      106.800       0.00000
      106.900       0.00000
      107.000       0.00000
      107.100       0.00000
      107.200       0.00000
      107.300       0.00000
      107.400       0.00000
      107.500       0.00000
      107.600       0.00000
      107.700       0.00000
      107.800       0.00000
      107.900       0.00000
      108.000       0.00000
      108.100       0.00000
      108.200       0.00000
      108.300       0.00000
      108.400       0.00000
      108.500       0.00000
      108.600       0.00000
      108.700       0.00000
      108.800       0.00000
      108.900       0.00000
      109.000       0.00000
      109.100       0.00000
      109.200       0.00000
      109.300       0.00000
      109.400       0.00000
      109.500       0.00000
      109.600       0.00000
      109.700       0.00000
      109.800       0.00000
      109.900       0.00000
      110.000       0.00000
      110.100       0.00000
      110.200       0.00000
      110.300       0.00000
      110.400       0.00000
      110.500       0.00000
      110.600       0.00000
      110.700       0.00000
      110.800       0.00000
      110.900       0.00000
      111.000       0.00000
      111.100       0.00000
      111.200       0.00000
      111.300       0.00000
      111.400       0.00000
      111.500       0.00000
      111.600       0.00000
      111.700       0.00000
      111.800       0.00000
      111.900       0.00000
      112.000       0.00000
      112.100       0.00000
      112.200       0.00000
      112.300       0.00000
      112.400       0.00000
      112.500       0.00000
      112.600       0.00000
      112.700       0.00000
      112.800       0.00000
      112.900       0.00000
      113.000       0.00000
      113.100       0.00000
      113.200       0.00000
      113.300       0.00000
      113.400       0.00000
      113.500       0.00000
      113.600       0.00000
      113.700       0.00000
      113.800       0.00000
      113.900       0.00000
      114.000       0.00000
      114.100       0.00000
      114.200       0.00000
      114.300       0.00000
      114.400       0.00000
      114.500       0.00000
      114.600       0.00000
      114.700       0.00000
      114.800       0.00000
      114.900       0.00000
      115.000       0.00000
      115.100       0.00000
      115.200       0.00000
      115.300       0.00000
      115.400       0.00000
      115.500       0.00000
      115.600       0.00000
      115.700       0.00000
      115.800       0.00000
      115.900       0.00000
      116.000       0.00000
      116.100       0.00000
      116.200       0.00000
      116.300       0.00000
      116.400       0.00000
      116.500       0.00000
      116.600       0.00000
      116.700       0.00000
      116.800       0.00000
      116.900       0.00000
      117.000       0.00000
      117.100       0.00000
      117.200       0.00000
      117.300       0.00000
      117.400       0.00000
      117.500       0.00000
      117.600       0.00000
      117.700       0.00000
      117.800       0.00000
      117.900       0.00000
      118.000       0.00000
      118.100       0.00000
      118.200       0.00000
      118.300       0.00000
      118.400       0.00000
      118.500       0.00000
      118.600       0.00000
      118.700       0.00000
      118.800       0.00000
      118.900       0.00000
      119.000       0.00000
      119.100       0.00000
      119.200       0.00000
      119.300       0.00000
      119.400       0.00000
      119.500       0.00000
      119.600       0.00000
      119.700       0.00000
      119.800       0.00000
      119.900       0.00000
      120.000       0.00000
      120.100       0.00000
      120.200       0.00000
      120.300       0.00000
      120.400       0.00000
      120.500       0.00000
      120.600       0.00000
      120.700       0.00000
      120.800       0.00000
      120.900       0.00000
      121.000       0.00000
      121.100       0.00000
      121.200       0.00000
      121.300       0.00000
      121.400       0.00000
      121.500       0.00000
      121.600       0.00000
      121.700       0.00000
      121.800       0.00000
      121.900       0.00000
      122.000       0.00000
      122.100       0.00000
      122.200       0.00000
      122.300       0.00000
      122.400       0.00000
      122.500       0.00000
      122.600       0.00000
      122.700       0.00000
      122.800       0.00000
      122.900       0.00000
      123.000       0.00000
      123.100       0.00000
      123.200       0.00000
      123.300       0.00000
      123.400       0.00000
      123.500       0.00000
      123.600       0.00000
      123.700       0.00000
      123.800       0.00000
      123.900       0.00000
      124.000       0.00000
      124.100       0.00000
      124.200       0.00000
      124.300       0.00000
      124.400       0.00000
      124.500       0.00000
      124.600       0.00000
      124.700       0.00000
      124.800       0.00000
      124.900       0.00000
      125.000       0.00000
      125.100       0.00000
      125.200       0.00000
      125.300       0.00000
      125.400       0.00000
      125.500       0.00000
      125.600       0.00000
      125.700       0.00000
      125.800       0.00000
      125.900       0.00000
      126.000       0.00000
      126.100       0.00000
      126.200       0.00000
      126.300       0.00000
      126.400       0.00000
      126.500       0.00000
      126.600       0.00000
      126.700       0.00000
      126.800       0.00000
      126.900       0.00000
      127.000       0.00000
      127.100       0.00000
      127.200       0.00000
      127.300       0.00000
      127.400       0.00000
      127.500       0.00000
      127.600       0.00000
      127.700       0.00000
      127.800       0.00000
      127.900       0.00000
      128.000       0.00000
      128.100       0.00000
      128.200       0.00000
      128.300       0.00000
      128.400       0.00000
      128.500       0.00000
      128.600       0.00000
      128.700       0.00000
      128.800       0.00000
      128.900       0.00000
      129.000       0.00000
      129.100       0.00000
      129.200       0.00000
      129.300       0.00000
      129.400       0.00000
      129.500       0.00000
      129.600       0.00000
      129.700       0.00000
      129.800       0.00000
      129.900       0.00000
      130.000       0.00000
      130.100       0.00000
      130.200       0.00000
      130.300       0.00000
      130.400       0.00000
      130.500       0.00000
      130.600       0.00000
      130.700       0.00000
      130.800       0.00000
      130.900       0.00000
      131.000       0.00000
      131.100       0.00000
      131.200       0.00000
      131.300       0.00000
      131.400       0.00000
      131.500       0.00000
      131.600       0.00000
      131.700       0.00000
      131.800       0.00000
      131.900       0.00000
      132.000       0.00000
      132.100       0.00000
      132.200       0.00000
      132.300       0.00000
      132.400       0.00000
      132.500       0.00000
      132.600       0.00000
      132.700       0.00000
      132.800       0.00000
      132.900       0.00000
      133.000       0.00000
      133.100       0.00000
      133.200       0.00000
      133.300       0.00000
      133.400       0.00000
      133.500       0.00000
      133.600       0.00000
      133.700       0.00000
      133.800       0.00000
      133.900       0.00000
      134.000       0.00000
      134.100       0.00000
      134.200       0.00000
      134.300       0.00000
      134.400       0.00000
      134.500       0.00000
      134.600       0.00000
      134.700       0.00000
      134.800       0.00000
      134.900       0.00000
      135.000       0.00000
      135.100       0.00000
      135.200       0.00000
      135.300       0.00000
      135.400       0.00000
      135.500       0.00000
      135.600       0.00000
      135.700       0.00000
      135.800       0.00000
      135.900       0.00000
      136.000       0.00000
      136.100       0.00000
      136.200       0.00000
      136.300       0.00000
      136.400       0.00000
      136.500       0.00000
      136.600       0.00000
      136.700       0.00000
      136.800       0.00000
      136.900       0.00000
      137.000       0.00000
      137.100       0.00000
      137.200       0.00000
      137.300       0.00000
      137.400       0.00000
      137.500       0.00000
      137.600       0.00000
      137.700       0.00000
      137.800       0.00000
      137.900       0.00000
      138.000       0.00000
      138.100       0.00000
      138.200       0.00000
      138.300       0.00000
      138.400       0.00000
      138.500       0.00000
      138.600       0.00000
      138.700       0.00000
      138.800       0.00000
      138.900       0.00000
      139.000       0.00000
      139.100       0.00000
      139.200       0.00000
      139.300       0.00000
      139.400       0.00000
      139.500       0.00000
      139.600       0.00000
      139.700       0.00000
      139.800       0.00000
      139.900       0.00000
      140.000       0.00000
      140.100       0.00000
      140.200       0.00000
      140.300       0.00000
      140.400       0.00000
      140.500       0.00000
      140.600       0.00000
      140.700       0.00000
      140.800       0.00000
      140.900       0.00000
      141.000       0.00000
      141.100       0.00000
      141.200       0.00000
      141.300       0.00000
      141.400       0.00000
      141.500       0.00000
      141.600       0.00000
      141.700       0.00000
      141.800       0.00000
      141.900       0.00000
      142.000       0.00000
      142.100       0.00000
      142.200       0.00000
      142.300       0.00000
      142.400       0.00000
      142.500       0.00000
      142.600       0.00000
      142.700       0.00000
      142.800       0.00000
      142.900       0.00000
      143.000       0.00000
      143.100       0.00000
      143.200       0.00000
      143.300       0.00000
      143.400       0.00000
      143.500       0.00000
      143.600       0.00000
      143.700       0.00000
      143.800       0.00000
      143.900       0.00000
      144.000       0.00000
      144.100       0.00000
      144.200       0.00000
      144.300       0.00000
      144.400       0.00000
      144.500       0.00000
      144.600       0.00000
      144.700       0.00000
      144.800       0.00000
      144.900       0.00000
      145.000       0.00000
      145.100       0.00000
      145.200       0.00000
      145.300       0.00000
      145.400       0.00000
      145.500       0.00000
      145.600       0.00000
      145.700       0.00000
      145.800       0.00000
      145.900       0.00000
      146.000       0.00000
      146.100       0.00000
      146.200       0.00000
      146.300       0.00000
      146.400       0.00000
      146.500       0.00000
      146.600       0.00000
      146.700       0.00000
      146.800       0.00000
      146.900       0.00000
      147.000       0.00000
      147.100       0.00000
      147.200       0.00000
      147.300       0.00000
      147.400       0.00000
      147.500       0.00000
      147.600       0.00000
      147.700       0.00000
      147.800       0.00000
      147.900       0.00000
      148.000       0.00000
      148.100       0.00000
      148.200       0.00000
      148.300       0.00000
      148.400       0.00000
      148.500       0.00000
      148.600       0.00000
      148.700       0.00000
      148.800       0.00000
      148.900       0.00000
      149.000       0.00000
      149.100       0.00000
      149.200       0.00000
      149.300       0.00000
      149.400       0.00000
      149.500       0.00000
      149.600       0.00000
      149.700       0.00000
      149.800       0.00000
      149.900       0.00000
      150.000       0.00000
      150.100       0.00000
      150.200       0.00000
      150.300       0.00000
      150.400       0.00000
      150.500       0.00000
      150.600       0.00000
      150.700       0.00000
      150.800       0.00000
      150.900       0.00000
      151.000       0.00000
      151.100       0.00000
      151.200       0.00000
      151.300       0.00000
      151.400       0.00000
      151.500       0.00000
      151.600       0.00000
      151.700       0.00000
      151.800       0.00000
      151.900       0.00000
      152.000       0.00000
      152.100       0.00000
      152.200       0.00000
      152.300       0.00000
      152.400       0.00000
      152.500       0.00000
      152.600       0.00000
      152.700       0.00000
      152.800       0.00000
      152.900       0.00000
      153.000       0.00000
      153.100       0.00000
      153.200       0.00000
      153.300       0.00000
      153.400       0.00000
      153.500       0.00000
      153.600       0.00000
      153.700       0.00000
      153.800       0.00000
      153.900       0.00000
      154.000       0.00000
      154.100       0.00000
      154.200       0.00000
      154.300       0.00000
      154.400       0.00000
      154.500       0.00000
      154.600       0.00000
      154.700       0.00000
      154.800       0.00000
      154.900       0.00000
      155.000       0.00000
      155.100       0.00000
      155.200       0.00000
      155.300       0.00000
      155.400       0.00000
      155.500       0.00000
      155.600       0.00000
      155.700       0.00000
      155.800       0.00000
      155.900       0.00000
      156.000       0.00000
      156.100       0.00000
      156.200       0.00000
      156.300       0.00000
      156.400       0.00000
      156.500       0.00000
      156.600       0.00000
      156.700       0.00000
      156.800       0.00000
      156.900       0.00000
      157.000       0.00000
      157.100       0.00000
      157.200       0.00000
      157.300       0.00000
      157.400       0.00000
      157.500       0.00000
      157.600       0.00000
      157.700       0.00000
      157.800       0.00000
      157.900       0.00000
      158.000       0.00000
      158.100       0.00000
      158.200       0.00000
      158.300       0.00000
      158.400       0.00000
      158.500       0.00000
      158.600       0.00000
      158.700       0.00000
      158.800       0.00000
      158.900       0.00000
      159.000       0.00000
      159.100       0.00000
      159.200       0.00000
      159.300       0.00000
      159.400       0.00000
      159.500       0.00000
      159.600       0.00000
      159.700       0.00000
      159.800       0.00000
      159.900       0.00000
      160.000       0.00000
      160.100       0.00000
      160.200       0.00000
      160.300       0.00000
      160.400       0.00000
      160.500       0.00000
      160.600       0.00000
      160.700       0.00000
      160.800       0.00000
      160.900       0.00000
      161.000       0.00000
      161.100       0.00000
      161.200       0.00000
      161.300       0.00000
      161.400       0.00000
      161.500       0.00000
      161.600       0.00000
      161.700       0.00000
      161.800       0.00000
      161.900       0.00000
      162.000       0.00000
      162.100       0.00000
      162.200       0.00000
      162.300       0.00000
      162.400       0.00000
      162.500       0.00000
      162.600       0.00000
      162.700       0.00000
      162.800       0.00000
      162.900       0.00000
      163.000       0.00000
      163.100       0.00000
      163.200       0.00000
      163.300       0.00000
      163.400       0.00000
      163.500       0.00000
      163.600       0.00000
      163.700       0.00000
      163.800       0.00000
      163.900       0.00000
      164.000       0.00000
      164.100       0.00000
      164.200       0.00000
      164.300       0.00000
      164.400       0.00000
      164.500       0.00000
      164.600       0.00000
      164.700       0.00000
      164.800       0.00000
      164.900       0.00000
      165.000       0.00000
      165.100       0.00000
      165.200       0.00000
      165.300       0.00000
      165.400       0.00000
      165.500       0.00000
      165.600       0.00000
      165.700       0.00000
      165.800       0.00000
      165.900       0.00000
      166.000       0.00000
      166.100       0.00000
      166.200       0.00000
      166.300       0.00000
      166.400       0.00000
      166.500       0.00000
      166.600       0.00000
      166.700       0.00000
      166.800       0.00000
      166.900       0.00000
      167.000       0.00000
      167.100       0.00000
      167.200       0.00000
      167.300       0.00000
      167.400       0.00000
      167.500       0.00000
      167.600       0.00000
      167.700       0.00000
      167.800       0.00000
      167.900       0.00000
      168.000       0.00000
      168.100       0.00000
      168.200       0.00000
      168.300       0.00000
      168.400       0.00000
      168.500       0.00000
      168.600       0.00000
      168.700       0.00000
      168.800       0.00000
      168.900       0.00000
      169.000       0.00000
      169.100       0.00000
      169.200       0.00000
      169.300       0.00000
      169.400       0.00000
      169.500       0.00000
      169.600       0.00000
      169.700       0.00000
      169.800       0.00000
      169.900       0.00000
      170.000       0.00000
      170.100       0.00000
      170.200       0.00000
      170.300       0.00000
      170.400       0.00000
      170.500   2.65692e-31
      170.600   1.22695e-19
      170.700   1.29710e-12
      170.800   1.09975e-10
      170.900   1.79813e-10
      171.000   1.81398e-10
      171.100   1.82982e-10
      171.200   1.84566e-10
      171.300   1.86150e-10
      171.400   1.87732e-10
      171.500   1.89313e-10
      171.600   1.90893e-10
      171.700   1.92476e-10
      171.800   1.94060e-10
      171.900   1.95647e-10
      172.000   1.97239e-10
      172.100   1.98841e-10
      172.200   2.00451e-10
      172.300   2.02063e-10
      172.400   2.03649e-10
      172.500   2.05237e-10
      172.600   2.06839e-10
      172.700   2.08452e-10
      172.800   2.10076e-10
      172.900   2.11716e-10
      173.000   2.13366e-10
      173.100   2.15029e-10
      173.200   2.16707e-10
      173.300   2.18398e-10
      173.400   2.20105e-10
      173.500   2.21825e-10
      173.600   2.23560e-10
      173.700   2.25308e-10
      173.800   2.27073e-10
      173.900   2.28848e-10
      174.000   2.30638e-10
      174.100   2.32446e-10
      174.200   2.34263e-10
      174.300   2.36092e-10
      174.400   2.37936e-10
      174.500   2.39790e-10
      174.600   2.41659e-10
      174.700   2.43539e-10
      174.800   2.45429e-10
      174.900   2.47330e-10
      175.000   2.49244e-10
      175.100   2.51164e-10
      175.200   2.53107e-10
      175.300   2.55056e-10
      175.400   2.57019e-10
      175.500   2.58990e-10
      175.600   2.60970e-10
      175.700   2.62961e-10
      175.800   2.64966e-10
      175.900   2.66978e-10
      176.000   2.68998e-10
      176.100   2.71031e-10
      176.200   2.73073e-10
      176.300   2.75128e-10
      176.400   2.77191e-10
      176.500   2.79264e-10
      176.600   2.81351e-10
      176.700   2.83446e-10
      176.800   2.85550e-10
      176.900   2.87664e-10
      177.000   2.89791e-10
      177.100   2.91928e-10
      177.200   2.94072e-10
      177.300   2.96226e-10
      177.400   2.98393e-10
      177.500   3.00567e-10
      177.600   3.02750e-10
      177.700   3.04942e-10
      177.800   3.07141e-10
      177.900   3.09351e-10
      178.000   3.11590e-10
      178.100   3.13837e-10
      178.200   3.16095e-10
      178.300   3.18363e-10
      178.400   3.20637e-10
      178.500   3.22920e-10
      178.600   3.25213e-10
      178.700   3.27518e-10
      178.800   3.29828e-10
      178.900   3.32145e-10
      179.000   3.34471e-10
      179.100   3.36808e-10
      179.200   3.39157e-10
      179.300   3.41513e-10
      179.400   3.43879e-10
      179.500   3.46255e-10
      179.600   3.48649e-10
      179.700   3.51048e-10
      179.800   3.53459e-10
      179.900   3.55883e-10
      180.000   3.58324e-10
      180.100   3.60773e-10
      180.200   3.63237e-10
      180.300   3.65714e-10
      180.400   3.68210e-10
      180.500   3.70721e-10
      180.600   3.73243e-10
      180.700   3.75781e-10
      180.800   3.78367e-10
      180.900   3.81025e-10
      181.000   3.83725e-10
      181.100   3.86438e-10
      181.200   3.89174e-10
      181.300   3.91931e-10
      181.400   3.94702e-10
      181.500   3.97490e-10
      181.600   4.00298e-10
      181.700   4.03128e-10
      181.800   4.05971e-10
      181.900   4.08833e-10
      182.000   4.11716e-10
      182.100   4.14613e-10
      182.200   4.17535e-10
      182.300   4.20470e-10
      182.400   4.23421e-10
      182.500   4.26390e-10
      182.600   4.29381e-10
      182.700   4.32384e-10
      182.800   4.35401e-10
      182.900   4.38438e-10
      183.000   4.41491e-10
      183.100   4.44558e-10
      183.200   4.47640e-10
      183.300   4.50740e-10
      183.400   4.53857e-10
      183.500   4.56987e-10
      183.600   4.60133e-10
      183.700   4.63425e-10
      183.800   4.67291e-10
      183.900   4.71524e-10
      184.000   4.75779e-10
      184.100   4.80074e-10
      184.200   4.84395e-10
      184.300   4.88753e-10
      184.400   4.93140e-10
      184.500   4.97556e-10
      184.600   5.02003e-10
      184.700   5.06486e-10
      184.800   5.11000e-10
      184.900   5.15542e-10
      185.000   5.20116e-10
      185.100   5.24726e-10
      185.200   5.29369e-10
      185.300   5.34039e-10
      185.400   5.38740e-10
      185.500   5.43471e-10
      185.600   5.48237e-10
      185.700   5.53040e-10
      185.800   5.57872e-10
      185.900   5.62731e-10
      186.000   5.67631e-10
      186.100   5.72554e-10
      186.200   5.77504e-10
      186.300   5.82484e-10
      186.400   5.87497e-10
      186.500   5.92541e-10
      186.600   5.97608e-10
      186.700   6.02698e-10
      186.800   6.07814e-10
      186.900   6.12963e-10
      187.000   6.18139e-10
      187.100   6.23333e-10
      187.200   6.28560e-10
      187.300   6.33819e-10
      187.400   6.39100e-10
      187.500   6.44407e-10
      187.600   6.49738e-10
      187.700   6.55096e-10
      187.800   6.60486e-10
      187.900   6.65904e-10
      188.000   6.71342e-10
      188.100   6.76806e-10
      188.200   6.82301e-10
      188.300   6.87828e-10
      188.400   6.93386e-10
      188.500   6.98970e-10
      188.600   7.04584e-10
      188.700   7.10238e-10
      188.800   7.15918e-10
      188.900   7.21627e-10
      189.000   7.27369e-10
      189.100   7.33153e-10
      189.200   7.38969e-10
      189.300   7.44815e-10
      189.400   7.50696e-10
      189.500   7.56615e-10
      189.600   7.62581e-10
      189.700   7.68573e-10
      189.800   7.74671e-10
      189.900   7.80818e-10
      190.000   7.87015e-10
      190.100   7.93246e-10
      190.200   7.99520e-10
      190.300   8.05832e-10
      190.400   8.12190e-10
      190.500   8.18591e-10
      190.600   8.25031e-10
      190.700   8.31512e-10
      190.800   8.38034e-10
      190.900   8.44600e-10
      191.000   8.51222e-10
      191.100   8.57879e-10
      191.200   8.64581e-10
      191.300   8.71323e-10
      191.400   8.78113e-10
      191.500   8.84947e-10
      191.600   8.91819e-10
      191.700   8.98733e-10
      191.800   9.05698e-10
      191.900   9.12699e-10
      192.000   9.19739e-10
      192.100   9.26824e-10
      192.200   9.33961e-10
      192.300   9.41138e-10
      192.400   9.48369e-10
      192.500   9.55640e-10
      192.600   9.62949e-10
      192.700   9.70303e-10
      192.800   9.77328e-10
      192.900   9.83437e-10
      193.000   9.89479e-10
      193.100   9.95554e-10
      193.200   1.00167e-09
      193.300   1.00781e-09
      193.400   1.01397e-09
      193.500   1.02017e-09
      193.600   1.02640e-09
      193.700   1.03267e-09
      193.800   1.03896e-09
      193.900   1.04527e-09
      194.000   1.05162e-09
      194.100   1.05802e-09
      194.200   1.06444e-09
      194.300   1.07089e-09
      194.400   1.07738e-09
      194.500   1.08390e-09
      194.600   1.09045e-09
      194.700   1.09703e-09
      194.800   1.10363e-09
      194.900   1.11027e-09
      195.000   1.11694e-09
      195.100   1.12366e-09
      195.200   1.13039e-09
      195.300   1.13714e-09
      195.400   1.14393e-09
      195.500   1.15074e-09
      195.600   1.15759e-09
      195.700   1.16444e-09
      195.800   1.17125e-09
      195.900   1.17752e-09
      196.000   1.16454e-09
      196.100   1.15145e-09
      196.200   1.13850e-09
      196.300   1.12568e-09
      196.400   1.11300e-09
      196.500   1.10044e-09
      196.600   1.08802e-09
      196.700   1.07572e-09
      196.800   1.06356e-09
      196.900   1.05153e-09
      197.000   1.03962e-09
      197.100   1.02783e-09
      197.200   1.01616e-09
      197.300   1.00461e-09
      197.400   9.93168e-10
      197.500   9.81846e-10
      197.600   9.70643e-10
      197.700   9.59565e-10
      197.800   9.48607e-10
      197.900   9.37757e-10
      198.000   9.27019e-10
      198.100   9.16393e-10
      198.200   9.05875e-10
      198.300   8.95468e-10
      198.400   8.85172e-10
      198.500   8.74994e-10
      198.600   8.64928e-10
      198.700   8.54968e-10
      198.800   8.45117e-10
      198.900   8.35373e-10
      199.000   8.25731e-10
      199.100   8.16194e-10
      199.200   8.06766e-10
      199.300   7.97451e-10
      199.400   7.88243e-10
      199.500   7.79138e-10
      199.600   7.70131e-10
      199.700   7.61225e-10
      199.800   7.52420e-10
      199.900   7.43713e-10
      200.000   7.35102e-10
      200.100   7.26637e-10
      200.200   7.18230e-10
      200.300   7.09925e-10
      200.400   7.01712e-10
      200.500   6.93592e-10
      200.600   6.85568e-10
      200.700   6.77635e-10
      200.800   6.69788e-10
      200.900   6.62039e-10
      201.000   6.54379e-10
      201.100   6.46808e-10
      201.200   6.39326e-10
      201.300   6.31929e-10
      201.400   6.24621e-10
      201.500   6.17393e-10
      201.600   6.10249e-10
      201.700   6.03189e-10
      201.800   5.96210e-10
      201.900   5.89310e-10
      202.000   5.82499e-10
      202.100   5.75764e-10
      202.200   5.69109e-10
      202.300   5.62576e-10
      202.400   5.56212e-10
      202.500   5.49947e-10
      202.600   5.43748e-10
      202.700   5.37626e-10
      202.800   5.31574e-10
      202.900   5.25593e-10
      203.000   5.19682e-10
      203.100   5.13843e-10
      203.200   5.08068e-10
      203.300   5.02360e-10
      203.400   4.96719e-10
      203.500   4.91143e-10
      203.600   4.85632e-10
      203.700   4.80188e-10
      203.800   4.74808e-10
      203.900   4.69496e-10
      204.000   4.64245e-10
      204.100   4.59056e-10
      204.200   4.53930e-10
      204.300   4.48864e-10
      204.400   4.43858e-10
      204.500   4.38911e-10
      204.600   4.34022e-10
      204.700   4.29191e-10
      204.800   4.24421e-10
      204.900   4.19708e-10
      205.000   4.15050e-10
      205.100   4.10448e-10
      205.200   4.05898e-10
      205.300   4.01404e-10
      205.400   3.96961e-10
      205.500   3.92570e-10
      205.600   3.87929e-10
      205.700   3.83069e-10
      205.800   3.78231e-10
      205.900   3.73458e-10
      206.000   3.68749e-10
      206.100   3.64100e-10
      206.200   3.59508e-10
      206.300   3.54976e-10
      206.400   3.50502e-10
      206.500   3.46082e-10
      206.600   3.41719e-10
      206.700   3.37411e-10
      206.800   3.33154e-10
      206.900   3.28951e-10
      207.000   3.24801e-10
      207.100   3.20703e-10
      207.200   3.16657e-10
      207.300   3.12658e-10
      207.400   3.08709e-10
      207.500   3.04806e-10
      207.600   3.00952e-10
      207.700   2.97143e-10
      207.800   2.93380e-10
      207.900   2.89662e-10
      208.000   2.85989e-10
      208.100   2.82360e-10
      208.200   2.78773e-10
      208.300   2.75230e-10
      208.400   2.71731e-10
      208.500   2.68275e-10
      208.600   2.64858e-10
      208.700   2.61482e-10
      208.800   2.58146e-10
      208.900   2.54506e-10
      209.000   2.50294e-10
      209.100   2.46001e-10
      209.200   2.41778e-10
      209.300   2.37624e-10
      209.400   2.33538e-10
      209.500   2.29519e-10
      209.600   2.25567e-10
      209.700   2.21681e-10
      209.800   2.17862e-10
      209.900   2.14104e-10
      210.000   2.10410e-10
      210.100   2.06777e-10
      210.200   2.03204e-10
      210.300   1.99690e-10
      210.400   1.96235e-10
      210.500   1.92838e-10
      210.600   1.89497e-10
      210.700   1.86212e-10
      210.800   1.82982e-10
      210.900   1.79806e-10
      211.000   1.76683e-10
      211.100   1.73614e-10
      211.200   1.70595e-10
      211.300   1.67630e-10
      211.400   1.64716e-10
      211.500   1.61849e-10
      211.600   1.59032e-10
      211.700   1.56263e-10
      211.800   1.53539e-10
      211.900   1.50861e-10
      212.000   1.48230e-10
      212.100   1.45643e-10
      212.200   1.43099e-10
      212.300   1.40599e-10
      212.400   1.38141e-10
      212.500   1.35725e-10
      212.600   1.33350e-10
      212.700   1.31015e-10
      212.800   1.28721e-10
      212.900   1.26466e-10
      213.000   1.24248e-10
      213.100   1.22071e-10
      213.200   1.19931e-10
      213.300   1.17827e-10
      213.400   1.15759e-10
      213.500   1.13727e-10
      213.600   1.11729e-10
      213.700   1.09767e-10
      213.800   1.07837e-10
      213.900   1.05942e-10
      214.000   1.04079e-10
      214.100   1.02248e-10
      214.200   1.00450e-10
      214.300   9.86822e-11
      214.400   9.69451e-11
      214.500   9.52385e-11
      214.600   9.35621e-11
      214.700   9.19146e-11
      214.800   9.02961e-11
      214.900   8.87065e-11
      215.000   8.71439e-11
      215.100   8.56095e-11
      215.200   8.41024e-11
      215.300   8.26228e-11
      215.400   8.11687e-11
      215.500   7.97405e-11
      215.600   7.83386e-11
      215.700   7.69603e-11
      215.800   7.56066e-11
      215.900   7.42776e-11
      216.000   7.29718e-11
      216.100   7.16891e-11
      216.200   7.04294e-11
      216.300   6.91922e-11
      216.400   6.79773e-11
      216.500   6.67836e-11
      216.600   6.56114e-11
      216.700   6.44604e-11
      216.800   6.33295e-11
      216.900   6.22190e-11
      217.000   6.11282e-11
      217.100   6.00566e-11
      217.200   5.90043e-11
      217.300   5.79706e-11
      217.400   5.69551e-11
      217.500   5.59581e-11
      217.600   5.49785e-11
      217.700   5.40157e-11
      217.800   5.30705e-11
      217.900   5.21422e-11
      218.000   5.12304e-11
      218.100   5.03344e-11
      218.200   4.94543e-11
      218.300   4.85898e-11
      218.400   4.77406e-11
      218.500   4.69057e-11
      218.600   4.60858e-11
      218.700   4.52800e-11
      218.800   4.44882e-11
      218.900   4.37104e-11
      219.000   4.29459e-11
      219.100   4.21945e-11
      219.200   4.14563e-11
      219.300   4.07307e-11
      219.400   4.00175e-11
      219.500   3.93166e-11
      219.600   3.86279e-11
      219.700   3.79510e-11
      219.800   3.72859e-11
      219.900   3.66321e-11
      220.000   3.59894e-11
      220.100   3.53578e-11
      220.200   3.47370e-11
      220.300   3.41269e-11
      220.400   3.35273e-11
      220.500   3.29380e-11
      220.600   3.23589e-11
      220.700   3.17895e-11
      220.800   3.12297e-11
      220.900   3.06799e-11
      221.000   3.01392e-11
      221.100   2.96077e-11
      221.200   2.90856e-11
      221.300   2.85724e-11
      221.400   2.80679e-11
      221.500   2.75722e-11
      221.600   2.70849e-11
      221.700   2.66059e-11
      221.800   2.61350e-11
      221.900   2.56724e-11
      222.000   2.52178e-11
      222.100   2.47708e-11
      222.200   2.43317e-11
      222.300   2.39000e-11
      222.400   2.34758e-11
      222.500   2.30588e-11
      222.600   2.26492e-11
      222.700   2.22465e-11
      222.800   2.18506e-11
      222.900   2.14616e-11
      223.000   2.10793e-11
      223.100   2.07036e-11
      223.200   2.03344e-11
      223.300   1.99715e-11
      223.400   1.96150e-11
      223.500   1.92645e-11
      223.600   1.89202e-11
      223.700   1.85818e-11
      223.800   1.82492e-11
      223.900   1.79226e-11
      224.000   1.76015e-11
      224.100   1.72859e-11
      224.200   1.69758e-11
      224.300   1.66711e-11
      224.400   1.63716e-11
      224.500   1.60774e-11
      224.600   1.57882e-11
      224.700   1.55042e-11
      224.800   1.52250e-11
      224.900   1.49507e-11
      225.000   1.46811e-11
      225.100   1.44162e-11
      225.200   1.41559e-11
      225.300   1.39003e-11
      225.400   1.36490e-11
      225.500   1.34021e-11
      225.600   1.31595e-11
      225.700   1.29212e-11
      225.800   1.26870e-11
      225.900   1.24569e-11
      226.000   1.22310e-11
      226.100   1.20089e-11
      226.200   1.17908e-11
      226.300   1.15773e-11
      226.400   1.13681e-11
      226.500   1.11622e-11
      226.600   1.09597e-11
      226.700   1.07607e-11
      226.800   1.05651e-11
      226.900   1.03728e-11
      227.000   1.01840e-11
      227.100   9.99844e-12
      227.200   9.81624e-12
      227.300   9.63729e-12
      227.400   9.46152e-12
      227.500   9.28890e-12
      227.600   9.11936e-12
      227.700   8.95286e-12
      227.800   8.78937e-12
      227.900   8.62883e-12
      228.000   8.47119e-12
      228.100   8.31638e-12
      228.200   8.16434e-12
      228.300   8.01507e-12
      228.400   7.86855e-12
      228.500   7.72464e-12
      228.600   7.58336e-12
      228.700   7.44466e-12
      228.800   7.30846e-12
      228.900   7.17481e-12
      229.000   7.04356e-12
      229.100   6.91473e-12
      229.200   6.78824e-12
      229.300   6.66408e-12
      229.400   6.54220e-12
      229.500   6.42257e-12
      229.600   6.30510e-12
      229.700   6.18983e-12
      229.800   6.07665e-12
      229.900   5.96557e-12
      230.000   5.85544e-12
      230.100   5.73972e-12
      230.200   5.62603e-12
      230.300   5.51466e-12
      230.400   5.40548e-12
      230.500   5.29846e-12
      230.600   5.19362e-12
      230.700   5.09082e-12
      230.800   4.99009e-12
      230.900   4.89137e-12
      231.000   4.79458e-12
      231.100   4.69972e-12
      231.200   4.60674e-12
      231.300   4.51562e-12
      231.400   4.42634e-12
      231.500   4.33876e-12
      231.600   4.25292e-12
      231.700   4.16880e-12
      231.800   4.08635e-12
      231.900   4.00553e-12
      232.000   3.92629e-12
      232.100   3.84861e-12
      232.200   3.77248e-12
      232.300   3.69787e-12
      232.400   3.62471e-12
      232.500   3.55297e-12
      232.600   3.48267e-12
      232.700   3.41375e-12
      232.800   3.34619e-12
      232.900   3.27995e-12
      233.000   3.21502e-12
      233.100   3.15138e-12
      233.200   3.08897e-12
      233.300   3.02780e-12
      233.400   2.96784e-12
      233.500   2.90907e-12
      233.600   2.85147e-12
      233.700   2.79498e-12
      233.800   2.73280e-12
      233.900   2.67110e-12
      234.000   2.61075e-12
      234.100   2.55175e-12
      234.200   2.49408e-12
      234.300   2.43769e-12
      234.400   2.38255e-12
      234.500   2.32864e-12
      234.600   2.27592e-12
      234.700   2.22439e-12
      234.800   2.17402e-12
      234.900   2.12475e-12
      235.000   2.07658e-12
      235.100   2.02948e-12
      235.200   1.98344e-12
      235.300   1.93842e-12
      235.400   1.89440e-12
      235.500   1.85137e-12
      235.600   1.80931e-12
      235.700   1.76818e-12
      235.800   1.72801e-12
      235.900   1.68873e-12
      236.000   1.65033e-12
      236.100   1.61278e-12
      236.200   1.57607e-12
      236.300   1.54018e-12
      236.400   1.50509e-12
      236.500   1.47079e-12
      236.600   1.43725e-12
      236.700   1.40446e-12
      236.800   1.37239e-12
      236.900   1.34104e-12
      237.000   1.31040e-12
      237.100   1.28043e-12
      237.200   1.25114e-12
      237.300   1.22250e-12
      237.400   1.19450e-12
      237.500   1.16712e-12
      237.600   1.14034e-12
      237.700   1.11419e-12
      237.800   1.08863e-12
      237.900   1.06363e-12
      238.000   1.03920e-12
      238.100   1.01531e-12
      238.200   9.91948e-13
      238.300   9.69112e-13
      238.400   9.46785e-13
      238.500   9.24952e-13
      238.600   9.03612e-13
      238.700   8.82753e-13
      238.800   8.62356e-13
      238.900   8.42415e-13
      239.000   8.22917e-13
      239.100   8.03858e-13
      239.200   7.85231e-13
      239.300   7.67028e-13
      239.400   7.49250e-13
      239.500   7.31868e-13
      239.600   7.14872e-13
      239.700   6.98267e-13
      239.800   6.82029e-13
      239.900   6.66155e-13
      240.000   6.50639e-13
      240.100   6.35468e-13
      240.200   6.20639e-13
      240.300   6.06144e-13
      240.400   5.91972e-13
      240.500   5.78128e-13
      240.600   5.64595e-13
      240.700   5.51366e-13
      240.800   5.38446e-13
      240.900   5.25826e-13
      241.000   5.13495e-13
      241.100   5.01441e-13
      241.200   4.89663e-13
      241.300   4.78149e-13
      241.400   4.66900e-13
      241.500   4.55906e-13
      241.600   4.45163e-13
      241.700   4.34664e-13
      241.800   4.24404e-13
      241.900   4.14377e-13
      242.000   4.04581e-13
      242.100   3.95012e-13
      242.200   3.85671e-13
      242.300   3.76552e-13
      242.400   3.67639e-13
      242.500   3.58932e-13
      242.600   3.50426e-13
      242.700   3.42114e-13
      242.800   3.33997e-13
      242.900   3.26066e-13
      243.000   3.18318e-13
      243.100   3.10750e-13
      243.200   3.03355e-13
      243.300   2.96132e-13
      243.400   2.89081e-13
      243.500   2.82197e-13
      243.600   2.75482e-13
      243.700   2.68920e-13
      243.800   2.62511e-13
      243.900   2.56254e-13
      244.000   2.50141e-13
      244.100   2.44171e-13
      244.200   2.38342e-13
      244.300   2.32647e-13
      244.400   2.27086e-13
      244.500   2.21655e-13
      244.600   2.16352e-13
      244.700   2.11177e-13
      244.800   2.06131e-13
      244.900   2.01203e-13
      245.000   1.96389e-13
      245.100   1.91688e-13
      245.200   1.87100e-13
      245.300   1.82620e-13
      245.400   1.78244e-13
      245.500   1.73972e-13
      245.600   1.69800e-13
      245.700   1.65726e-13
      245.800   1.61748e-13
      245.900   1.57871e-13
      246.000   1.54088e-13
      246.100   1.50394e-13
      246.200   1.46787e-13
      246.300   1.43264e-13
      246.400   1.39826e-13
      246.500   1.36469e-13
      246.600   1.33190e-13
      246.700   1.29990e-13
      246.800   1.26864e-13
      246.900   1.23813e-13
      247.000   1.20839e-13
      247.100   1.17937e-13
      247.200   1.15104e-13
      247.300   1.12338e-13
      247.400   1.09638e-13
      247.500   1.07001e-13
      247.600   1.04427e-13
      247.700   1.01913e-13
      247.800   9.94594e-14
      247.900   9.70634e-14
      248.000   9.47245e-14
      248.100   9.24479e-14
      248.200   9.02245e-14
      248.300   8.80534e-14
      248.400   8.59338e-14
      248.500   8.38640e-14
      248.600   8.18434e-14
      248.700   7.98711e-14
      248.800   7.79453e-14
      248.900   7.60653e-14
      249.000   7.42300e-14
      249.100   7.24418e-14
      249.200   7.06974e-14
      249.300   6.89936e-14
      249.400   6.73302e-14
      249.500   6.57066e-14
      249.600   6.41210e-14
      249.700   6.25731e-14
      249.800   6.10621e-14
      249.900   5.95867e-14
      250.000   5.81466e-14
      250.100   5.67431e-14
      250.200   5.53734e-14
      250.300   5.40375e-14
      250.400   5.27328e-14
      250.500   5.14595e-14
      250.600   5.02166e-14
      250.700   4.90032e-14
      250.800   4.78187e-14
      250.900   4.66624e-14
      251.000   4.55338e-14
      251.100   4.44319e-14
      251.200   4.33574e-14
      251.300   4.23096e-14
      251.400   4.12870e-14
      251.500   4.02882e-14
      251.600   3.93134e-14
      251.700   3.83623e-14
      251.800   3.74337e-14
      251.900   3.65271e-14
      252.000   3.56420e-14
      252.100   3.47785e-14
      252.200   3.39352e-14
      252.300   3.31131e-14
      252.400   3.23107e-14
      252.500   3.15280e-14
      252.600   3.07636e-14
      252.700   3.00176e-14
      252.800   2.92895e-14
      252.900   2.85787e-14
      253.000   2.78848e-14
      253.100   2.72075e-14
      253.200   2.65465e-14
      253.300   2.59069e-14
      253.400   2.52850e-14
      253.500   2.46783e-14
      253.600   2.40865e-14
      253.700   2.35084e-14
      253.800   2.29441e-14
      253.900   2.23931e-14
      254.000   2.18550e-14
      254.100   2.13295e-14
      254.200   2.08164e-14
      254.300   2.03154e-14
      254.400   1.98261e-14
      254.500   1.93483e-14
      254.600   1.88819e-14
      254.700   1.84265e-14
      254.800   1.79824e-14
      254.900   1.75487e-14
      255.000   1.71253e-14
      255.100   1.67117e-14
      255.200   1.63078e-14
      255.300   1.59136e-14
      255.400   1.55286e-14
      255.500   1.51527e-14
      255.600   1.47857e-14
      255.700   1.44274e-14
      255.800   1.40774e-14
      255.900   1.37357e-14
      256.000   1.34020e-14
      256.100   1.30765e-14
      256.200   1.27588e-14
      256.300   1.24487e-14
      256.400   1.21460e-14
      256.500   1.18502e-14
      256.600   1.15616e-14
      256.700   1.12799e-14
      256.800   1.10047e-14
      256.900   1.07360e-14
      257.000   1.04738e-14
      257.100   1.02177e-14
      257.200   9.96782e-15
      257.300   9.72379e-15
      257.400   9.51677e-15
      257.500   9.32532e-15
      257.600   9.13832e-15
      257.700   8.95500e-15
      257.800   8.77521e-15
      257.900   8.59897e-15
      258.000   8.42613e-15
      258.100   8.25665e-15
      258.200   8.09052e-15
      258.300   7.92767e-15
      258.400   7.76790e-15
      258.500   7.61124e-15
      258.600   7.45771e-15
      258.700   7.30717e-15
      258.800   7.15955e-15
      258.900   7.01492e-15
      259.000   6.87301e-15
      259.100   6.73394e-15
      259.200   6.59762e-15
      259.300   6.46412e-15
      259.400   6.33323e-15
      259.500   6.20485e-15
      259.600   6.07906e-15
      259.700   5.95576e-15
      259.800   5.83485e-15
      259.900   5.71630e-15
      260.000   5.60016e-15
      260.100   5.48631e-15
      260.200   5.37470e-15
      260.300   5.26530e-15
      260.400   5.15810e-15
      260.500   5.05304e-15
      260.600   4.95003e-15
      260.700   4.84907e-15
      260.800   4.75020e-15
      260.900   4.65321e-15
      261.000   4.55824e-15
      261.100   4.46519e-15
      261.200   4.37400e-15
      261.300   4.28461e-15
      261.400   4.19705e-15
      261.500   4.11963e-15
      261.600   4.07080e-15
      261.700   4.02726e-15
      261.800   3.98420e-15
      261.900   3.94157e-15
      262.000   3.89938e-15
      262.100   3.85763e-15
      262.200   3.81635e-15
      262.300   3.77547e-15
      262.400   3.73503e-15
      262.500   3.69502e-15
      262.600   3.65543e-15
      262.700   3.61625e-15
      262.800   3.57749e-15
      262.900   3.53911e-15
      263.000   3.50120e-15
      263.100   3.46366e-15
      263.200   3.42652e-15
      263.300   3.38979e-15
      263.400   3.35344e-15
      263.500   3.31748e-15
      263.600   3.28193e-15
      263.700   3.24673e-15
      263.800   3.21190e-15
      263.900   3.17748e-15
      264.000   3.14342e-15
      264.100   3.10971e-15
      264.200   3.07636e-15
      264.300   3.04340e-15
      264.400   3.01078e-15
      264.500   2.97851e-15
      264.600   2.94657e-15
      264.700   2.91500e-15
      264.800   2.88376e-15
      264.900   2.85288e-15
      265.000   2.82233e-15
      265.100   2.79209e-15
      265.200   2.76219e-15
      265.300   2.73262e-15
      265.400   2.70338e-15
      265.500   2.67445e-15
      265.600   2.64584e-15
      265.700   2.61754e-15
      265.800   2.58959e-15
      265.900   2.56194e-15
      266.000   2.53461e-15
      266.100   2.50758e-15
      266.200   2.48084e-15
      266.300   2.45439e-15
      266.400   2.42824e-15
      266.500   2.40237e-15
      266.600   2.37679e-15
      266.700   2.35148e-15
      266.800   2.32648e-15
      266.900   2.30174e-15
      267.000   2.27727e-15
      267.100   2.25307e-15
      267.200   2.22916e-15
      267.300   2.20550e-15
      267.400   2.18209e-15
      267.500   2.15895e-15
      267.600   2.13607e-15
      267.700   2.11343e-15
      267.800   2.09104e-15
      267.900   2.06891e-15
      268.000   2.04703e-15
      268.100   2.02539e-15
      268.200   2.00399e-15
      268.300   1.98284e-15
      268.400   1.96190e-15
      268.500   1.94120e-15
      268.600   1.92073e-15
      268.700   1.90050e-15
      268.800   1.88048e-15
      268.900   1.86069e-15
      269.000   1.84113e-15
      269.100   1.82177e-15
      269.200   1.80263e-15
      269.300   1.78371e-15
      269.400   1.76499e-15
      269.500   1.74647e-15
      269.600   1.72817e-15
      269.700   1.71006e-15
      269.800   1.69217e-15
      269.900   1.67446e-15
      270.000   1.65696e-15
      270.100   1.63966e-15
      270.200   1.62257e-15
      270.300   1.60566e-15
      270.400   1.58893e-15
      270.500   1.57239e-15
      270.600   1.55603e-15
      270.700   1.53985e-15
      270.800   1.52386e-15
      270.900   1.50802e-15
      271.000   1.49237e-15
      271.100   1.47687e-15
      271.200   1.46155e-15
      271.300   1.44640e-15
      271.400   1.43141e-15
      271.500   1.41659e-15
      271.600   1.40191e-15
      271.700   1.38740e-15
      271.800   1.37304e-15
      271.900   1.35884e-15
      272.000   1.34480e-15
      272.100   1.33090e-15
      272.200   1.31714e-15
      272.300   1.30353e-15
      272.400   1.29007e-15
      272.500   1.27675e-15
      272.600   1.26357e-15
      272.700   1.25053e-15
      272.800   1.23762e-15
      272.900   1.22485e-15
      273.000   1.21222e-15
      273.100   1.19972e-15
      273.200   1.18734e-15
      273.300   1.17510e-15
      273.400   1.16299e-15
      273.500   1.15099e-15
      273.600   1.13913e-15
      273.700   1.12738e-15
      273.800   1.11575e-15
      273.900   1.10426e-15
      274.000   1.09287e-15
      274.100   1.08161e-15
      274.200   1.07045e-15
      274.300   1.05942e-15
      274.400   1.04837e-15
      274.500   1.03715e-15
      274.600   1.02599e-15
      274.700   1.01496e-15
      274.800   1.00404e-15
      274.900   9.93231e-16
      275.000   9.82536e-16
      275.100   9.71956e-16
      275.200   9.61483e-16
      275.300   9.51120e-16
      275.400   9.40871e-16
      275.500   9.30729e-16
      275.600   9.20687e-16
      275.700   9.10751e-16
      275.800   9.00922e-16
      275.900   8.91197e-16
      276.000   8.81572e-16
      276.100   8.72044e-16
      276.200   8.62612e-16
      276.300   8.53281e-16
      276.400   8.44048e-16
      276.500   8.34910e-16
      276.600   8.25869e-16
      276.700   8.16917e-16
      276.800   8.08062e-16
      276.900   7.99294e-16
      277.000   7.90621e-16
      277.100   7.82033e-16
      277.200   7.73538e-16
      277.300   7.65130e-16
      277.400   7.56810e-16
      277.500   7.48569e-16
      277.600   7.40421e-16
      277.700   7.32354e-16
      277.800   7.24364e-16
      277.900   7.16464e-16
      278.000   7.08649e-16
      278.100   7.00912e-16
      278.200   6.93252e-16
      278.300   6.85673e-16
      278.400   6.78175e-16
      278.500   6.70748e-16
      278.600   6.63399e-16
      278.700   6.56131e-16
      278.800   6.48937e-16
      278.900   6.41793e-16
      279.000   6.34719e-16
      279.100   6.27719e-16
      279.200   6.20787e-16
      279.300   6.13934e-16
      279.400   6.07146e-16
      279.500   6.00432e-16
      279.600   5.93788e-16
      279.700   5.87216e-16
      279.800   5.80711e-16
      279.900   5.74272e-16
      280.000   5.67902e-16
      280.100   5.61596e-16
      280.200   5.55360e-16
      280.300   5.49186e-16
      280.400   5.43078e-16
      280.500   5.37039e-16
      280.600   5.31060e-16
      280.700   5.25143e-16
      280.800   5.19289e-16
      280.900   5.13497e-16
      281.000   5.07765e-16
      281.100   5.02093e-16
      281.200   4.96482e-16
      281.300   4.90932e-16
      281.400   4.85442e-16
      281.500   4.80006e-16
      281.600   4.74627e-16
      281.700   4.69307e-16
      281.800   4.64046e-16
      281.900   4.58840e-16
      282.000   4.53689e-16
      282.100   4.48592e-16
      282.200   4.43553e-16
      282.300   4.38565e-16
      282.400   4.33632e-16
      282.500   4.28749e-16
      282.600   4.23921e-16
      282.700   4.19143e-16
      282.800   4.14417e-16
      282.900   4.09746e-16
      283.000   4.05122e-16
      283.100   4.00549e-16
      283.200   3.96028e-16
      283.300   3.91554e-16
      283.400   3.87129e-16
      283.500   3.82755e-16
      283.600   3.78425e-16
      283.700   3.74142e-16
      283.800   3.69908e-16
      283.900   3.65721e-16
      284.000   3.61578e-16
      284.100   3.57478e-16
      284.200   3.53426e-16
      284.300   3.49419e-16
      284.400   3.45456e-16
      284.500   3.41537e-16
      284.600   3.37661e-16
      284.700   3.33828e-16
      284.800   3.30039e-16
      284.900   3.26290e-16
      285.000   3.22582e-16
      285.100   3.18915e-16
      285.200   3.15292e-16
      285.300   3.11707e-16
      285.400   3.08162e-16
      285.500   3.04656e-16
      285.600   3.01194e-16
      285.700   2.97767e-16
      285.800   2.94380e-16
      285.900   2.91030e-16
      286.000   2.87718e-16
      286.100   2.84447e-16
      286.200   2.81210e-16
      286.300   2.78012e-16
      286.400   2.74849e-16
      286.500   2.71722e-16
      286.600   2.68629e-16
      286.700   2.65572e-16
      286.800   2.62551e-16
      286.900   2.59564e-16
      287.000   2.56611e-16
      287.100   2.53691e-16
      287.200   2.50806e-16
      287.300   2.47953e-16
      287.400   2.45132e-16
      287.500   2.42345e-16
      287.600   2.39590e-16
      287.700   2.36865e-16
      287.800   2.34173e-16
      287.900   2.31512e-16
      288.000   2.28882e-16
      288.100   2.26282e-16
      288.200   2.23713e-16
      288.300   2.21174e-16
      288.400   2.18665e-16
      288.500   2.16185e-16
      288.600   2.13732e-16
      288.700   2.11309e-16
      288.800   2.08913e-16
      288.900   2.06546e-16
      289.000   2.04207e-16
      289.100   2.01894e-16
      289.200   1.99608e-16
      289.300   1.97349e-16
      289.400   1.95116e-16
      289.500   1.92910e-16
      289.600   1.90728e-16
      289.700   1.88574e-16
      289.800   1.86443e-16
      289.900   1.84336e-16
      290.000   1.82257e-16
      290.100   1.80199e-16
      290.200   1.78168e-16
      290.300   1.76160e-16
      290.400   1.74175e-16
      290.500   1.72215e-16
      290.600   1.70276e-16
      290.700   1.68360e-16
      290.800   1.66467e-16
      290.900   1.64596e-16
      291.000   1.62746e-16
      291.100   1.60917e-16
      291.200   1.59111e-16
      291.300   1.57325e-16
      291.400   1.55561e-16
      291.500   1.53816e-16
      291.600   1.52092e-16
      291.700   1.50388e-16
      291.800   1.48704e-16
      291.900   1.47040e-16
      292.000   1.45397e-16
      292.100   1.43772e-16
      292.200   1.42167e-16
      292.300   1.40579e-16
      292.400   1.39009e-16
      292.500   1.37458e-16
      292.600   1.35924e-16
      292.700   1.34409e-16
      292.800   1.32911e-16
      292.900   1.31430e-16
      293.000   1.29967e-16
      293.100   1.28520e-16
      293.200   1.27090e-16
      293.300   1.25676e-16
      293.400   1.24279e-16
      293.500   1.22898e-16
      293.600   1.21534e-16
      293.700   1.20184e-16
      293.800   1.18851e-16
      293.900   1.17533e-16
      294.000   1.16229e-16
      294.100   1.14941e-16
      294.200   1.13668e-16
      294.300   1.12409e-16
      294.400   1.11164e-16
      294.500   1.09934e-16
      294.600   1.08717e-16
      294.700   1.07514e-16
      294.800   1.06325e-16
      294.900   1.05149e-16
      295.000   1.03987e-16
      295.100   1.02839e-16
      295.200   1.01704e-16
      295.300   1.00581e-16
      295.400   9.94704e-17
      295.500   9.83732e-17
      295.600   9.72878e-17
      295.700   9.62147e-17
      295.800   9.51537e-17
      295.900   9.41040e-17
      296.000   9.30666e-17
      296.100   9.20401e-17
      296.200   9.10260e-17
      296.300   9.00229e-17
      296.400   8.90324e-17
      296.500   8.80514e-17
      296.600   8.70820e-17
      296.700   8.61233e-17
      296.800   8.51754e-17
      296.900   8.42377e-17
      297.000   8.33104e-17
      297.100   8.23931e-17
      297.200   8.14862e-17
      297.300   8.05893e-17
      297.400   7.97023e-17
      297.500   7.88245e-17
      297.600   7.79573e-17
      297.700   7.70994e-17
      297.800   7.62510e-17
      297.900   7.54122e-17
      298.000   7.45827e-17
      298.100   7.37619e-17
      298.200   7.29500e-17
      298.300   7.21474e-17
      298.400   7.13530e-17
      298.500   7.05673e-17
      298.600   6.97902e-17
      298.700   6.90215e-17
      298.800   6.82608e-17
      298.900   6.75091e-17
      299.000   6.67659e-17
      299.100   6.60307e-17
      299.200   6.53029e-17
      299.300   6.45832e-17
      299.400   6.38713e-17
      299.500   6.31671e-17
      299.600   6.24703e-17
      299.700   6.17810e-17
      299.800   6.10990e-17
      299.900   6.04247e-17
      300.000   5.97575e-17
      300.100   5.90974e-17
      300.192   5.84967e-17
      300.285   5.78949e-17
      300.377   5.73060e-17
      300.470   5.67169e-17
      300.562   5.61396e-17
      300.654   5.55679e-17
      300.747   5.49957e-17
      300.839   5.44355e-17
      300.932   5.38743e-17
      301.025   5.33191e-17
      301.117   5.27755e-17
      301.210   5.22307e-17
      301.303   5.16921e-17
      301.395   5.11646e-17
      301.488   5.06358e-17
      301.581   5.01129e-17
      301.674   4.95950e-17
      301.766   4.90875e-17
      301.859   4.85797e-17
      301.952   4.80772e-17
      302.045   4.75795e-17
      302.138   4.71194e-17
      302.231   4.67372e-17
      302.324   4.63610e-17
      302.417   4.59881e-17
      302.510   4.56173e-17
      302.603   4.52501e-17
      302.696   4.48850e-17
      302.789   4.45226e-17
      302.882   4.41629e-17
      302.976   4.38026e-17
      303.069   4.34485e-17
      303.162   4.30969e-17
      303.255   4.27477e-17
      303.349   4.23977e-17
      303.442   4.20538e-17
      303.535   4.17127e-17
      303.629   4.13703e-17
      303.722   4.10343e-17
      303.816   4.06973e-17
      303.909   4.03660e-17
      304.003   4.00338e-17
      304.096   3.97076e-17
      304.190   3.93804e-17
      304.283   3.90590e-17
      304.377   3.87367e-17
      304.471   3.84166e-17
      304.564   3.81024e-17
      304.658   3.77875e-17
      304.752   3.74745e-17
      304.846   3.71642e-17
      304.939   3.68593e-17
      305.033   3.65535e-17
      305.127   3.62500e-17
      305.221   3.59488e-17
      305.315   3.56501e-17
      305.409   3.53533e-17
      305.503   3.50589e-17
      305.597   3.47670e-17
      305.691   3.44770e-17
      305.785   3.41894e-17
      305.879   3.39037e-17
      305.973   3.36204e-17
      306.067   3.33391e-17
      306.161   3.30601e-17
      306.255   3.27832e-17
      306.350   3.25055e-17
      306.444   3.22328e-17
      306.538   3.19623e-17
      306.633   3.16911e-17
      306.727   3.14247e-17
      306.821   3.11604e-17
      306.916   3.08954e-17
      307.010   3.06388e-17
      307.105   3.03929e-17
      307.199   3.01531e-17
      307.294   2.99125e-17
      307.388   2.96763e-17
      307.483   2.94394e-17
      307.577   2.92066e-17
      307.672   2.89730e-17
      307.767   2.87412e-17
      307.861   2.85134e-17
      307.956   2.82847e-17
      308.051   2.80579e-17
      308.146   2.78329e-17
      308.240   2.76117e-17
      308.335   2.73898e-17
      308.430   2.71694e-17
      308.525   2.69509e-17
      308.620   2.67340e-17
      308.715   2.65187e-17
      308.810   2.63050e-17
      308.905   2.60929e-17
      309.000   2.58823e-17
      309.095   2.56734e-17
      309.190   2.54661e-17
      309.285   2.52604e-17
      309.380   2.50562e-17
      309.476   2.48516e-17
      309.571   2.46504e-17
      309.666   2.44508e-17
      309.761   2.42529e-17
      309.857   2.40544e-17
      309.952   2.38592e-17
      310.047   2.36658e-17
      310.143   2.34718e-17
      310.238   2.32814e-17
      310.334   2.30904e-17
      310.429   2.29028e-17
      310.525   2.27148e-17
      310.620   2.25302e-17
      310.716   2.23452e-17
      310.811   2.21636e-17
      310.907   2.19815e-17
      311.003   2.18008e-17
      311.098   2.16233e-17
      311.194   2.14454e-17
      311.290   2.12692e-17
      311.386   2.10942e-17
      311.481   2.09224e-17
      311.577   2.07502e-17
      311.673   2.05794e-17
      311.769   2.04100e-17
      311.865   2.02419e-17
      311.961   2.00758e-17
      312.057   1.99136e-17
      312.153   1.97536e-17
      312.249   1.95948e-17
      312.345   1.94374e-17
      312.441   1.92811e-17
      312.537   1.91262e-17
      312.633   1.89725e-17
      312.730   1.88183e-17
      312.826   1.86671e-17
      312.922   1.85170e-17
      313.018   1.83682e-17
      313.115   1.82191e-17
      313.211   1.80727e-17
      313.307   1.79275e-17
      313.404   1.77820e-17
      313.500   1.76391e-17
      313.597   1.74961e-17
      313.693   1.73556e-17
      313.790   1.72148e-17
      313.886   1.70767e-17
      313.983   1.69381e-17
      314.079   1.68022e-17
      314.176   1.66660e-17
      314.273   1.65309e-17
      314.369   1.63985e-17
      314.466   1.62658e-17
      314.563   1.61341e-17
      314.660   1.60035e-17
      314.756   1.58753e-17
      314.853   1.57468e-17
      314.950   1.56195e-17
      315.047   1.54933e-17
      315.144   1.53681e-17
      315.241   1.52440e-17
      315.338   1.51209e-17
      315.435   1.49988e-17
      315.532   1.48778e-17
      315.629   1.47578e-17
      315.726   1.46388e-17
      315.823   1.45208e-17
      315.921   1.44026e-17
      316.018   1.42867e-17
      316.115   1.41717e-17
      316.212   1.40577e-17
      316.310   1.39435e-17
      316.407   1.38314e-17
      316.504   1.37202e-17
      316.602   1.36090e-17
      316.699   1.34998e-17
      316.796   1.33914e-17
      316.894   1.32830e-17
      316.991   1.31768e-17
      317.089   1.30722e-17
      317.187   1.29693e-17
      317.284   1.28684e-17
      317.382   1.27673e-17
      317.479   1.26679e-17
      317.577   1.25685e-17
      317.675   1.24698e-17
      317.773   1.23720e-17
      317.870   1.22761e-17
      317.968   1.21799e-17
      318.066   1.20845e-17
      318.164   1.19899e-17
      318.262   1.18961e-17
      318.360   1.18031e-17
      318.458   1.17110e-17
      318.556   1.16196e-17
      318.654   1.15290e-17
      318.752   1.14391e-17
      318.850   1.13500e-17
      318.948   1.12616e-17
      319.046   1.11740e-17
      319.144   1.10870e-17
      319.242   1.10009e-17
      319.341   1.09145e-17
      319.439   1.08298e-17
      319.537   1.07458e-17
      319.635   1.06625e-17
      319.734   1.05791e-17
      319.832   1.04972e-17
      319.930   1.04159e-17
      320.029   1.03345e-17
      320.127   1.02546e-17
      320.226   1.01746e-17
      320.324   1.00961e-17
      320.423   1.00173e-17
      320.522   9.93935e-18
      320.620   9.86276e-18
      320.719   9.78598e-18
      320.818   9.70991e-18
      320.916   9.63520e-18
      321.015   9.56036e-18
      321.114   9.48612e-18
      321.213   9.41252e-18
      321.311   9.34029e-18
      321.410   9.26793e-18
      321.509   9.19609e-18
      321.608   9.12491e-18
      321.707   9.05431e-18
      321.806   8.98427e-18
      321.905   8.91484e-18
      322.004   8.84596e-18
      322.103   8.77767e-18
      322.202   8.70987e-18
      322.301   8.64269e-18
      322.401   8.57542e-18
      322.500   8.50934e-18
      322.599   8.44380e-18
      322.698   8.37876e-18
      322.798   8.31361e-18
      322.897   8.24966e-18
      322.996   8.18623e-18
      323.096   8.12264e-18
      323.195   8.06022e-18
      323.294   7.99827e-18
      323.394   7.93624e-18
      323.493   7.87531e-18
      323.593   7.81431e-18
      323.692   7.75436e-18
      323.792   7.69429e-18
      323.892   7.63470e-18
      323.991   7.57614e-18
      324.091   7.51755e-18
      324.191   7.45940e-18
      324.291   7.40168e-18
      324.390   7.34504e-18
      324.490   7.28826e-18
      324.590   7.23192e-18
      324.690   7.17603e-18
      324.790   7.12058e-18
      324.890   7.06560e-18
      324.990   7.01104e-18
      325.090   6.95689e-18
      325.190   6.90316e-18
      325.290   6.84989e-18
      325.390   6.79697e-18
      325.490   6.74453e-18
      325.590   6.69251e-18
      325.690   6.64080e-18
      325.790   6.58954e-18
      325.891   6.53818e-18
      325.991   6.48773e-18
      326.091   6.43764e-18
      326.192   6.38746e-18
      326.292   6.33817e-18
      326.392   6.28925e-18
      326.493   6.24024e-18
      326.593   6.19205e-18
      326.694   6.14380e-18
      326.794   6.09635e-18
      326.895   6.04880e-18
      326.995   6.00208e-18
      327.096   5.95526e-18
      327.197   5.90879e-18
      327.297   5.86313e-18
      327.398   5.81737e-18
      327.499   5.77196e-18
      327.599   5.72733e-18
      327.700   5.68258e-18
      327.801   5.63816e-18
      327.902   5.59412e-18
      328.003   5.55038e-18
      328.104   5.50698e-18
      328.205   5.46392e-18
      328.306   5.42117e-18
      328.407   5.37873e-18
      328.508   5.33658e-18
      328.609   5.29476e-18
      328.710   5.25325e-18
      328.811   5.21205e-18
      328.912   5.17118e-18
      329.013   5.13058e-18
      329.115   5.08993e-18
      329.216   5.04995e-18
      329.317   5.01023e-18
      329.419   4.97048e-18
      329.520   4.93137e-18
      329.621   4.89251e-18
      329.723   4.85359e-18
      329.824   4.81536e-18
      329.926   4.77703e-18
      330.027   4.73933e-18
      330.129   4.70154e-18
      330.230   4.66442e-18
      330.332   4.62718e-18
      330.434   4.59022e-18
      330.535   4.55390e-18
      330.637   4.51747e-18
      330.739   4.48131e-18
      330.840   4.44577e-18
      330.942   4.41013e-18
      331.044   4.37477e-18
      331.146   4.33965e-18
      331.248   4.30480e-18
      331.350   4.27022e-18
      331.452   4.23591e-18
      331.554   4.20286e-18
      331.656   4.17158e-18
      331.758   4.14052e-18
      331.860   4.10964e-18
      331.962   4.07899e-18
      332.064   4.04854e-18
      332.166   4.01832e-18
      332.268   3.98826e-18
      332.371   3.95814e-18
      332.473   3.92847e-18
      332.575   3.89899e-18
      332.677   3.86973e-18
      332.780   3.84039e-18
      332.882   3.81151e-18
      332.985   3.78255e-18
      333.087   3.75405e-18
      333.190   3.72548e-18
      333.292   3.69687e-18
      333.395   3.66688e-18
      333.497   3.63692e-18
      333.600   3.60690e-18
      333.702   3.57737e-18
      333.805   3.54779e-18
      333.908   3.51841e-18
      334.011   3.48926e-18
      334.113   3.46059e-18
      334.216   3.43186e-18
      334.319   3.40336e-18
      334.422   3.37504e-18
      334.525   3.34694e-18
      334.628   3.31905e-18
      334.731   3.29139e-18
      334.834   3.26392e-18
      334.937   3.23666e-18
      335.040   3.20959e-18
      335.143   3.18275e-18
      335.246   3.15608e-18
      335.349   3.12962e-18
      335.452   3.10336e-18
      335.555   3.07730e-18
      335.659   3.05119e-18
      335.762   3.02554e-18
      335.865   3.00008e-18
      335.969   2.97456e-18
      336.072   2.94945e-18
      336.175   2.92456e-18
      336.279   2.89962e-18
      336.382   2.87512e-18
      336.486   2.85055e-18
      336.589   2.82640e-18
      336.693   2.80223e-18
      336.796   2.77847e-18
      336.900   2.75466e-18
      337.004   2.73102e-18
      337.107   2.70781e-18
      337.211   2.68455e-18
      337.315   2.66150e-18
      337.419   2.63859e-18
      337.523   2.61586e-18
      337.626   2.59353e-18
      337.730   2.57120e-18
      337.834   2.54900e-18
      337.938   2.52701e-18
      338.042   2.50525e-18
      338.146   2.48396e-18
      338.250   2.46288e-18
      338.354   2.44196e-18
      338.458   2.42120e-18
      338.562   2.40060e-18
      338.667   2.37997e-18
      338.771   2.35969e-18
      338.875   2.33957e-18
      338.979   2.31961e-18
      339.084   2.29965e-18
      339.188   2.28000e-18
      339.292   2.26054e-18
      339.397   2.24102e-18
      339.501   2.22186e-18
      339.606   2.20266e-18
      339.710   2.18380e-18
      339.815   2.16492e-18
      339.919   2.14638e-18
      340.024   2.12779e-18
      340.128   2.10955e-18
      340.233   2.09127e-18
      340.338   2.07315e-18
      340.442   2.05534e-18
      340.547   2.03752e-18
      340.652   2.01984e-18
      340.757   2.00230e-18
      340.862   1.98491e-18
      340.966   1.96783e-18
      341.071   1.95072e-18
      341.176   1.93376e-18
      341.281   1.91694e-18
      341.386   1.90028e-18
      341.491   1.88374e-18
      341.596   1.86736e-18
      341.702   1.85095e-18
      341.807   1.83482e-18
      341.912   1.81885e-18
      342.017   1.80301e-18
      342.122   1.78730e-18
      342.228   1.77157e-18
      342.333   1.75613e-18
      342.438   1.74082e-18
      342.544   1.72551e-18
      342.649   1.71046e-18
      342.754   1.69556e-18
      342.860   1.68062e-18
      342.965   1.66596e-18
      343.071   1.65130e-18
      343.176   1.63690e-18
      343.282   1.62248e-18
      343.388   1.60820e-18
      343.493   1.59427e-18
      343.599   1.58118e-18
      343.705   1.56830e-18
      343.810   1.55561e-18
      343.916   1.54292e-18
      344.022   1.53035e-18
      344.128   1.51787e-18
      344.234   1.50549e-18
      344.340   1.49322e-18
      344.446   1.48103e-18
      344.552   1.46896e-18
      344.658   1.45700e-18
      344.764   1.44513e-18
      344.870   1.43336e-18
      344.976   1.42169e-18
      345.082   1.41011e-18
      345.188   1.39864e-18
      345.294   1.38725e-18
      345.401   1.37586e-18
      345.507   1.36467e-18
      345.613   1.35357e-18
      345.719   1.34257e-18
      345.826   1.33156e-18
      345.932   1.32074e-18
      346.039   1.30992e-18
      346.145   1.29928e-18
      346.252   1.28864e-18
      346.358   1.27819e-18
      346.465   1.26773e-18
      346.571   1.25745e-18
      346.678   1.24717e-18
      346.785   1.23697e-18
      346.891   1.22695e-18
      346.998   1.21694e-18
      347.105   1.20701e-18
      347.212   1.19716e-18
      347.319   1.18739e-18
      347.425   1.17779e-18
      347.532   1.16820e-18
      347.639   1.15869e-18
      347.746   1.14925e-18
      347.853   1.13991e-18
      347.960   1.13063e-18
      348.067   1.12145e-18
      348.174   1.11235e-18
      348.281   1.10331e-18
      348.389   1.09428e-18
      348.496   1.08539e-18
      348.603   1.07661e-18
      348.710   1.06788e-18
      348.818   1.05917e-18
      348.925   1.05059e-18
      349.032   1.04210e-18
      349.140   1.03358e-18
      349.247   1.02521e-18
      349.355   1.01685e-18
      349.462   1.00863e-18
      349.570   1.00040e-18
      349.677   9.92326e-19
      349.785   9.84239e-19
      349.892   9.76305e-19
      350.000   9.68369e-19
      350.100   9.61077e-19
      350.193   9.54355e-19
      350.287   9.47606e-19
      350.380   9.40977e-19
      350.473   9.34404e-19
      350.567   9.27804e-19
      350.660   9.21328e-19
      350.754   9.14830e-19
      350.847   9.08458e-19
      350.941   9.02059e-19
      351.034   8.95774e-19
      351.128   8.89475e-19
      351.221   8.83287e-19
      351.315   8.77086e-19
      351.409   8.70920e-19
      351.502   8.64875e-19
      351.596   8.58805e-19
      351.690   8.52782e-19
      351.783   8.46872e-19
      351.877   8.40949e-19
      351.971   8.35058e-19
      352.065   8.29218e-19
      352.159   8.23424e-19
      352.252   8.17731e-19
      352.346   8.12018e-19
      352.440   8.06349e-19
      352.534   8.00731e-19
      352.628   7.95152e-19
      352.722   7.89609e-19
      352.816   7.84110e-19
      352.910   7.78655e-19
      353.004   7.73241e-19
      353.098   7.67863e-19
      353.192   7.62526e-19
      353.287   7.57177e-19
      353.381   7.51921e-19
      353.475   7.46709e-19
      353.569   7.41526e-19
      353.663   7.36387e-19
      353.758   7.31239e-19
      353.852   7.26180e-19
      353.946   7.21156e-19
      354.041   7.16115e-19
      354.135   7.11166e-19
      354.229   7.06251e-19
      354.324   7.01328e-19
      354.418   6.96482e-19
      354.513   6.91625e-19
      354.607   6.86865e-19
      354.702   6.82062e-19
      354.796   6.77291e-19
      354.891   6.72494e-19
      354.985   6.67789e-19
      355.080   6.63065e-19
      355.175   6.58380e-19
      355.269   6.53773e-19
      355.364   6.49155e-19
      355.459   6.44572e-19
      355.553   6.40071e-19
      355.648   6.35555e-19
      355.743   6.31074e-19
      355.838   6.26620e-19
      355.933   6.22208e-19
      356.027   6.17872e-19
      356.122   6.13518e-19
      356.217   6.09198e-19
      356.312   6.04913e-19
      356.407   6.00656e-19
      356.502   5.96432e-19
      356.597   5.92234e-19
      356.692   5.88074e-19
      356.787   5.83942e-19
      356.882   5.79837e-19
      356.977   5.75765e-19
      357.073   5.71683e-19
      357.168   5.67665e-19
      357.263   5.63681e-19
      357.358   5.59726e-19
      357.453   5.55800e-19
      357.549   5.51862e-19
      357.644   5.47992e-19
      357.739   5.44151e-19
      357.835   5.40298e-19
      357.930   5.36511e-19
      358.025   5.32750e-19
      358.121   5.28978e-19
      358.216   5.25271e-19
      358.312   5.21552e-19
      358.407   5.17901e-19
      358.503   5.14235e-19
      358.598   5.10638e-19
      358.694   5.07025e-19
      358.790   5.03438e-19
      358.885   4.99911e-19
      358.981   4.96376e-19
      359.076   4.92900e-19
      359.172   4.89417e-19
      359.268   4.85952e-19
      359.364   4.82513e-19
      359.459   4.79139e-19
      359.555   4.75751e-19
      359.651   4.72384e-19
      359.747   4.69043e-19
      359.843   4.65726e-19
      359.939   4.62429e-19
      360.035   4.59159e-19
      360.131   4.55911e-19
      360.227   4.52684e-19
      360.323   4.49482e-19
      360.419   4.46302e-19
      360.515   4.43145e-19
      360.611   4.40008e-19
      360.707   4.36890e-19
      360.803   4.33798e-19
      360.899   4.30724e-19
      360.995   4.27677e-19
      361.092   4.24617e-19
      361.188   4.21607e-19
      361.284   4.18620e-19
      361.380   4.15654e-19
      361.477   4.12676e-19
      361.573   4.09750e-19
      361.669   4.06844e-19
      361.766   4.03925e-19
      361.862   4.01059e-19
      361.959   3.98184e-19
      362.055   3.95352e-19
      362.152   3.92516e-19
      362.248   3.89725e-19
      362.345   3.86924e-19
      362.441   3.84174e-19
      362.538   3.81414e-19
      362.635   3.78672e-19
      362.731   3.75974e-19
      362.828   3.73266e-19
      362.925   3.70579e-19
      363.021   3.67939e-19
      363.118   3.65288e-19
      363.215   3.62652e-19
      363.312   3.60035e-19
      363.409   3.57439e-19
      363.505   3.54884e-19
      363.602   3.52320e-19
      363.699   3.49776e-19
      363.796   3.47246e-19
      363.893   3.44733e-19
      363.990   3.42238e-19
      364.087   3.39759e-19
      364.184   3.37297e-19
      364.281   3.34851e-19
      364.378   3.32424e-19
      364.475   3.30011e-19
      364.573   3.27588e-19
      364.670   3.25206e-19
      364.767   3.22843e-19
      364.864   3.20494e-19
      364.961   3.18160e-19
      365.059   3.15819e-19
      365.156   3.13518e-19
      365.253   3.11231e-19
      365.351   3.08935e-19
      365.448   3.06679e-19
      365.545   3.04438e-19
      365.643   3.02189e-19
      365.740   2.99976e-19
      365.838   2.97757e-19
      365.935   2.95575e-19
      366.033   2.93387e-19
      366.130   2.91233e-19
      366.228   2.89072e-19
      366.326   2.86927e-19
      366.423   2.84817e-19
      366.521   2.82699e-19
      366.618   2.80616e-19
      366.716   2.78525e-19
      366.814   2.76450e-19
      366.912   2.74390e-19
      367.010   2.72343e-19
      367.107   2.70329e-19
      367.205   2.68308e-19
      367.303   2.66301e-19
      367.401   2.64307e-19
      367.499   2.62326e-19
      367.597   2.60359e-19
      367.695   2.58405e-19
      367.793   2.56465e-19
      367.891   2.54539e-19
      367.989   2.52624e-19
      368.087   2.50722e-19
      368.185   2.48833e-19
      368.283   2.46956e-19
      368.381   2.45092e-19
      368.480   2.43222e-19
      368.578   2.41384e-19
      368.676   2.39558e-19
      368.774   2.37745e-19
      368.873   2.35927e-19
      368.971   2.34138e-19
      369.069   2.32362e-19
      369.168   2.30578e-19
      369.266   2.28824e-19
      369.364   2.27083e-19
      369.463   2.25338e-19
      369.561   2.23621e-19
      369.660   2.21899e-19
      369.758   2.20205e-19
      369.857   2.18506e-19
      369.955   2.16836e-19
      370.054   2.15160e-19
      370.153   2.13495e-19
      370.251   2.11859e-19
      370.350   2.10218e-19
      370.449   2.08589e-19
      370.547   2.06987e-19
      370.646   2.05379e-19
      370.745   2.03783e-19
      370.844   2.02198e-19
      370.943   2.00624e-19
      371.041   1.99078e-19
      371.140   1.97525e-19
      371.239   1.95983e-19
      371.338   1.94454e-19
      371.437   1.92935e-19
      371.536   1.91426e-19
      371.635   1.89927e-19
      371.734   1.88440e-19
      371.833   1.86963e-19
      371.932   1.85497e-19
      372.032   1.84027e-19
      372.131   1.82580e-19
      372.230   1.81146e-19
      372.329   1.79722e-19
      372.428   1.78307e-19
      372.528   1.76889e-19
      372.627   1.75496e-19
      372.726   1.74113e-19
      372.826   1.72726e-19
      372.925   1.71363e-19
      373.024   1.70009e-19
      373.124   1.68650e-19
      373.223   1.67316e-19
      373.323   1.65979e-19
      373.422   1.64664e-19
      373.522   1.63346e-19
      373.621   1.62051e-19
      373.721   1.60752e-19
      373.820   1.59475e-19
      373.920   1.58195e-19
      374.020   1.56924e-19
      374.119   1.55675e-19
      374.219   1.54423e-19
      374.319   1.53181e-19
      374.419   1.51948e-19
      374.518   1.50736e-19
      374.618   1.49521e-19
      374.718   1.48314e-19
      374.818   1.47117e-19
      374.918   1.45930e-19
      375.018   1.44750e-19
      375.118   1.43581e-19
      375.218   1.42419e-19
      375.318   1.41267e-19
      375.418   1.40123e-19
      375.518   1.38988e-19
      375.618   1.37862e-19
      375.718   1.36744e-19
      375.818   1.35634e-19
      375.918   1.34534e-19
      376.019   1.33431e-19
      376.119   1.32347e-19
      376.219   1.31272e-19
      376.319   1.30204e-19
      376.420   1.29135e-19
      376.520   1.28084e-19
      376.620   1.27042e-19
      376.721   1.25997e-19
      376.821   1.24970e-19
      376.922   1.23942e-19
      377.022   1.22931e-19
      377.122   1.21929e-19
      377.223   1.20925e-19
      377.323   1.19938e-19
      377.424   1.18949e-19
      377.525   1.17969e-19
      377.625   1.17005e-19
      377.726   1.16040e-19
      377.827   1.15083e-19
      377.927   1.14142e-19
      378.028   1.13200e-19
      378.129   1.12265e-19
      378.230   1.11462e-19
      378.330   1.10864e-19
      378.431   1.10296e-19
      378.532   1.09730e-19
      378.633   1.09167e-19
      378.734   1.08606e-19
      378.835   1.08049e-19
      378.936   1.07493e-19
      379.037   1.06941e-19
      379.138   1.06390e-19
      379.239   1.05843e-19
      379.340   1.05299e-19
      379.441   1.04757e-19
      379.542   1.04217e-19
      379.643   1.03681e-19
      379.745   1.03141e-19
      379.846   1.02610e-19
      379.947   1.02080e-19
      380.048   1.01554e-19
      380.150   1.01025e-19
      380.251   1.00504e-19
      380.352   9.99856e-20
      380.454   9.94650e-20
      380.555   9.89515e-20
      380.656   9.84403e-20
      380.758   9.79272e-20
      380.859   9.74214e-20
      380.961   9.69137e-20
      381.062   9.64133e-20
      381.164   9.59106e-20
      381.266   9.54104e-20
      381.367   9.49178e-20
      381.469   9.44231e-20
      381.570   9.39358e-20
      381.672   9.34457e-20
      381.774   9.29585e-20
      381.876   9.24738e-20
      381.977   9.19966e-20
      382.079   9.15169e-20
      382.181   9.10399e-20
      382.283   9.05659e-20
      382.385   9.00939e-20
      382.487   8.96246e-20
      382.589   8.91578e-20
      382.691   8.86933e-20
      382.793   8.82316e-20
      382.895   8.77726e-20
      382.997   8.73160e-20
      383.099   8.68616e-20
      383.201   8.64098e-20
      383.303   8.59608e-20
      383.405   8.55135e-20
      383.507   8.50686e-20
      383.610   8.46226e-20
      383.712   8.41830e-20
      383.814   8.37461e-20
      383.916   8.33118e-20
      384.019   8.28752e-20
      384.121   8.24455e-20
      384.223   8.20177e-20
      384.326   8.16029e-20
      384.428   8.12297e-20
      384.531   8.08652e-20
      384.633   8.05063e-20
      384.736   8.01455e-20
      384.838   7.97895e-20
      384.941   7.94322e-20
      385.043   7.90799e-20
      385.146   7.87267e-20
      385.249   7.83745e-20
      385.351   7.80274e-20
      385.454   7.76791e-20
      385.557   7.73324e-20
      385.660   7.69876e-20
      385.762   7.66479e-20
      385.865   7.63065e-20
      385.968   7.59666e-20
      386.071   7.56286e-20
      386.174   7.52922e-20
      386.277   7.49576e-20
      386.380   7.46246e-20
      386.483   7.42931e-20
      386.586   7.39643e-20
      386.689   7.36366e-20
      386.792   7.33103e-20
      386.895   7.29858e-20
      386.998   7.26632e-20
      387.101   7.23419e-20
      387.204   7.20219e-20
      387.308   7.17013e-20
      387.411   7.13852e-20
      387.514   7.10706e-20
      387.617   7.07575e-20
      387.721   7.04433e-20
      387.824   7.01337e-20
      387.927   6.98254e-20
      388.031   6.95159e-20
      388.134   6.92109e-20
      388.238   6.89049e-20
      388.341   6.86030e-20
      388.445   6.83001e-20
      388.548   6.80011e-20
      388.652   6.77016e-20
      388.755   6.74062e-20
      388.859   6.71091e-20
      388.962   6.68166e-20
      389.066   6.65227e-20
      389.170   6.62306e-20
      389.274   6.59401e-20
      389.377   6.56541e-20
      389.481   6.53661e-20
      389.585   6.50799e-20
      389.689   6.47950e-20
      389.793   6.45119e-20
      389.897   6.42302e-20
      390.000   6.39528e-20
      390.104   6.36741e-20
      390.208   6.33966e-20
      390.312   6.31206e-20
      390.416   6.28456e-20
      390.520   6.25713e-20
      390.625   6.22960e-20
      390.729   6.20247e-20
      390.833   6.17548e-20
      390.937   6.14863e-20
      391.041   6.12193e-20
      391.145   6.09532e-20
      391.250   6.06865e-20
      391.354   6.04234e-20
      391.458   6.01616e-20
      391.563   5.98987e-20
      391.667   5.96398e-20
      391.771   5.93823e-20
      391.876   5.91236e-20
      391.980   5.88684e-20
      392.085   5.86122e-20
      392.189   5.83600e-20
      392.294   5.81065e-20
      392.398   5.78567e-20
      392.503   5.76058e-20
      392.607   5.73583e-20
      392.712   5.71102e-20
      392.817   5.68627e-20
      392.921   5.66196e-20
      393.026   5.63748e-20
      393.131   5.61316e-20
      393.236   5.58891e-20
      393.340   5.56508e-20
      393.445   5.54113e-20
      393.550   5.51726e-20
      393.655   5.49354e-20
      393.760   5.46993e-20
      393.865   5.44645e-20
      393.970   5.42307e-20
      394.075   5.39980e-20
      394.180   5.37670e-20
      394.285   5.35368e-20
      394.390   5.33075e-20
      394.495   5.30794e-20
      394.600   5.28526e-20
      394.706   5.26247e-20
      394.811   5.24004e-20
      394.916   5.21763e-20
      395.021   5.19538e-20
      395.126   5.17325e-20
      395.232   5.15100e-20
      395.337   5.12904e-20
      395.443   5.10703e-20
      395.548   5.08530e-20
      395.653   5.06366e-20
      395.759   5.04197e-20
      395.864   5.02057e-20
      395.970   4.99907e-20
      396.075   4.97786e-20
      396.181   4.95654e-20
      396.286   4.93549e-20
      396.392   4.91441e-20
      396.498   4.89342e-20
      396.603   4.87266e-20
      396.709   4.85182e-20
      396.815   4.83104e-20
      396.921   4.81039e-20
      397.026   4.79004e-20
      397.132   4.76960e-20
      397.238   4.74925e-20
      397.344   4.72896e-20
      397.450   4.70881e-20
      397.556   4.68871e-20
      397.662   4.66870e-20
      397.768   4.64879e-20
      397.874   4.62901e-20
      397.980   4.60924e-20
      398.086   4.58961e-20
      398.192   4.57003e-20
      398.298   4.55054e-20
      398.404   4.53119e-20
      398.510   4.51186e-20
      398.617   4.49245e-20
      398.723   4.47331e-20
      398.829   4.45424e-20
      398.935   4.43524e-20
      399.042   4.41620e-20
      399.148   4.39735e-20
      399.255   4.37843e-20
      399.361   4.35976e-20
      399.467   4.34115e-20
      399.574   4.32250e-20
      399.680   4.30404e-20
      399.787   4.28547e-20
      399.893       0.00000
      400.000       0.00000
