Filter Al-med
observation_date 22Sept2022
wavelength effective area
      1.00000   2.66384e-10
      1.10000   7.49522e-10
      1.20000   1.91512e-09
      1.30000   4.48759e-09
      1.40000   9.94631e-09
      1.50000   2.06560e-08
      1.60000   4.05595e-08
      1.70000   7.60789e-08
      1.80000   1.36311e-07
      1.90000   2.34788e-07
      2.00000   3.89498e-07
      2.10000   6.24936e-07
      2.20000   9.74161e-07
      2.30000   1.47326e-06
      2.40000   2.16526e-06
      2.50000   3.08199e-06
      2.60000   4.35706e-06
      2.70000   5.98509e-06
      2.80000   8.02210e-06
      2.90000   1.05756e-05
      3.00000   1.36490e-05
      3.10000   1.72877e-05
      3.20000   2.15262e-05
      3.30000   2.63681e-05
      3.40000   3.17691e-05
      3.50000   3.76788e-05
      3.60000   4.41652e-05
      3.70000   5.09334e-05
      3.80000   5.80779e-05
      3.90000   6.54272e-05
      4.00000   7.27850e-05
      4.10000   8.00596e-05
      4.20000   8.71547e-05
      4.30000   9.39535e-05
      4.40000   0.000100325
      4.50000   0.000106121
      4.60000   0.000111159
      4.70000   0.000115603
      4.80000   0.000119201
      4.90000   0.000120669
      5.00000   0.000124277
      5.10000   0.000125575
      5.20000   0.000126149
      5.30000   0.000125025
      5.40000   0.000122706
      5.50000   0.000119876
      5.60000   0.000112830
      5.70000   0.000111161
      5.80000   9.77632e-05
      5.90000   0.000111550
      6.00000   0.000111420
      6.10000   0.000105164
      6.20000   9.55564e-05
      6.30000   8.25551e-05
      6.40000   6.78406e-05
      6.50000   5.31412e-05
      6.60000   3.94495e-05
      6.70000   2.87391e-05
      6.80000   2.03376e-05
      6.90000   1.86909e-05
      7.00000   1.41812e-05
      7.10000   1.03978e-05
      7.20000   7.48080e-06
      7.30000   5.33418e-06
      7.40000   3.77661e-06
      7.50000   2.63060e-06
      7.60000   1.80010e-06
      7.70000   1.22748e-06
      7.80000   8.18788e-07
      7.90000   5.40966e-07
      8.00000      0.298571
      8.10000      0.314849
      8.20000      0.307817
      8.30000      0.299315
      8.40000      0.290258
      8.50000      0.280923
      8.60000      0.271271
      8.70000      0.261457
      8.80000      0.251452
      8.90000      0.241363
      9.00000      0.231244
      9.10000      0.221139
      9.20000      0.211091
      9.30000      0.201180
      9.40000      0.191402
      9.50000      0.181783
      9.60000      0.172404
      9.70000      0.163236
      9.80000      0.154267
      9.90000      0.145553
      10.0000      0.137095
      10.1000      0.128895
      10.2000      0.120965
      10.3000      0.113362
      10.4000      0.106091
      10.5000     0.0991273
      10.6000     0.0924734
      10.7000     0.0861292
      10.8000     0.0801067
      10.9000     0.0744166
      11.0000     0.0690230
      11.1000     0.0639220
      11.2000     0.0591060
      11.3000     0.0545698
      11.4000     0.0503040
      11.5000     0.0462990
      11.6000     0.0425464
      11.7000     0.0390503
      11.8000     0.0357908
      11.9000     0.0327808
      12.0000     0.0299636
      12.1000     0.0274625
      12.2000     0.0255962
      12.3000     0.0235493
      12.4000     0.0214615
      12.5000     0.0195156
      12.6000     0.0177138
      12.7000     0.0160508
      12.8000     0.0145208
      12.9000     0.0131170
      13.0000     0.0118312
      13.1000     0.0106553
      13.2000    0.00958177
      13.3000    0.00860327
      13.4000    0.00771304
      13.5000    0.00690653
      13.6000    0.00618215
      13.7000    0.00552581
      13.8000    0.00493183
      13.9000    0.00439516
      14.0000    0.00391086
      14.1000    0.00347426
      14.2000    0.00308119
      14.3000    0.00272784
      14.4000    0.00241072
      14.5000    0.00212848
      14.6000    0.00187887
      14.7000    0.00165555
      14.8000    0.00145598
      14.9000    0.00127787
      15.0000    0.00111915
      15.1000   0.000977965
      15.2000   0.000855514
      15.3000   0.000747269
      15.4000   0.000651209
      15.5000   0.000566110
      15.6000   0.000490885
      15.7000   0.000425588
      15.8000   0.000369274
      15.9000   0.000319613
      16.0000   0.000275906
      16.1000   0.000237534
      16.2000   0.000205052
      16.3000   0.000176817
      16.4000   0.000151970
      16.5000   0.000130163
      16.6000   0.000111525
      16.7000   9.56756e-05
      16.8000   8.17465e-05
      16.9000   6.95505e-05
      17.0000   5.92347e-05
      17.1000   5.05066e-05
      17.2000   4.28539e-05
      17.3000   3.61825e-05
      17.4000   3.07640e-05
      17.5000   2.61438e-05
      17.6000   2.21377e-05
      17.7000   1.87560e-05
      17.8000   1.60313e-05
      17.9000   1.36276e-05
      18.0000   1.15099e-05
      18.1000   9.78681e-06
      18.2000   8.26463e-06
      18.3000   6.91408e-06
      18.4000   5.78871e-06
      18.5000   4.82336e-06
      18.6000   3.97061e-06
      18.7000   3.26346e-06
      18.8000   2.68168e-06
      18.9000   2.17873e-06
      19.0000   1.78016e-06
      19.1000   1.45505e-06
      19.2000   1.17530e-06
      19.3000   9.60010e-07
      19.4000   7.82158e-07
      19.5000   6.29381e-07
      19.6000   5.16032e-07
      19.7000   4.19180e-07
      19.8000   3.36943e-07
      19.9000   2.76534e-07
      20.0000   2.23288e-07
      20.1000   1.80350e-07
      20.2000   1.46621e-07
      20.3000   1.17117e-07
      20.4000   9.50142e-08
      20.5000   7.63229e-08
      20.6000   6.06694e-08
      20.7000   4.91116e-08
      20.8000   3.88835e-08
      20.9000   3.11761e-08
      21.0000   2.48313e-08
      21.1000   1.95098e-08
      21.2000   1.56678e-08
      21.3000   1.22496e-08
      21.4000   9.76030e-09
      21.5000   7.67470e-09
      21.6000   5.99738e-09
      21.7000   4.75142e-09
      21.8000   3.64991e-09
      21.9000   2.90826e-09
      22.0000   2.24371e-09
      22.1000   1.75655e-09
      22.2000   1.35953e-09
      22.3000   1.04080e-09
      22.4000   7.98834e-10
      22.5000   5.82007e-10
      22.6000   4.17599e-10
      22.7000   2.81283e-10
      22.8000   2.70535e-10
      22.9000   2.68513e-10
      23.0000   2.72041e-10
      23.1000   2.52875e-10
      23.2000   2.12352e-10
      23.3000   1.72927e-10
      23.4000   1.34070e-10
      23.5000   1.06259e-10
      23.6000   8.12133e-11
      23.7000   6.44656e-11
      23.8000   4.86485e-11
      23.9000   3.86142e-11
      24.0000   2.91101e-11
      24.1000   2.29147e-11
      24.2000   1.72396e-11
      24.3000   1.34812e-11
      24.4000   1.01356e-11
      24.5000   7.88413e-12
      24.6000   5.92439e-12
      24.7000   4.58708e-12
      24.8000   3.44374e-12
      24.9000   2.66197e-12
      25.0000   1.99794e-12
      25.1000   1.53990e-12
      25.2000   1.15201e-12
      25.3000   8.87384e-13
      25.4000   6.61551e-13
      25.5000   5.09074e-13
      25.6000   3.77174e-13
      25.7000   2.90356e-13
      25.8000   2.13560e-13
      25.9000   1.64601e-13
      26.0000   1.19978e-13
      26.1000   9.26895e-14
      26.2000   6.68605e-14
      26.3000   5.18269e-14
      26.4000   3.69435e-14
      26.5000   2.87592e-14
      26.6000   2.06197e-14
      26.7000   1.58290e-14
      26.8000   1.14557e-14
      26.9000   8.63919e-15
      27.0000   6.31793e-15
      27.1000   4.67129e-15
      27.2000   3.45408e-15
      27.3000   2.50294e-15
      27.4000   1.88140e-15
      27.5000   1.33908e-15
      27.6000   1.01622e-15
      27.7000   7.03986e-16
      27.8000   5.40639e-16
      27.9000   3.78187e-16
      28.0000   2.84063e-16
      28.1000   2.03579e-16
      28.2000   1.48026e-16
      28.3000   1.09126e-16
      28.4000   7.71442e-17
      28.5000   5.81160e-17
      28.6000   3.98855e-17
      28.7000   3.09495e-17
      28.8000   2.20636e-17
      28.9000   1.66290e-17
      29.0000   1.21936e-17
      29.1000   8.81598e-18
      29.2000   6.63040e-18
      29.3000   4.60996e-18
      29.4000   3.54672e-18
      29.5000   2.48956e-18
      29.6000   1.86605e-18
      29.7000   1.35860e-18
      29.8000   9.65562e-19
      29.9000   7.25250e-19
      30.0000   4.91304e-19
      30.1000   3.79047e-19
      30.2000   2.67435e-19
      30.3000   1.95864e-19
      30.4000   1.47255e-19
      30.5000   1.03852e-19
      30.6000   7.89961e-20
      30.7000   5.42838e-20
      30.8000   4.00311e-20
      30.9000   2.89591e-20
      31.0000   1.98110e-20
      31.1000   1.49230e-20
      31.2000   1.00636e-20
      31.3000   7.45918e-21
      31.4000   5.34600e-21
      31.5000   3.62674e-21
      31.6000   2.72175e-21
      31.7000   1.82210e-21
      31.8000   1.33706e-21
      31.9000   9.57692e-22
      32.0000   6.36476e-22
      32.1000   4.78998e-22
      32.2000   3.22450e-22
      32.3000   2.30085e-22
      32.4000   1.66167e-22
      32.5000   1.06762e-22
      32.6000   8.11009e-23
      32.7000   5.55912e-23
      32.8000   3.79139e-23
      32.9000   2.78307e-23
      33.0000   1.78075e-23
      33.1000   1.31669e-23
      33.2000   9.27399e-24
      33.3000   5.95882e-24
      33.4000   4.47096e-24
      33.5000   2.99168e-24
      33.6000   2.03747e-24
      33.7000   1.48198e-24
      33.8000   9.29651e-25
      33.9000   6.82719e-25
      34.0000   4.78960e-25
      34.1000   2.97755e-25
      34.2000   2.22938e-25
      34.3000   1.48523e-25
      34.4000   9.54590e-26
      34.5000   6.97019e-26
      34.6000   4.40855e-26
      34.7000   2.97652e-26
      34.8000   2.07093e-26
      34.9000   1.17024e-26
      35.0000   8.36619e-27
      35.1000   5.62903e-27
      35.2000   3.11191e-27
      35.3000   2.30008e-27
      35.4000   1.49265e-27
      35.5000   8.52529e-28
      35.6000   6.18881e-28
      35.7000   3.86506e-28
      35.8000   2.28635e-28
      35.9000   1.63070e-28
      36.0000   9.78629e-29
      36.1000   6.00418e-29
      36.2000   4.21102e-29
      36.3000   2.42769e-29
      36.4000   1.54427e-29
      36.5000   1.06649e-29
      36.6000   5.91380e-30
      36.7000   3.88957e-30
      36.8000   2.65084e-30
      36.9000   1.41903e-30
      37.0000   9.59779e-31
      37.1000   6.47291e-31
      37.2000   3.36529e-31
      37.3000   2.32028e-31
      37.4000   1.55359e-31
      37.5000   7.91207e-32
      37.6000   5.49447e-32
      37.7000   3.66646e-32
      37.8000   1.84875e-32
      37.9000   1.27421e-32
      38.0000   8.50759e-33
      38.1000   4.29685e-33
      38.2000   2.89192e-33
      38.3000   1.93956e-33
      38.4000   9.92551e-34
      38.5000   6.41713e-34
      38.6000   4.33960e-34
      38.7000   2.27379e-34
      38.8000   1.39115e-34
      38.9000   9.51725e-35
      39.0000   5.14768e-35
      39.1000   2.94311e-35
      39.2000   2.04246e-35
      39.3000   1.14687e-35
      39.4000   6.06849e-36
      39.5000   4.28074e-36
      39.6000   2.50322e-36
      39.7000   1.21787e-36
      39.8000   8.74492e-37
      39.9000   5.33056e-37
      40.0000   2.37566e-37
      40.1000   1.73777e-37
      40.2000   1.10349e-37
      40.3000   4.72878e-38
      40.4000   3.35257e-38
      40.5000   2.21376e-38
      40.6000   1.08140e-38
      40.7000   6.26748e-39
      40.8000   4.29238e-39
      40.9000   2.32872e-39
      41.0000   1.13308e-39
      41.1000   8.02612e-40
      41.2000   4.74065e-40
      41.3000   1.97841e-40
      41.4000   1.44527e-40
      41.5000   9.15104e-41
      41.6000   3.88034e-41
      41.7000   2.50328e-41
      41.8000   1.67862e-41
      41.9000   8.58856e-42
      42.0000   4.16606e-42
      42.1000   2.93012e-42
      42.2000   1.70258e-42
      42.3000   6.64215e-43
      42.4000   4.86251e-43
      42.5000   3.09687e-43
      42.6000   1.34525e-43
      42.7000   7.70714e-44
      42.8000   5.04467e-44
      42.9000   2.52234e-44
      43.0000   1.26117e-44
      43.1000   9.80909e-45
      43.2000   2.80260e-45
      43.3000       0.00000
      43.4000   2.80260e-45
      43.5000   2.80260e-45
      43.6000   2.80260e-45
      43.7000       0.00000
      43.8000       0.00000
      43.9000       0.00000
      44.0000       0.00000
      44.1000       0.00000
      44.2000       0.00000
      44.3000       0.00000
      44.4000       0.00000
      44.5000       0.00000
      44.6000       0.00000
      44.7000       0.00000
      44.8000       0.00000
      44.9000       0.00000
      45.0000       0.00000
      45.1000       0.00000
      45.2000       0.00000
      45.3000       0.00000
      45.4000       0.00000
      45.5000       0.00000
      45.6000       0.00000
      45.7000       0.00000
      45.8000       0.00000
      45.9000       0.00000
      46.0000       0.00000
      46.1000       0.00000
      46.2000       0.00000
      46.3000       0.00000
      46.4000       0.00000
      46.5000       0.00000
      46.6000       0.00000
      46.7000       0.00000
      46.8000       0.00000
      46.9000       0.00000
      47.0000       0.00000
      47.1000       0.00000
      47.2000       0.00000
      47.3000       0.00000
      47.4000       0.00000
      47.5000       0.00000
      47.6000       0.00000
      47.7000       0.00000
      47.8000       0.00000
      47.9000       0.00000
      48.0000       0.00000
      48.1000       0.00000
      48.2000       0.00000
      48.3000       0.00000
      48.4000       0.00000
      48.5000       0.00000
      48.6000       0.00000
      48.7000       0.00000
      48.8000       0.00000
      48.9000       0.00000
      49.0000       0.00000
      49.1000       0.00000
      49.2000       0.00000
      49.3000       0.00000
      49.4000       0.00000
      49.5000       0.00000
      49.6000       0.00000
      49.7000       0.00000
      49.8000       0.00000
      49.9000       0.00000
      50.0000       0.00000
      50.1000       0.00000
      50.2000       0.00000
      50.3000       0.00000
      50.4000       0.00000
      50.5000       0.00000
      50.6000       0.00000
      50.7000       0.00000
      50.8000       0.00000
      50.9000       0.00000
      51.0000       0.00000
      51.1000       0.00000
      51.2000       0.00000
      51.3000       0.00000
      51.4000       0.00000
      51.5000       0.00000
      51.6000       0.00000
      51.7000       0.00000
      51.8000       0.00000
      51.9000       0.00000
      52.0000       0.00000
      52.1000       0.00000
      52.2000       0.00000
      52.3000       0.00000
      52.4000       0.00000
      52.5000       0.00000
      52.6000       0.00000
      52.7000       0.00000
      52.8000       0.00000
      52.9000       0.00000
      53.0000       0.00000
      53.1000       0.00000
      53.2000       0.00000
      53.3000       0.00000
      53.4000       0.00000
      53.5000       0.00000
      53.6000       0.00000
      53.7000       0.00000
      53.8000       0.00000
      53.9000       0.00000
      54.0000       0.00000
      54.1000       0.00000
      54.2000       0.00000
      54.3000       0.00000
      54.4000       0.00000
      54.5000       0.00000
      54.6000       0.00000
      54.7000       0.00000
      54.8000       0.00000
      54.9000       0.00000
      55.0000       0.00000
      55.1000       0.00000
      55.2000       0.00000
      55.3000       0.00000
      55.4000       0.00000
      55.5000       0.00000
      55.6000       0.00000
      55.7000       0.00000
      55.8000       0.00000
      55.9000       0.00000
      56.0000       0.00000
      56.1000       0.00000
      56.2000       0.00000
      56.3000       0.00000
      56.4000       0.00000
      56.5000       0.00000
      56.6000       0.00000
      56.7000       0.00000
      56.8000       0.00000
      56.9000       0.00000
      57.0000       0.00000
      57.1000       0.00000
      57.2000       0.00000
      57.3000       0.00000
      57.4000       0.00000
      57.5000       0.00000
      57.6000       0.00000
      57.7000       0.00000
      57.8000       0.00000
      57.9000       0.00000
      58.0000       0.00000
      58.1000       0.00000
      58.2000       0.00000
      58.3000       0.00000
      58.4000       0.00000
      58.5000       0.00000
      58.6000       0.00000
      58.7000       0.00000
      58.8000       0.00000
      58.9000       0.00000
      59.0000       0.00000
      59.1000       0.00000
      59.2000       0.00000
      59.3000       0.00000
      59.4000       0.00000
      59.5000       0.00000
      59.6000       0.00000
      59.7000       0.00000
      59.8000       0.00000
      59.9000       0.00000
      60.0000       0.00000
      60.1000       0.00000
      60.2000       0.00000
      60.3000       0.00000
      60.4000       0.00000
      60.5000       0.00000
      60.6000       0.00000
      60.7000       0.00000
      60.8000       0.00000
      60.9000       0.00000
      61.0000       0.00000
      61.1000       0.00000
      61.2000       0.00000
      61.3000       0.00000
      61.4000       0.00000
      61.5000       0.00000
      61.6000       0.00000
      61.7000       0.00000
      61.8000       0.00000
      61.9000       0.00000
      62.0000       0.00000
      62.1000       0.00000
      62.2000       0.00000
      62.3000       0.00000
      62.4000       0.00000
      62.5000       0.00000
      62.6000       0.00000
      62.7000       0.00000
      62.8000       0.00000
      62.9000       0.00000
      63.0000       0.00000
      63.1000       0.00000
      63.2000       0.00000
      63.3000       0.00000
      63.4000       0.00000
      63.5000       0.00000
      63.6000       0.00000
      63.7000       0.00000
      63.8000       0.00000
      63.9000       0.00000
      64.0000       0.00000
      64.1000       0.00000
      64.2000       0.00000
      64.3000       0.00000
      64.4000       0.00000
      64.5000       0.00000
      64.6000       0.00000
      64.7000       0.00000
      64.8000       0.00000
      64.9000       0.00000
      65.0000       0.00000
      65.1000       0.00000
      65.2000       0.00000
      65.3000       0.00000
      65.4000       0.00000
      65.5000       0.00000
      65.6000       0.00000
      65.7000       0.00000
      65.8000       0.00000
      65.9000       0.00000
      66.0000       0.00000
      66.1000       0.00000
      66.2000       0.00000
      66.3000       0.00000
      66.4000       0.00000
      66.5000       0.00000
      66.6000       0.00000
      66.7000       0.00000
      66.8000       0.00000
      66.9000       0.00000
      67.0000       0.00000
      67.1000       0.00000
      67.2000       0.00000
      67.3000       0.00000
      67.4000       0.00000
      67.5000       0.00000
      67.6000       0.00000
      67.7000       0.00000
      67.8000       0.00000
      67.9000       0.00000
      68.0000       0.00000
      68.1000       0.00000
      68.2000       0.00000
      68.3000       0.00000
      68.4000       0.00000
      68.5000       0.00000
      68.6000       0.00000
      68.7000       0.00000
      68.8000       0.00000
      68.9000       0.00000
      69.0000       0.00000
      69.1000       0.00000
      69.2000       0.00000
      69.3000       0.00000
      69.4000       0.00000
      69.5000       0.00000
      69.6000       0.00000
      69.7000       0.00000
      69.8000       0.00000
      69.9000       0.00000
      70.0000       0.00000
      70.1000       0.00000
      70.2000       0.00000
      70.3000       0.00000
      70.4000       0.00000
      70.5000       0.00000
      70.6000       0.00000
      70.7000       0.00000
      70.8000       0.00000
      70.9000       0.00000
      71.0000       0.00000
      71.1000       0.00000
      71.2000       0.00000
      71.3000       0.00000
      71.4000       0.00000
      71.5000       0.00000
      71.6000       0.00000
      71.7000       0.00000
      71.8000       0.00000
      71.9000       0.00000
      72.0000       0.00000
      72.1000       0.00000
      72.2000       0.00000
      72.3000       0.00000
      72.4000       0.00000
      72.5000       0.00000
      72.6000       0.00000
      72.7000       0.00000
      72.8000       0.00000
      72.9000       0.00000
      73.0000       0.00000
      73.1000       0.00000
      73.2000       0.00000
      73.3000       0.00000
      73.4000       0.00000
      73.5000       0.00000
      73.6000       0.00000
      73.7000       0.00000
      73.8000       0.00000
      73.9000       0.00000
      74.0000       0.00000
      74.1000       0.00000
      74.2000       0.00000
      74.3000       0.00000
      74.4000       0.00000
      74.5000       0.00000
      74.6000       0.00000
      74.7000       0.00000
      74.8000       0.00000
      74.9000       0.00000
      75.0000       0.00000
      75.1000       0.00000
      75.2000       0.00000
      75.3000       0.00000
      75.4000       0.00000
      75.5000       0.00000
      75.6000       0.00000
      75.7000       0.00000
      75.8000       0.00000
      75.9000       0.00000
      76.0000       0.00000
      76.1000       0.00000
      76.2000       0.00000
      76.3000       0.00000
      76.4000       0.00000
      76.5000       0.00000
      76.6000       0.00000
      76.7000       0.00000
      76.8000       0.00000
      76.9000       0.00000
      77.0000       0.00000
      77.1000       0.00000
      77.2000       0.00000
      77.3000       0.00000
      77.4000       0.00000
      77.5000       0.00000
      77.6000       0.00000
      77.7000       0.00000
      77.8000       0.00000
      77.9000       0.00000
      78.0000       0.00000
      78.1000       0.00000
      78.2000       0.00000
      78.3000       0.00000
      78.4000       0.00000
      78.5000       0.00000
      78.6000       0.00000
      78.7000       0.00000
      78.8000       0.00000
      78.9000       0.00000
      79.0000       0.00000
      79.1000       0.00000
      79.2000       0.00000
      79.3000       0.00000
      79.4000       0.00000
      79.5000       0.00000
      79.6000       0.00000
      79.7000       0.00000
      79.8000       0.00000
      79.9000       0.00000
      80.0000       0.00000
      80.1000       0.00000
      80.2000       0.00000
      80.3000       0.00000
      80.4000       0.00000
      80.5000       0.00000
      80.6000       0.00000
      80.7000       0.00000
      80.8000       0.00000
      80.9000       0.00000
      81.0000       0.00000
      81.1000       0.00000
      81.2000       0.00000
      81.3000       0.00000
      81.4000       0.00000
      81.5000       0.00000
      81.6000       0.00000
      81.7000       0.00000
      81.8000       0.00000
      81.9000       0.00000
      82.0000       0.00000
      82.1000       0.00000
      82.2000       0.00000
      82.3000       0.00000
      82.4000       0.00000
      82.5000       0.00000
      82.6000       0.00000
      82.7000       0.00000
      82.8000       0.00000
      82.9000       0.00000
      83.0000       0.00000
      83.1000       0.00000
      83.2000       0.00000
      83.3000       0.00000
      83.4000       0.00000
      83.5000       0.00000
      83.6000       0.00000
      83.7000       0.00000
      83.8000       0.00000
      83.9000       0.00000
      84.0000       0.00000
      84.1000       0.00000
      84.2000       0.00000
      84.3000       0.00000
      84.4000       0.00000
      84.5000       0.00000
      84.6000       0.00000
      84.7000       0.00000
      84.8000       0.00000
      84.9000       0.00000
      85.0000       0.00000
      85.1000       0.00000
      85.2000       0.00000
      85.3000       0.00000
      85.4000       0.00000
      85.5000       0.00000
      85.6000       0.00000
      85.7000       0.00000
      85.8000       0.00000
      85.9000       0.00000
      86.0000       0.00000
      86.1000       0.00000
      86.2000       0.00000
      86.3000       0.00000
      86.4000       0.00000
      86.5000       0.00000
      86.6000       0.00000
      86.7000       0.00000
      86.8000       0.00000
      86.9000       0.00000
      87.0000       0.00000
      87.1000       0.00000
      87.2000       0.00000
      87.3000       0.00000
      87.4000       0.00000
      87.5000       0.00000
      87.6000       0.00000
      87.7000       0.00000
      87.8000       0.00000
      87.9000       0.00000
      88.0000       0.00000
      88.1000       0.00000
      88.2000       0.00000
      88.3000       0.00000
      88.4000       0.00000
      88.5000       0.00000
      88.6000       0.00000
      88.7000       0.00000
      88.8000       0.00000
      88.9000       0.00000
      89.0000       0.00000
      89.1000       0.00000
      89.2000       0.00000
      89.3000       0.00000
      89.4000       0.00000
      89.5000       0.00000
      89.6000       0.00000
      89.7000       0.00000
      89.8000       0.00000
      89.9000       0.00000
      90.0000       0.00000
      90.1000       0.00000
      90.2000       0.00000
      90.3000       0.00000
      90.4000       0.00000
      90.5000       0.00000
      90.6000       0.00000
      90.7000       0.00000
      90.8000       0.00000
      90.9000       0.00000
      91.0000       0.00000
      91.1000       0.00000
      91.2000       0.00000
      91.3000       0.00000
      91.4000       0.00000
      91.5000       0.00000
      91.6000       0.00000
      91.7000       0.00000
      91.8000       0.00000
      91.9000       0.00000
      92.0000       0.00000
      92.1000       0.00000
      92.2000       0.00000
      92.3000       0.00000
      92.4000       0.00000
      92.5000       0.00000
      92.6000       0.00000
      92.7000       0.00000
      92.8000       0.00000
      92.9000       0.00000
      93.0000       0.00000
      93.1000       0.00000
      93.2000       0.00000
      93.3000       0.00000
      93.4000       0.00000
      93.5000       0.00000
      93.6000       0.00000
      93.7000       0.00000
      93.8000       0.00000
      93.9000       0.00000
      94.0000       0.00000
      94.1000       0.00000
      94.2000       0.00000
      94.3000       0.00000
      94.4000       0.00000
      94.5000       0.00000
      94.6000       0.00000
      94.7000       0.00000
      94.8000       0.00000
      94.9000       0.00000
      95.0000       0.00000
      95.1000       0.00000
      95.2000       0.00000
      95.3000       0.00000
      95.4000       0.00000
      95.5000       0.00000
      95.6000       0.00000
      95.7000       0.00000
      95.8000       0.00000
      95.9000       0.00000
      96.0000       0.00000
      96.1000       0.00000
      96.2000       0.00000
      96.3000       0.00000
      96.4000       0.00000
      96.5000       0.00000
      96.6000       0.00000
      96.7000       0.00000
      96.8000       0.00000
      96.9000       0.00000
      97.0000       0.00000
      97.1000       0.00000
      97.2000       0.00000
      97.3000       0.00000
      97.4000       0.00000
      97.5000       0.00000
      97.6000       0.00000
      97.7000       0.00000
      97.8000       0.00000
      97.9000       0.00000
      98.0000       0.00000
      98.1000       0.00000
      98.2000       0.00000
      98.3000       0.00000
      98.4000       0.00000
      98.5000       0.00000
      98.6000       0.00000
      98.7000       0.00000
      98.8000       0.00000
      98.9000       0.00000
      99.0000       0.00000
      99.1000       0.00000
      99.2000       0.00000
      99.3000       0.00000
      99.4000       0.00000
      99.5000       0.00000
      99.6000       0.00000
      99.7000       0.00000
      99.8000       0.00000
      99.9000       0.00000
      100.000       0.00000
      100.100       0.00000
      100.200       0.00000
      100.300       0.00000
      100.400       0.00000
      100.500       0.00000
      100.600       0.00000
      100.700       0.00000
      100.800       0.00000
      100.900       0.00000
      101.000       0.00000
      101.100       0.00000
      101.200       0.00000
      101.300       0.00000
      101.400       0.00000
      101.500       0.00000
      101.600       0.00000
      101.700       0.00000
      101.800       0.00000
      101.900       0.00000
      102.000       0.00000
      102.100       0.00000
      102.200       0.00000
      102.300       0.00000
      102.400       0.00000
      102.500       0.00000
      102.600       0.00000
      102.700       0.00000
      102.800       0.00000
      102.900       0.00000
      103.000       0.00000
      103.100       0.00000
      103.200       0.00000
      103.300       0.00000
      103.400       0.00000
      103.500       0.00000
      103.600       0.00000
      103.700       0.00000
      103.800       0.00000
      103.900       0.00000
      104.000       0.00000
      104.100       0.00000
      104.200       0.00000
      104.300       0.00000
      104.400       0.00000
      104.500       0.00000
      104.600       0.00000
      104.700       0.00000
      104.800       0.00000
      104.900       0.00000
      105.000       0.00000
      105.100       0.00000
      105.200       0.00000
      105.300       0.00000
      105.400       0.00000
      105.500       0.00000
      105.600       0.00000
      105.700       0.00000
      105.800       0.00000
      105.900       0.00000
      106.000       0.00000
      106.100       0.00000
      106.200       0.00000
      106.300       0.00000
      106.400       0.00000
      106.500       0.00000
      106.600       0.00000
      106.700       0.00000
      106.800       0.00000
      106.900       0.00000
      107.000       0.00000
      107.100       0.00000
      107.200       0.00000
      107.300       0.00000
      107.400       0.00000
      107.500       0.00000
      107.600       0.00000
      107.700       0.00000
      107.800       0.00000
      107.900       0.00000
      108.000       0.00000
      108.100       0.00000
      108.200       0.00000
      108.300       0.00000
      108.400       0.00000
      108.500       0.00000
      108.600       0.00000
      108.700       0.00000
      108.800       0.00000
      108.900       0.00000
      109.000       0.00000
      109.100       0.00000
      109.200       0.00000
      109.300       0.00000
      109.400       0.00000
      109.500       0.00000
      109.600       0.00000
      109.700       0.00000
      109.800       0.00000
      109.900       0.00000
      110.000       0.00000
      110.100       0.00000
      110.200       0.00000
      110.300       0.00000
      110.400       0.00000
      110.500       0.00000
      110.600       0.00000
      110.700       0.00000
      110.800       0.00000
      110.900       0.00000
      111.000       0.00000
      111.100       0.00000
      111.200       0.00000
      111.300       0.00000
      111.400       0.00000
      111.500       0.00000
      111.600       0.00000
      111.700       0.00000
      111.800       0.00000
      111.900       0.00000
      112.000       0.00000
      112.100       0.00000
      112.200       0.00000
      112.300       0.00000
      112.400       0.00000
      112.500       0.00000
      112.600       0.00000
      112.700       0.00000
      112.800       0.00000
      112.900       0.00000
      113.000       0.00000
      113.100       0.00000
      113.200       0.00000
      113.300       0.00000
      113.400       0.00000
      113.500       0.00000
      113.600       0.00000
      113.700       0.00000
      113.800       0.00000
      113.900       0.00000
      114.000       0.00000
      114.100       0.00000
      114.200       0.00000
      114.300       0.00000
      114.400       0.00000
      114.500       0.00000
      114.600       0.00000
      114.700       0.00000
      114.800       0.00000
      114.900       0.00000
      115.000       0.00000
      115.100       0.00000
      115.200       0.00000
      115.300       0.00000
      115.400       0.00000
      115.500       0.00000
      115.600       0.00000
      115.700       0.00000
      115.800       0.00000
      115.900       0.00000
      116.000       0.00000
      116.100       0.00000
      116.200       0.00000
      116.300       0.00000
      116.400       0.00000
      116.500       0.00000
      116.600       0.00000
      116.700       0.00000
      116.800       0.00000
      116.900       0.00000
      117.000       0.00000
      117.100       0.00000
      117.200       0.00000
      117.300       0.00000
      117.400       0.00000
      117.500       0.00000
      117.600       0.00000
      117.700       0.00000
      117.800       0.00000
      117.900       0.00000
      118.000       0.00000
      118.100       0.00000
      118.200       0.00000
      118.300       0.00000
      118.400       0.00000
      118.500       0.00000
      118.600       0.00000
      118.700       0.00000
      118.800       0.00000
      118.900       0.00000
      119.000       0.00000
      119.100       0.00000
      119.200       0.00000
      119.300       0.00000
      119.400       0.00000
      119.500       0.00000
      119.600       0.00000
      119.700       0.00000
      119.800       0.00000
      119.900       0.00000
      120.000       0.00000
      120.100       0.00000
      120.200       0.00000
      120.300       0.00000
      120.400       0.00000
      120.500       0.00000
      120.600       0.00000
      120.700       0.00000
      120.800       0.00000
      120.900       0.00000
      121.000       0.00000
      121.100       0.00000
      121.200       0.00000
      121.300       0.00000
      121.400       0.00000
      121.500       0.00000
      121.600       0.00000
      121.700       0.00000
      121.800       0.00000
      121.900       0.00000
      122.000       0.00000
      122.100       0.00000
      122.200       0.00000
      122.300       0.00000
      122.400       0.00000
      122.500       0.00000
      122.600       0.00000
      122.700       0.00000
      122.800       0.00000
      122.900       0.00000
      123.000       0.00000
      123.100       0.00000
      123.200       0.00000
      123.300       0.00000
      123.400       0.00000
      123.500       0.00000
      123.600       0.00000
      123.700       0.00000
      123.800       0.00000
      123.900       0.00000
      124.000       0.00000
      124.100       0.00000
      124.200       0.00000
      124.300       0.00000
      124.400       0.00000
      124.500       0.00000
      124.600       0.00000
      124.700       0.00000
      124.800       0.00000
      124.900       0.00000
      125.000       0.00000
      125.100       0.00000
      125.200       0.00000
      125.300       0.00000
      125.400       0.00000
      125.500       0.00000
      125.600       0.00000
      125.700       0.00000
      125.800       0.00000
      125.900       0.00000
      126.000       0.00000
      126.100       0.00000
      126.200       0.00000
      126.300       0.00000
      126.400       0.00000
      126.500       0.00000
      126.600       0.00000
      126.700       0.00000
      126.800       0.00000
      126.900       0.00000
      127.000       0.00000
      127.100       0.00000
      127.200       0.00000
      127.300       0.00000
      127.400       0.00000
      127.500       0.00000
      127.600       0.00000
      127.700       0.00000
      127.800       0.00000
      127.900       0.00000
      128.000       0.00000
      128.100       0.00000
      128.200       0.00000
      128.300       0.00000
      128.400       0.00000
      128.500       0.00000
      128.600       0.00000
      128.700       0.00000
      128.800       0.00000
      128.900       0.00000
      129.000       0.00000
      129.100       0.00000
      129.200       0.00000
      129.300       0.00000
      129.400       0.00000
      129.500       0.00000
      129.600       0.00000
      129.700       0.00000
      129.800       0.00000
      129.900       0.00000
      130.000       0.00000
      130.100       0.00000
      130.200       0.00000
      130.300       0.00000
      130.400       0.00000
      130.500       0.00000
      130.600       0.00000
      130.700       0.00000
      130.800       0.00000
      130.900       0.00000
      131.000       0.00000
      131.100       0.00000
      131.200       0.00000
      131.300       0.00000
      131.400       0.00000
      131.500       0.00000
      131.600       0.00000
      131.700       0.00000
      131.800       0.00000
      131.900       0.00000
      132.000       0.00000
      132.100       0.00000
      132.200       0.00000
      132.300       0.00000
      132.400       0.00000
      132.500       0.00000
      132.600       0.00000
      132.700       0.00000
      132.800       0.00000
      132.900       0.00000
      133.000       0.00000
      133.100       0.00000
      133.200       0.00000
      133.300       0.00000
      133.400       0.00000
      133.500       0.00000
      133.600       0.00000
      133.700       0.00000
      133.800       0.00000
      133.900       0.00000
      134.000       0.00000
      134.100       0.00000
      134.200       0.00000
      134.300       0.00000
      134.400       0.00000
      134.500       0.00000
      134.600       0.00000
      134.700       0.00000
      134.800       0.00000
      134.900       0.00000
      135.000       0.00000
      135.100       0.00000
      135.200       0.00000
      135.300       0.00000
      135.400       0.00000
      135.500       0.00000
      135.600       0.00000
      135.700       0.00000
      135.800       0.00000
      135.900       0.00000
      136.000       0.00000
      136.100       0.00000
      136.200       0.00000
      136.300       0.00000
      136.400       0.00000
      136.500       0.00000
      136.600       0.00000
      136.700       0.00000
      136.800       0.00000
      136.900       0.00000
      137.000       0.00000
      137.100       0.00000
      137.200       0.00000
      137.300       0.00000
      137.400       0.00000
      137.500       0.00000
      137.600       0.00000
      137.700       0.00000
      137.800       0.00000
      137.900       0.00000
      138.000       0.00000
      138.100       0.00000
      138.200       0.00000
      138.300       0.00000
      138.400       0.00000
      138.500       0.00000
      138.600       0.00000
      138.700       0.00000
      138.800       0.00000
      138.900       0.00000
      139.000       0.00000
      139.100       0.00000
      139.200       0.00000
      139.300       0.00000
      139.400       0.00000
      139.500       0.00000
      139.600       0.00000
      139.700       0.00000
      139.800       0.00000
      139.900       0.00000
      140.000       0.00000
      140.100       0.00000
      140.200       0.00000
      140.300       0.00000
      140.400       0.00000
      140.500       0.00000
      140.600       0.00000
      140.700       0.00000
      140.800       0.00000
      140.900       0.00000
      141.000       0.00000
      141.100       0.00000
      141.200       0.00000
      141.300       0.00000
      141.400       0.00000
      141.500       0.00000
      141.600       0.00000
      141.700       0.00000
      141.800       0.00000
      141.900       0.00000
      142.000       0.00000
      142.100       0.00000
      142.200       0.00000
      142.300       0.00000
      142.400       0.00000
      142.500       0.00000
      142.600       0.00000
      142.700       0.00000
      142.800       0.00000
      142.900       0.00000
      143.000       0.00000
      143.100       0.00000
      143.200       0.00000
      143.300       0.00000
      143.400       0.00000
      143.500       0.00000
      143.600       0.00000
      143.700       0.00000
      143.800       0.00000
      143.900       0.00000
      144.000       0.00000
      144.100       0.00000
      144.200       0.00000
      144.300       0.00000
      144.400       0.00000
      144.500       0.00000
      144.600       0.00000
      144.700       0.00000
      144.800       0.00000
      144.900       0.00000
      145.000       0.00000
      145.100       0.00000
      145.200       0.00000
      145.300       0.00000
      145.400       0.00000
      145.500       0.00000
      145.600       0.00000
      145.700       0.00000
      145.800       0.00000
      145.900       0.00000
      146.000       0.00000
      146.100       0.00000
      146.200       0.00000
      146.300       0.00000
      146.400       0.00000
      146.500       0.00000
      146.600       0.00000
      146.700       0.00000
      146.800       0.00000
      146.900       0.00000
      147.000       0.00000
      147.100       0.00000
      147.200       0.00000
      147.300       0.00000
      147.400       0.00000
      147.500       0.00000
      147.600       0.00000
      147.700       0.00000
      147.800       0.00000
      147.900       0.00000
      148.000       0.00000
      148.100       0.00000
      148.200       0.00000
      148.300       0.00000
      148.400       0.00000
      148.500       0.00000
      148.600       0.00000
      148.700       0.00000
      148.800       0.00000
      148.900       0.00000
      149.000       0.00000
      149.100       0.00000
      149.200       0.00000
      149.300       0.00000
      149.400       0.00000
      149.500       0.00000
      149.600       0.00000
      149.700       0.00000
      149.800       0.00000
      149.900       0.00000
      150.000       0.00000
      150.100       0.00000
      150.200       0.00000
      150.300       0.00000
      150.400       0.00000
      150.500       0.00000
      150.600       0.00000
      150.700       0.00000
      150.800       0.00000
      150.900       0.00000
      151.000       0.00000
      151.100       0.00000
      151.200       0.00000
      151.300       0.00000
      151.400       0.00000
      151.500       0.00000
      151.600       0.00000
      151.700       0.00000
      151.800       0.00000
      151.900       0.00000
      152.000       0.00000
      152.100       0.00000
      152.200       0.00000
      152.300       0.00000
      152.400       0.00000
      152.500       0.00000
      152.600       0.00000
      152.700       0.00000
      152.800       0.00000
      152.900       0.00000
      153.000       0.00000
      153.100       0.00000
      153.200       0.00000
      153.300       0.00000
      153.400       0.00000
      153.500       0.00000
      153.600       0.00000
      153.700       0.00000
      153.800       0.00000
      153.900       0.00000
      154.000       0.00000
      154.100       0.00000
      154.200       0.00000
      154.300       0.00000
      154.400       0.00000
      154.500       0.00000
      154.600       0.00000
      154.700       0.00000
      154.800       0.00000
      154.900       0.00000
      155.000       0.00000
      155.100       0.00000
      155.200       0.00000
      155.300       0.00000
      155.400       0.00000
      155.500       0.00000
      155.600       0.00000
      155.700       0.00000
      155.800       0.00000
      155.900       0.00000
      156.000       0.00000
      156.100       0.00000
      156.200       0.00000
      156.300       0.00000
      156.400       0.00000
      156.500       0.00000
      156.600       0.00000
      156.700       0.00000
      156.800       0.00000
      156.900       0.00000
      157.000       0.00000
      157.100       0.00000
      157.200       0.00000
      157.300       0.00000
      157.400       0.00000
      157.500       0.00000
      157.600       0.00000
      157.700       0.00000
      157.800       0.00000
      157.900       0.00000
      158.000       0.00000
      158.100       0.00000
      158.200       0.00000
      158.300       0.00000
      158.400       0.00000
      158.500       0.00000
      158.600       0.00000
      158.700       0.00000
      158.800       0.00000
      158.900       0.00000
      159.000       0.00000
      159.100       0.00000
      159.200       0.00000
      159.300       0.00000
      159.400       0.00000
      159.500       0.00000
      159.600       0.00000
      159.700       0.00000
      159.800       0.00000
      159.900       0.00000
      160.000       0.00000
      160.100       0.00000
      160.200       0.00000
      160.300       0.00000
      160.400       0.00000
      160.500       0.00000
      160.600       0.00000
      160.700       0.00000
      160.800       0.00000
      160.900       0.00000
      161.000       0.00000
      161.100       0.00000
      161.200       0.00000
      161.300       0.00000
      161.400       0.00000
      161.500       0.00000
      161.600       0.00000
      161.700       0.00000
      161.800       0.00000
      161.900       0.00000
      162.000       0.00000
      162.100       0.00000
      162.200       0.00000
      162.300       0.00000
      162.400       0.00000
      162.500       0.00000
      162.600       0.00000
      162.700       0.00000
      162.800       0.00000
      162.900       0.00000
      163.000       0.00000
      163.100       0.00000
      163.200       0.00000
      163.300       0.00000
      163.400       0.00000
      163.500       0.00000
      163.600       0.00000
      163.700       0.00000
      163.800       0.00000
      163.900       0.00000
      164.000       0.00000
      164.100       0.00000
      164.200       0.00000
      164.300       0.00000
      164.400       0.00000
      164.500       0.00000
      164.600       0.00000
      164.700       0.00000
      164.800       0.00000
      164.900       0.00000
      165.000       0.00000
      165.100       0.00000
      165.200       0.00000
      165.300       0.00000
      165.400       0.00000
      165.500       0.00000
      165.600       0.00000
      165.700       0.00000
      165.800       0.00000
      165.900       0.00000
      166.000       0.00000
      166.100       0.00000
      166.200       0.00000
      166.300       0.00000
      166.400       0.00000
      166.500       0.00000
      166.600       0.00000
      166.700       0.00000
      166.800       0.00000
      166.900       0.00000
      167.000       0.00000
      167.100       0.00000
      167.200       0.00000
      167.300       0.00000
      167.400       0.00000
      167.500       0.00000
      167.600       0.00000
      167.700       0.00000
      167.800       0.00000
      167.900       0.00000
      168.000       0.00000
      168.100       0.00000
      168.200       0.00000
      168.300       0.00000
      168.400       0.00000
      168.500       0.00000
      168.600       0.00000
      168.700       0.00000
      168.800       0.00000
      168.900       0.00000
      169.000       0.00000
      169.100       0.00000
      169.200       0.00000
      169.300       0.00000
      169.400       0.00000
      169.500       0.00000
      169.600       0.00000
      169.700       0.00000
      169.800       0.00000
      169.900       0.00000
      170.000       0.00000
      170.100       0.00000
      170.200       0.00000
      170.300       0.00000
      170.400       0.00000
      170.500   2.42001e-31
      170.600   1.11742e-19
      170.700   1.18117e-12
      170.800   1.00135e-10
      170.900   1.63706e-10
      171.000   1.65130e-10
      171.100   1.66554e-10
      171.200   1.67977e-10
      171.300   1.69400e-10
      171.400   1.70820e-10
      171.500   1.72239e-10
      171.600   1.73658e-10
      171.700   1.75079e-10
      171.800   1.76501e-10
      171.900   1.77924e-10
      172.000   1.79353e-10
      172.100   1.80790e-10
      172.200   1.82234e-10
      172.300   1.83680e-10
      172.400   1.85101e-10
      172.500   1.86525e-10
      172.600   1.87960e-10
      172.700   1.89406e-10
      172.800   1.90861e-10
      172.900   1.92330e-10
      173.000   1.93809e-10
      173.100   1.95299e-10
      173.200   1.96802e-10
      173.300   1.98317e-10
      173.400   1.99847e-10
      173.500   2.01387e-10
      173.600   2.02941e-10
      173.700   2.04507e-10
      173.800   2.06087e-10
      173.900   2.07677e-10
      174.000   2.09280e-10
      174.100   2.10898e-10
      174.200   2.12526e-10
      174.300   2.14162e-10
      174.400   2.15813e-10
      174.500   2.17473e-10
      174.600   2.19146e-10
      174.700   2.20828e-10
      174.800   2.22519e-10
      174.900   2.24221e-10
      175.000   2.25933e-10
      175.100   2.27650e-10
      175.200   2.29389e-10
      175.300   2.31132e-10
      175.400   2.32887e-10
      175.500   2.34650e-10
      175.600   2.36420e-10
      175.700   2.38200e-10
      175.800   2.39992e-10
      175.900   2.41790e-10
      176.000   2.43596e-10
      176.100   2.45412e-10
      176.200   2.47236e-10
      176.300   2.49072e-10
      176.400   2.50915e-10
      176.500   2.52766e-10
      176.600   2.54629e-10
      176.700   2.56500e-10
      176.800   2.58378e-10
      176.900   2.60265e-10
      177.000   2.62163e-10
      177.100   2.64070e-10
      177.200   2.65983e-10
      177.300   2.67904e-10
      177.400   2.69836e-10
      177.500   2.71775e-10
      177.600   2.73721e-10
      177.700   2.75675e-10
      177.800   2.77635e-10
      177.900   2.79604e-10
      178.000   2.81599e-10
      178.100   2.83601e-10
      178.200   2.85612e-10
      178.300   2.87632e-10
      178.400   2.89657e-10
      178.500   2.91689e-10
      178.600   2.93729e-10
      178.700   2.95780e-10
      178.800   2.97835e-10
      178.900   2.99896e-10
      179.000   3.01965e-10
      179.100   3.04042e-10
      179.200   3.06130e-10
      179.300   3.08223e-10
      179.400   3.10325e-10
      179.500   3.12437e-10
      179.600   3.14562e-10
      179.700   3.16693e-10
      179.800   3.18833e-10
      179.900   3.20984e-10
      180.000   3.23150e-10
      180.100   3.25323e-10
      180.200   3.27509e-10
      180.300   3.29705e-10
      180.400   3.31918e-10
      180.500   3.34144e-10
      180.600   3.36379e-10
      180.700   3.38627e-10
      180.800   3.40919e-10
      180.900   3.43275e-10
      181.000   3.45667e-10
      181.100   3.48071e-10
      181.200   3.50494e-10
      181.300   3.52936e-10
      181.400   3.55389e-10
      181.500   3.57856e-10
      181.600   3.60342e-10
      181.700   3.62846e-10
      181.800   3.65361e-10
      181.900   3.67892e-10
      182.000   3.70442e-10
      182.100   3.73002e-10
      182.200   3.75585e-10
      182.300   3.78178e-10
      182.400   3.80785e-10
      182.500   3.83407e-10
      182.600   3.86048e-10
      182.700   3.88699e-10
      182.800   3.91361e-10
      182.900   3.94041e-10
      183.000   3.96734e-10
      183.100   3.99439e-10
      183.200   4.02157e-10
      183.300   4.04889e-10
      183.400   4.07635e-10
      183.500   4.10393e-10
      183.600   4.13164e-10
      183.700   4.16064e-10
      183.800   4.19480e-10
      183.900   4.23223e-10
      184.000   4.26985e-10
      184.100   4.30781e-10
      184.200   4.34599e-10
      184.300   4.38450e-10
      184.400   4.42326e-10
      184.500   4.46225e-10
      184.600   4.50151e-10
      184.700   4.54109e-10
      184.800   4.58092e-10
      184.900   4.62100e-10
      185.000   4.66135e-10
      185.100   4.70200e-10
      185.200   4.74295e-10
      185.300   4.78411e-10
      185.400   4.82555e-10
      185.500   4.86723e-10
      185.600   4.90921e-10
      185.700   4.95152e-10
      185.800   4.99407e-10
      185.900   5.03684e-10
      186.000   5.07997e-10
      186.100   5.12329e-10
      186.200   5.16684e-10
      186.300   5.21063e-10
      186.400   5.25472e-10
      186.500   5.29906e-10
      186.600   5.34360e-10
      186.700   5.38832e-10
      186.800   5.43327e-10
      186.900   5.47849e-10
      187.000   5.52394e-10
      187.100   5.56954e-10
      187.200   5.61542e-10
      187.300   5.66157e-10
      187.400   5.70791e-10
      187.500   5.75445e-10
      187.600   5.80120e-10
      187.700   5.84817e-10
      187.800   5.89542e-10
      187.900   5.94290e-10
      188.000   5.99055e-10
      188.100   6.03841e-10
      188.200   6.08654e-10
      188.300   6.13493e-10
      188.400   6.18359e-10
      188.500   6.23246e-10
      188.600   6.28159e-10
      188.700   6.33106e-10
      188.800   6.38075e-10
      188.900   6.43068e-10
      189.000   6.48090e-10
      189.100   6.53147e-10
      189.200   6.58231e-10
      189.300   6.63341e-10
      189.400   6.68480e-10
      189.500   6.73652e-10
      189.600   6.78864e-10
      189.700   6.84098e-10
      189.800   6.89425e-10
      189.900   6.94794e-10
      190.000   7.00207e-10
      190.100   7.05648e-10
      190.200   7.11125e-10
      190.300   7.16635e-10
      190.400   7.22186e-10
      190.500   7.27772e-10
      190.600   7.33391e-10
      190.700   7.39047e-10
      190.800   7.44737e-10
      190.900   7.50465e-10
      191.000   7.56241e-10
      191.100   7.62047e-10
      191.200   7.67891e-10
      191.300   7.73770e-10
      191.400   7.79690e-10
      191.500   7.85648e-10
      191.600   7.91638e-10
      191.700   7.97664e-10
      191.800   8.03734e-10
      191.900   8.09834e-10
      192.000   8.15968e-10
      192.100   8.22141e-10
      192.200   8.28358e-10
      192.300   8.34610e-10
      192.400   8.40908e-10
      192.500   8.47241e-10
      192.600   8.53605e-10
      192.700   8.60008e-10
      192.800   8.66118e-10
      192.900   8.71417e-10
      193.000   8.76654e-10
      193.100   8.81919e-10
      193.200   8.87221e-10
      193.300   8.92541e-10
      193.400   8.97883e-10
      193.500   9.03252e-10
      193.600   9.08653e-10
      193.700   9.14080e-10
      193.800   9.19531e-10
      193.900   9.25001e-10
      194.000   9.30506e-10
      194.100   9.36050e-10
      194.200   9.41610e-10
      194.300   9.47198e-10
      194.400   9.52814e-10
      194.500   9.58463e-10
      194.600   9.64138e-10
      194.700   9.69832e-10
      194.800   9.75551e-10
      194.900   9.81301e-10
      195.000   9.87076e-10
      195.100   9.92891e-10
      195.200   9.98717e-10
      195.300   1.00457e-09
      195.400   1.01044e-09
      195.500   1.01634e-09
      195.600   1.02226e-09
      195.700   1.02820e-09
      195.800   1.03409e-09
      195.900   1.03950e-09
      196.000   1.02793e-09
      196.100   1.01625e-09
      196.200   1.00471e-09
      196.300   9.93281e-10
      196.400   9.81978e-10
      196.500   9.70789e-10
      196.600   9.59722e-10
      196.700   9.48769e-10
      196.800   9.37934e-10
      196.900   9.27218e-10
      197.000   9.16614e-10
      197.100   9.06118e-10
      197.200   8.95732e-10
      197.300   8.85452e-10
      197.400   8.75275e-10
      197.500   8.65202e-10
      197.600   8.55237e-10
      197.700   8.45384e-10
      197.800   8.35640e-10
      197.900   8.25992e-10
      198.000   8.16446e-10
      198.100   8.07000e-10
      198.200   7.97653e-10
      198.300   7.88405e-10
      198.400   7.79257e-10
      198.500   7.70215e-10
      198.600   7.61273e-10
      198.700   7.52427e-10
      198.800   7.43678e-10
      198.900   7.35027e-10
      199.000   7.26467e-10
      199.100   7.18000e-10
      199.200   7.09631e-10
      199.300   7.01364e-10
      199.400   6.93193e-10
      199.500   6.85114e-10
      199.600   6.77123e-10
      199.700   6.69222e-10
      199.800   6.61413e-10
      199.900   6.53690e-10
      200.000   6.46054e-10
      200.100   6.38547e-10
      200.200   6.31094e-10
      200.300   6.23731e-10
      200.400   6.16450e-10
      200.500   6.09253e-10
      200.600   6.02142e-10
      200.700   5.95111e-10
      200.800   5.88159e-10
      200.900   5.81293e-10
      201.000   5.74506e-10
      201.100   5.67800e-10
      201.200   5.61173e-10
      201.300   5.54621e-10
      201.400   5.48148e-10
      201.500   5.41748e-10
      201.600   5.35422e-10
      201.700   5.29172e-10
      201.800   5.22993e-10
      201.900   5.16885e-10
      202.000   5.10856e-10
      202.100   5.04895e-10
      202.200   4.99005e-10
      202.300   4.93225e-10
      202.400   4.87598e-10
      202.500   4.82060e-10
      202.600   4.76580e-10
      202.700   4.71169e-10
      202.800   4.65821e-10
      202.900   4.60534e-10
      203.000   4.55311e-10
      203.100   4.50151e-10
      203.200   4.45048e-10
      203.300   4.40005e-10
      203.400   4.35021e-10
      203.500   4.30094e-10
      203.600   4.25226e-10
      203.700   4.20417e-10
      203.800   4.15665e-10
      203.900   4.10973e-10
      204.000   4.06335e-10
      204.100   4.01752e-10
      204.200   3.97225e-10
      204.300   3.92751e-10
      204.400   3.88330e-10
      204.500   3.83962e-10
      204.600   3.79645e-10
      204.700   3.75379e-10
      204.800   3.71168e-10
      204.900   3.67007e-10
      205.000   3.62895e-10
      205.100   3.58832e-10
      205.200   3.54817e-10
      205.300   3.50849e-10
      205.400   3.46928e-10
      205.500   3.43052e-10
      205.600   3.38959e-10
      205.700   3.34678e-10
      205.800   3.30415e-10
      205.900   3.26211e-10
      206.000   3.22063e-10
      206.100   3.17967e-10
      206.200   3.13923e-10
      206.300   3.09932e-10
      206.400   3.05992e-10
      206.500   3.02099e-10
      206.600   2.98257e-10
      206.700   2.94464e-10
      206.800   2.90716e-10
      206.900   2.87015e-10
      207.000   2.83362e-10
      207.100   2.79754e-10
      207.200   2.76192e-10
      207.300   2.72673e-10
      207.400   2.69197e-10
      207.500   2.65762e-10
      207.600   2.62370e-10
      207.700   2.59019e-10
      207.800   2.55708e-10
      207.900   2.52436e-10
      208.000   2.49205e-10
      208.100   2.46013e-10
      208.200   2.42858e-10
      208.300   2.39742e-10
      208.400   2.36665e-10
      208.500   2.33625e-10
      208.600   2.30620e-10
      208.700   2.27652e-10
      208.800   2.24719e-10
      208.900   2.21522e-10
      209.000   2.17828e-10
      209.100   2.14064e-10
      209.200   2.10362e-10
      209.300   2.06720e-10
      209.400   2.03140e-10
      209.500   1.99618e-10
      209.600   1.96154e-10
      209.700   1.92749e-10
      209.800   1.89404e-10
      209.900   1.86112e-10
      210.000   1.82876e-10
      210.100   1.79694e-10
      210.200   1.76565e-10
      210.300   1.73488e-10
      210.400   1.70463e-10
      210.500   1.67489e-10
      210.600   1.64565e-10
      210.700   1.61690e-10
      210.800   1.58863e-10
      210.900   1.56084e-10
      211.000   1.53351e-10
      211.100   1.50666e-10
      211.200   1.48025e-10
      211.300   1.45432e-10
      211.400   1.42883e-10
      211.500   1.40377e-10
      211.600   1.37914e-10
      211.700   1.35493e-10
      211.800   1.33111e-10
      211.900   1.30771e-10
      212.000   1.28472e-10
      212.100   1.26211e-10
      212.200   1.23988e-10
      212.300   1.21804e-10
      212.400   1.19657e-10
      212.500   1.17547e-10
      212.600   1.15474e-10
      212.700   1.13435e-10
      212.800   1.11432e-10
      212.900   1.09463e-10
      213.000   1.07528e-10
      213.100   1.05628e-10
      213.200   1.03761e-10
      213.300   1.01925e-10
      213.400   1.00122e-10
      213.500   9.83494e-11
      213.600   9.66073e-11
      213.700   9.48962e-11
      213.800   9.32140e-11
      213.900   9.15621e-11
      214.000   8.99382e-11
      214.100   8.83428e-11
      214.200   8.67759e-11
      214.300   8.52358e-11
      214.400   8.37227e-11
      214.500   8.22364e-11
      214.600   8.07766e-11
      214.700   7.93422e-11
      214.800   7.79332e-11
      214.900   7.65496e-11
      215.000   7.51897e-11
      215.100   7.38545e-11
      215.200   7.25433e-11
      215.300   7.12562e-11
      215.400   6.99915e-11
      215.500   6.87494e-11
      215.600   6.75304e-11
      215.700   6.63323e-11
      215.800   6.51555e-11
      215.900   6.40005e-11
      216.000   6.28658e-11
      216.100   6.17513e-11
      216.200   6.06570e-11
      216.300   5.95824e-11
      216.400   5.85273e-11
      216.500   5.74908e-11
      216.600   5.64732e-11
      216.700   5.54740e-11
      216.800   5.44926e-11
      216.900   5.35289e-11
      217.000   5.25825e-11
      217.100   5.16529e-11
      217.200   5.07402e-11
      217.300   4.98438e-11
      217.400   4.89633e-11
      217.500   4.80990e-11
      217.600   4.72499e-11
      217.700   4.64155e-11
      217.800   4.55964e-11
      217.900   4.47922e-11
      218.000   4.40023e-11
      218.100   4.32263e-11
      218.200   4.24642e-11
      218.300   4.17157e-11
      218.400   4.09806e-11
      218.500   4.02580e-11
      218.600   3.95484e-11
      218.700   3.88512e-11
      218.800   3.81662e-11
      218.900   3.74936e-11
      219.000   3.68324e-11
      219.100   3.61827e-11
      219.200   3.55445e-11
      219.300   3.49174e-11
      219.400   3.43009e-11
      219.500   3.36954e-11
      219.600   3.31003e-11
      219.700   3.25156e-11
      219.800   3.19412e-11
      219.900   3.13767e-11
      220.000   3.08218e-11
      220.100   3.02766e-11
      220.200   2.97408e-11
      220.300   2.92144e-11
      220.400   2.86970e-11
      220.500   2.81887e-11
      220.600   2.76893e-11
      220.700   2.71982e-11
      220.800   2.67156e-11
      220.900   2.62416e-11
      221.000   2.57757e-11
      221.100   2.53176e-11
      221.200   2.48678e-11
      221.300   2.44257e-11
      221.400   2.39911e-11
      221.500   2.35642e-11
      221.600   2.31447e-11
      221.700   2.27323e-11
      221.800   2.23270e-11
      221.900   2.19289e-11
      222.000   2.15377e-11
      222.100   2.11531e-11
      222.200   2.07754e-11
      222.300   2.04041e-11
      222.400   2.00394e-11
      222.500   1.96809e-11
      222.600   1.93287e-11
      222.700   1.89826e-11
      222.800   1.86424e-11
      222.900   1.83082e-11
      223.000   1.79798e-11
      223.100   1.76571e-11
      223.200   1.73400e-11
      223.300   1.70284e-11
      223.400   1.67224e-11
      223.500   1.64215e-11
      223.600   1.61260e-11
      223.700   1.58356e-11
      223.800   1.55502e-11
      223.900   1.52701e-11
      224.000   1.49946e-11
      224.100   1.47240e-11
      224.200   1.44581e-11
      224.300   1.41969e-11
      224.400   1.39402e-11
      224.500   1.36880e-11
      224.600   1.34402e-11
      224.700   1.31968e-11
      224.800   1.29577e-11
      224.900   1.27227e-11
      225.000   1.24918e-11
      225.100   1.22650e-11
      225.200   1.20421e-11
      225.300   1.18233e-11
      225.400   1.16082e-11
      225.500   1.13969e-11
      225.600   1.11893e-11
      225.700   1.09855e-11
      225.800   1.07851e-11
      225.900   1.05883e-11
      226.000   1.03951e-11
      226.100   1.02052e-11
      226.200   1.00187e-11
      226.300   9.83622e-12
      226.400   9.65734e-12
      226.500   9.48141e-12
      226.600   9.30838e-12
      226.700   9.13837e-12
      226.800   8.97121e-12
      226.900   8.80700e-12
      227.000   8.64573e-12
      227.100   8.48727e-12
      227.200   8.33171e-12
      227.300   8.17893e-12
      227.400   8.02890e-12
      227.500   7.88156e-12
      227.600   7.73688e-12
      227.700   7.59481e-12
      227.800   7.45532e-12
      227.900   7.31837e-12
      228.000   7.18391e-12
      228.100   7.05187e-12
      228.200   6.92222e-12
      228.300   6.79494e-12
      228.400   6.67003e-12
      228.500   6.54735e-12
      228.600   6.42693e-12
      228.700   6.30872e-12
      228.800   6.19266e-12
      228.900   6.07878e-12
      229.000   5.96696e-12
      229.100   5.85721e-12
      229.200   5.74948e-12
      229.300   5.64373e-12
      229.400   5.53995e-12
      229.500   5.43808e-12
      229.600   5.33807e-12
      229.700   5.23994e-12
      229.800   5.14360e-12
      229.900   5.04906e-12
      230.000   4.95534e-12
      230.100   4.85688e-12
      230.200   4.76016e-12
      230.300   4.66542e-12
      230.400   4.57255e-12
      230.500   4.48154e-12
      230.600   4.39238e-12
      230.700   4.30498e-12
      230.800   4.21934e-12
      230.900   4.13541e-12
      231.000   4.05314e-12
      231.100   3.97252e-12
      231.200   3.89350e-12
      231.300   3.81608e-12
      231.400   3.74022e-12
      231.500   3.66582e-12
      231.600   3.59290e-12
      231.700   3.52145e-12
      231.800   3.45143e-12
      231.900   3.38280e-12
      232.000   3.31552e-12
      232.100   3.24957e-12
      232.200   3.18494e-12
      232.300   3.12161e-12
      232.400   3.05951e-12
      232.500   2.99864e-12
      232.600   2.93898e-12
      232.700   2.88051e-12
      232.800   2.82319e-12
      232.900   2.76700e-12
      233.000   2.71192e-12
      233.100   2.65795e-12
      233.200   2.60502e-12
      233.300   2.55316e-12
      233.400   2.50232e-12
      233.500   2.45249e-12
      233.600   2.40367e-12
      233.700   2.35579e-12
      233.800   2.30311e-12
      233.900   2.25084e-12
      234.000   2.19971e-12
      234.100   2.14974e-12
      234.200   2.10090e-12
      234.300   2.05315e-12
      234.400   2.00646e-12
      234.500   1.96083e-12
      234.600   1.91620e-12
      234.700   1.87258e-12
      234.800   1.82995e-12
      234.900   1.78826e-12
      235.000   1.74750e-12
      235.100   1.70765e-12
      235.200   1.66871e-12
      235.300   1.63063e-12
      235.400   1.59340e-12
      235.500   1.55701e-12
      235.600   1.52145e-12
      235.700   1.48667e-12
      235.800   1.45271e-12
      235.900   1.41951e-12
      236.000   1.38706e-12
      236.100   1.35533e-12
      236.200   1.32431e-12
      236.300   1.29398e-12
      236.400   1.26434e-12
      236.500   1.23536e-12
      236.600   1.20704e-12
      236.700   1.17934e-12
      236.800   1.15227e-12
      236.900   1.12580e-12
      237.000   1.09993e-12
      237.100   1.07463e-12
      237.200   1.04991e-12
      237.300   1.02574e-12
      237.400   1.00211e-12
      237.500   9.79013e-13
      237.600   9.56426e-13
      237.700   9.34368e-13
      237.800   9.12807e-13
      237.900   8.91728e-13
      238.000   8.71127e-13
      238.100   8.50982e-13
      238.200   8.31290e-13
      238.300   8.12041e-13
      238.400   7.93223e-13
      238.500   7.74825e-13
      238.600   7.56844e-13
      238.700   7.39270e-13
      238.800   7.22088e-13
      238.900   7.05292e-13
      239.000   6.88871e-13
      239.100   6.72822e-13
      239.200   6.57138e-13
      239.300   6.41814e-13
      239.400   6.26849e-13
      239.500   6.12219e-13
      239.600   5.97916e-13
      239.700   5.83944e-13
      239.800   5.70282e-13
      239.900   5.56929e-13
      240.000   5.43878e-13
      240.100   5.31119e-13
      240.200   5.18649e-13
      240.300   5.06463e-13
      240.400   4.94548e-13
      240.500   4.82911e-13
      240.600   4.71538e-13
      240.700   4.60421e-13
      240.800   4.49564e-13
      240.900   4.38962e-13
      241.000   4.28604e-13
      241.100   4.18480e-13
      241.200   4.08589e-13
      241.300   3.98921e-13
      241.400   3.89477e-13
      241.500   3.80248e-13
      241.600   3.71231e-13
      241.700   3.62420e-13
      241.800   3.53811e-13
      241.900   3.45399e-13
      242.000   3.37181e-13
      242.100   3.29155e-13
      242.200   3.21322e-13
      242.300   3.13675e-13
      242.400   3.06203e-13
      242.500   2.98904e-13
      242.600   2.91774e-13
      242.700   2.84809e-13
      242.800   2.78007e-13
      242.900   2.71363e-13
      243.000   2.64873e-13
      243.100   2.58534e-13
      243.200   2.52341e-13
      243.300   2.46294e-13
      243.400   2.40390e-13
      243.500   2.34628e-13
      243.600   2.29008e-13
      243.700   2.23517e-13
      243.800   2.18154e-13
      243.900   2.12920e-13
      244.000   2.07807e-13
      244.100   2.02814e-13
      244.200   1.97939e-13
      244.300   1.93178e-13
      244.400   1.88529e-13
      244.500   1.83991e-13
      244.600   1.79558e-13
      244.700   1.75235e-13
      244.800   1.71019e-13
      244.900   1.66903e-13
      245.000   1.62882e-13
      245.100   1.58957e-13
      245.200   1.55126e-13
      245.300   1.51386e-13
      245.400   1.47733e-13
      245.500   1.44168e-13
      245.600   1.40688e-13
      245.700   1.37289e-13
      245.800   1.33970e-13
      245.900   1.30737e-13
      246.000   1.27582e-13
      246.100   1.24502e-13
      246.200   1.21495e-13
      246.300   1.18559e-13
      246.400   1.15694e-13
      246.500   1.12897e-13
      246.600   1.10166e-13
      246.700   1.07500e-13
      246.800   1.04897e-13
      246.900   1.02356e-13
      247.000   9.98805e-14
      247.100   9.74648e-14
      247.200   9.51070e-14
      247.300   9.28056e-14
      247.400   9.05588e-14
      247.500   8.83654e-14
      247.600   8.62244e-14
      247.700   8.41344e-14
      247.800   8.20941e-14
      247.900   8.01024e-14
      248.000   7.81585e-14
      248.100   7.62666e-14
      248.200   7.44192e-14
      248.300   7.26156e-14
      248.400   7.08551e-14
      248.500   6.91363e-14
      248.600   6.74586e-14
      248.700   6.58212e-14
      248.800   6.42228e-14
      248.900   6.26627e-14
      249.000   6.11399e-14
      249.100   5.96564e-14
      249.200   5.82095e-14
      249.300   5.67965e-14
      249.400   5.54173e-14
      249.500   5.40713e-14
      249.600   5.27571e-14
      249.700   5.14743e-14
      249.800   5.02223e-14
      249.900   4.90001e-14
      250.000   4.78073e-14
      250.100   4.66450e-14
      250.200   4.55109e-14
      250.300   4.44049e-14
      250.400   4.33251e-14
      250.500   4.22713e-14
      250.600   4.12429e-14
      250.700   4.02391e-14
      250.800   3.92594e-14
      250.900   3.83032e-14
      251.000   3.73700e-14
      251.100   3.64592e-14
      251.200   3.55710e-14
      251.300   3.47052e-14
      251.400   3.38603e-14
      251.500   3.30352e-14
      251.600   3.22300e-14
      251.700   3.14447e-14
      251.800   3.06780e-14
      251.900   2.99296e-14
      252.000   2.91991e-14
      252.100   2.84866e-14
      252.200   2.77908e-14
      252.300   2.71127e-14
      252.400   2.64509e-14
      252.500   2.58055e-14
      252.600   2.51753e-14
      252.700   2.45604e-14
      252.800   2.39603e-14
      252.900   2.33747e-14
      253.000   2.28030e-14
      253.100   2.22452e-14
      253.200   2.17008e-14
      253.300   2.11742e-14
      253.400   2.06624e-14
      253.500   2.01631e-14
      253.600   1.96762e-14
      253.700   1.92006e-14
      253.800   1.87365e-14
      253.900   1.82834e-14
      254.000   1.78410e-14
      254.100   1.74090e-14
      254.200   1.69873e-14
      254.300   1.65756e-14
      254.400   1.61736e-14
      254.500   1.57811e-14
      254.600   1.53980e-14
      254.700   1.50241e-14
      254.800   1.46595e-14
      254.900   1.43035e-14
      255.000   1.39560e-14
      255.100   1.36166e-14
      255.200   1.32853e-14
      255.300   1.29619e-14
      255.400   1.26461e-14
      255.500   1.23379e-14
      255.600   1.20370e-14
      255.700   1.17433e-14
      255.800   1.14565e-14
      255.900   1.11765e-14
      256.000   1.09031e-14
      256.100   1.06365e-14
      256.200   1.03763e-14
      256.300   1.01224e-14
      256.400   9.87460e-15
      256.500   9.63252e-15
      256.600   9.39632e-15
      256.700   9.16578e-15
      256.800   8.94067e-15
      256.900   8.72092e-15
      257.000   8.50646e-15
      257.100   8.29710e-15
      257.200   8.09282e-15
      257.300   7.89337e-15
      257.400   7.72403e-15
      257.500   7.56740e-15
      257.600   7.41444e-15
      257.700   7.26450e-15
      257.800   7.11749e-15
      257.900   6.97339e-15
      258.000   6.83212e-15
      258.100   6.69360e-15
      258.200   6.55785e-15
      258.300   6.42480e-15
      258.400   6.29429e-15
      258.500   6.16634e-15
      258.600   6.04098e-15
      258.700   5.91807e-15
      258.800   5.79757e-15
      258.900   5.67953e-15
      259.000   5.56374e-15
      259.100   5.45028e-15
      259.200   5.33908e-15
      259.300   5.23021e-15
      259.400   5.12347e-15
      259.500   5.01881e-15
      259.600   4.91627e-15
      259.700   4.81578e-15
      259.800   4.71726e-15
      259.900   4.62067e-15
      260.000   4.52607e-15
      260.100   4.43334e-15
      260.200   4.34246e-15
      260.300   4.25340e-15
      260.400   4.16613e-15
      260.500   4.08063e-15
      260.600   3.99681e-15
      260.700   3.91466e-15
      260.800   3.83424e-15
      260.900   3.75536e-15
      261.000   3.67813e-15
      261.100   3.60247e-15
      261.200   3.52834e-15
      261.300   3.45569e-15
      261.400   3.38454e-15
      261.500   3.32158e-15
      261.600   3.28169e-15
      261.700   3.24609e-15
      261.800   3.21088e-15
      261.900   3.17602e-15
      262.000   3.14153e-15
      262.100   3.10741e-15
      262.200   3.07367e-15
      262.300   3.04028e-15
      262.400   3.00724e-15
      262.500   2.97457e-15
      262.600   2.94223e-15
      262.700   2.91025e-15
      262.800   2.87861e-15
      262.900   2.84728e-15
      263.000   2.81635e-15
      263.100   2.78572e-15
      263.200   2.75543e-15
      263.300   2.72547e-15
      263.400   2.69582e-15
      263.500   2.66650e-15
      263.600   2.63752e-15
      263.700   2.60883e-15
      263.800   2.58045e-15
      263.900   2.55240e-15
      264.000   2.52465e-15
      264.100   2.49720e-15
      264.200   2.47004e-15
      264.300   2.44320e-15
      264.400   2.41664e-15
      264.500   2.39037e-15
      264.600   2.36439e-15
      264.700   2.33869e-15
      264.800   2.31328e-15
      264.900   2.28816e-15
      265.000   2.26331e-15
      265.100   2.23872e-15
      265.200   2.21441e-15
      265.300   2.19037e-15
      265.400   2.16660e-15
      265.500   2.14309e-15
      265.600   2.11985e-15
      265.700   2.09685e-15
      265.800   2.07415e-15
      265.900   2.05169e-15
      266.000   2.02949e-15
      266.100   2.00755e-15
      266.200   1.98584e-15
      266.300   1.96438e-15
      266.400   1.94315e-15
      266.500   1.92216e-15
      266.600   1.90141e-15
      266.700   1.88088e-15
      266.800   1.86060e-15
      266.900   1.84053e-15
      267.000   1.82069e-15
      267.100   1.80108e-15
      267.200   1.78170e-15
      267.300   1.76252e-15
      267.400   1.74355e-15
      267.500   1.72480e-15
      267.600   1.70626e-15
      267.700   1.68793e-15
      267.800   1.66980e-15
      267.900   1.65188e-15
      268.000   1.63416e-15
      268.100   1.61665e-15
      268.200   1.59933e-15
      268.300   1.58221e-15
      268.400   1.56527e-15
      268.500   1.54852e-15
      268.600   1.53196e-15
      268.700   1.51560e-15
      268.800   1.49941e-15
      268.900   1.48341e-15
      269.000   1.46759e-15
      269.100   1.45194e-15
      269.200   1.43648e-15
      269.300   1.42119e-15
      269.400   1.40606e-15
      269.500   1.39110e-15
      269.600   1.37632e-15
      269.700   1.36169e-15
      269.800   1.34724e-15
      269.900   1.33294e-15
      270.000   1.31882e-15
      270.100   1.30485e-15
      270.200   1.29106e-15
      270.300   1.27741e-15
      270.400   1.26392e-15
      270.500   1.25057e-15
      270.600   1.23737e-15
      270.700   1.22433e-15
      270.800   1.21143e-15
      270.900   1.19866e-15
      271.000   1.18604e-15
      271.100   1.17355e-15
      271.200   1.16120e-15
      271.300   1.14899e-15
      271.400   1.13691e-15
      271.500   1.12497e-15
      271.600   1.11315e-15
      271.700   1.10146e-15
      271.800   1.08990e-15
      271.900   1.07847e-15
      272.000   1.06716e-15
      272.100   1.05597e-15
      272.200   1.04490e-15
      272.300   1.03395e-15
      272.400   1.02311e-15
      272.500   1.01240e-15
      272.600   1.00180e-15
      272.700   9.91308e-16
      272.800   9.80930e-16
      272.900   9.70662e-16
      273.000   9.60508e-16
      273.100   9.50458e-16
      273.200   9.40516e-16
      273.300   9.30679e-16
      273.400   9.20943e-16
      273.500   9.11310e-16
      273.600   9.01779e-16
      273.700   8.92343e-16
      273.800   8.83008e-16
      273.900   8.73777e-16
      274.000   8.64637e-16
      274.100   8.55595e-16
      274.200   8.46644e-16
      274.300   8.37787e-16
      274.400   8.28923e-16
      274.500   8.19911e-16
      274.600   8.10950e-16
      274.700   8.02089e-16
      274.800   7.93322e-16
      274.900   7.84646e-16
      275.000   7.76063e-16
      275.100   7.67573e-16
      275.200   7.59171e-16
      275.300   7.50857e-16
      275.400   7.42637e-16
      275.500   7.34504e-16
      275.600   7.26453e-16
      275.700   7.18488e-16
      275.800   7.10610e-16
      275.900   7.02815e-16
      276.000   6.95104e-16
      276.100   6.87471e-16
      276.200   6.79916e-16
      276.300   6.72444e-16
      276.400   6.65050e-16
      276.500   6.57735e-16
      276.600   6.50498e-16
      276.700   6.43334e-16
      276.800   6.36248e-16
      276.900   6.29234e-16
      277.000   6.22296e-16
      277.100   6.15428e-16
      277.200   6.08635e-16
      277.300   6.01913e-16
      277.400   5.95262e-16
      277.500   5.88676e-16
      277.600   5.82166e-16
      277.700   5.75720e-16
      277.800   5.69338e-16
      277.900   5.63028e-16
      278.000   5.56788e-16
      278.100   5.50611e-16
      278.200   5.44496e-16
      278.300   5.38448e-16
      278.400   5.32464e-16
      278.500   5.26538e-16
      278.600   5.20676e-16
      278.700   5.14879e-16
      278.800   5.09143e-16
      278.900   5.03447e-16
      279.000   4.97807e-16
      279.100   4.92227e-16
      279.200   4.86703e-16
      279.300   4.81242e-16
      279.400   4.75835e-16
      279.500   4.70486e-16
      279.600   4.65195e-16
      279.700   4.59962e-16
      279.800   4.54783e-16
      279.900   4.49658e-16
      280.000   4.44589e-16
      280.100   4.39571e-16
      280.200   4.34610e-16
      280.300   4.29699e-16
      280.400   4.24842e-16
      280.500   4.20040e-16
      280.600   4.15287e-16
      280.700   4.10584e-16
      280.800   4.05932e-16
      280.900   4.01329e-16
      281.000   3.96776e-16
      281.100   3.92271e-16
      281.200   3.87815e-16
      281.300   3.83408e-16
      281.400   3.79050e-16
      281.500   3.74736e-16
      281.600   3.70467e-16
      281.700   3.66247e-16
      281.800   3.62074e-16
      281.900   3.57944e-16
      282.000   3.53859e-16
      282.100   3.49818e-16
      282.200   3.45824e-16
      282.300   3.41871e-16
      282.400   3.37962e-16
      282.500   3.34094e-16
      282.600   3.30269e-16
      282.700   3.26485e-16
      282.800   3.22743e-16
      282.900   3.19045e-16
      283.000   3.15385e-16
      283.100   3.11766e-16
      283.200   3.08188e-16
      283.300   3.04649e-16
      283.400   3.01149e-16
      283.500   2.97690e-16
      283.600   2.94267e-16
      283.700   2.90881e-16
      283.800   2.87534e-16
      283.900   2.84225e-16
      284.000   2.80952e-16
      284.100   2.77713e-16
      284.200   2.74512e-16
      284.300   2.71349e-16
      284.400   2.68219e-16
      284.500   2.65126e-16
      284.600   2.62067e-16
      284.700   2.59043e-16
      284.800   2.56053e-16
      284.900   2.53096e-16
      285.000   2.50171e-16
      285.100   2.47280e-16
      285.200   2.44424e-16
      285.300   2.41598e-16
      285.400   2.38804e-16
      285.500   2.36042e-16
      285.600   2.33314e-16
      285.700   2.30615e-16
      285.800   2.27948e-16
      285.900   2.25310e-16
      286.000   2.22703e-16
      286.100   2.20128e-16
      286.200   2.17581e-16
      286.300   2.15065e-16
      286.400   2.12577e-16
      286.500   2.10117e-16
      286.600   2.07685e-16
      286.700   2.05282e-16
      286.800   2.02907e-16
      286.900   2.00559e-16
      287.000   1.98239e-16
      287.100   1.95945e-16
      287.200   1.93678e-16
      287.300   1.91438e-16
      287.400   1.89223e-16
      287.500   1.87035e-16
      287.600   1.84872e-16
      287.700   1.82734e-16
      287.800   1.80622e-16
      287.900   1.78534e-16
      288.000   1.76471e-16
      288.100   1.74432e-16
      288.200   1.72418e-16
      288.300   1.70428e-16
      288.400   1.68461e-16
      288.500   1.66517e-16
      288.600   1.64595e-16
      288.700   1.62697e-16
      288.800   1.60821e-16
      288.900   1.58968e-16
      289.000   1.57136e-16
      289.100   1.55325e-16
      289.200   1.53536e-16
      289.300   1.51769e-16
      289.400   1.50022e-16
      289.500   1.48296e-16
      289.600   1.46590e-16
      289.700   1.44906e-16
      289.800   1.43240e-16
      289.900   1.41593e-16
      290.000   1.39968e-16
      290.100   1.38360e-16
      290.200   1.36773e-16
      290.300   1.35205e-16
      290.400   1.33655e-16
      290.500   1.32124e-16
      290.600   1.30611e-16
      290.700   1.29115e-16
      290.800   1.27639e-16
      290.900   1.26179e-16
      291.000   1.24735e-16
      291.100   1.23309e-16
      291.200   1.21900e-16
      291.300   1.20508e-16
      291.400   1.19133e-16
      291.500   1.17773e-16
      291.600   1.16430e-16
      291.700   1.15103e-16
      291.800   1.13791e-16
      291.900   1.12495e-16
      292.000   1.11216e-16
      292.100   1.09951e-16
      292.200   1.08701e-16
      292.300   1.07465e-16
      292.400   1.06244e-16
      292.500   1.05037e-16
      292.600   1.03845e-16
      292.700   1.02666e-16
      292.800   1.01501e-16
      292.900   1.00350e-16
      293.000   9.92131e-17
      293.100   9.80889e-17
      293.200   9.69779e-17
      293.300   9.58794e-17
      293.400   9.47950e-17
      293.500   9.37228e-17
      293.600   9.26635e-17
      293.700   9.16160e-17
      293.800   9.05813e-17
      293.900   8.95585e-17
      294.000   8.85473e-17
      294.100   8.75481e-17
      294.200   8.65609e-17
      294.300   8.55853e-17
      294.400   8.46202e-17
      294.500   8.36665e-17
      294.600   8.27235e-17
      294.700   8.17919e-17
      294.800   8.08709e-17
      294.900   7.99602e-17
      295.000   7.90608e-17
      295.100   7.81722e-17
      295.200   7.72934e-17
      295.300   7.64242e-17
      295.400   7.55653e-17
      295.500   7.47167e-17
      295.600   7.38772e-17
      295.700   7.30475e-17
      295.800   7.22273e-17
      295.900   7.14160e-17
      296.000   7.06144e-17
      296.100   6.98213e-17
      296.200   6.90380e-17
      296.300   6.82633e-17
      296.400   6.74985e-17
      296.500   6.67412e-17
      296.600   6.59929e-17
      296.700   6.52531e-17
      296.800   6.45217e-17
      296.900   6.37984e-17
      297.000   6.30832e-17
      297.100   6.23760e-17
      297.200   6.16768e-17
      297.300   6.09855e-17
      297.400   6.03020e-17
      297.500   5.96257e-17
      297.600   5.89577e-17
      297.700   5.82969e-17
      297.800   5.76436e-17
      297.900   5.69979e-17
      298.000   5.63594e-17
      298.100   5.57278e-17
      298.200   5.51031e-17
      298.300   5.44857e-17
      298.400   5.38748e-17
      298.500   5.32706e-17
      298.600   5.26732e-17
      298.700   5.20823e-17
      298.800   5.14978e-17
      298.900   5.09202e-17
      299.000   5.03494e-17
      299.100   4.97848e-17
      299.200   4.92259e-17
      299.300   4.86734e-17
      299.400   4.81270e-17
      299.500   4.75866e-17
      299.600   4.70521e-17
      299.700   4.65234e-17
      299.800   4.60003e-17
      299.900   4.54833e-17
      300.000   4.49719e-17
      300.100   4.44660e-17
      300.192   4.40057e-17
      300.285   4.35446e-17
      300.377   4.30935e-17
      300.470   4.26424e-17
      300.562   4.22004e-17
      300.654   4.17627e-17
      300.747   4.13247e-17
      300.839   4.08961e-17
      300.932   4.04667e-17
      301.025   4.00420e-17
      301.117   3.96262e-17
      301.210   3.92096e-17
      301.303   3.87979e-17
      301.395   3.83947e-17
      301.488   3.79906e-17
      301.581   3.75911e-17
      301.674   3.71955e-17
      301.766   3.68078e-17
      301.859   3.64201e-17
      301.952   3.60364e-17
      302.045   3.56565e-17
      302.138   3.53049e-17
      302.231   3.50118e-17
      302.324   3.47234e-17
      302.417   3.44374e-17
      302.510   3.41533e-17
      302.603   3.38718e-17
      302.696   3.35920e-17
      302.789   3.33144e-17
      302.882   3.30389e-17
      302.976   3.27630e-17
      303.069   3.24919e-17
      303.162   3.22227e-17
      303.255   3.19555e-17
      303.349   3.16877e-17
      303.442   3.14246e-17
      303.535   3.11637e-17
      303.629   3.09019e-17
      303.722   3.06450e-17
      303.816   3.03874e-17
      303.909   3.01342e-17
      304.003   2.98804e-17
      304.096   2.96312e-17
      304.190   2.93813e-17
      304.283   2.91358e-17
      304.377   2.88898e-17
      304.471   2.86455e-17
      304.564   2.84057e-17
      304.658   2.81655e-17
      304.752   2.79267e-17
      304.846   2.76900e-17
      304.939   2.74576e-17
      305.033   2.72244e-17
      305.127   2.69930e-17
      305.221   2.67635e-17
      305.315   2.65360e-17
      305.409   2.63098e-17
      305.503   2.60857e-17
      305.597   2.58634e-17
      305.691   2.56426e-17
      305.785   2.54237e-17
      305.879   2.52063e-17
      305.973   2.49907e-17
      306.067   2.47768e-17
      306.161   2.45646e-17
      306.255   2.43541e-17
      306.350   2.41430e-17
      306.444   2.39357e-17
      306.538   2.37302e-17
      306.633   2.35242e-17
      306.727   2.33218e-17
      306.821   2.31211e-17
      306.916   2.29199e-17
      307.010   2.27250e-17
      307.105   2.25381e-17
      307.199   2.23559e-17
      307.294   2.21731e-17
      307.388   2.19937e-17
      307.483   2.18137e-17
      307.577   2.16369e-17
      307.672   2.14595e-17
      307.767   2.12836e-17
      307.861   2.11107e-17
      307.956   2.09372e-17
      308.051   2.07651e-17
      308.146   2.05945e-17
      308.240   2.04268e-17
      308.335   2.02585e-17
      308.430   2.00915e-17
      308.525   1.99259e-17
      308.620   1.97616e-17
      308.715   1.95984e-17
      308.810   1.94366e-17
      308.905   1.92760e-17
      309.000   1.91166e-17
      309.095   1.89584e-17
      309.190   1.88016e-17
      309.285   1.86459e-17
      309.380   1.84915e-17
      309.476   1.83367e-17
      309.571   1.81846e-17
      309.666   1.80338e-17
      309.761   1.78841e-17
      309.857   1.77341e-17
      309.952   1.75867e-17
      310.047   1.74406e-17
      310.143   1.72941e-17
      310.238   1.71502e-17
      310.334   1.70061e-17
      310.429   1.68645e-17
      310.525   1.67226e-17
      310.620   1.65834e-17
      310.716   1.64437e-17
      310.811   1.63068e-17
      310.907   1.61695e-17
      311.003   1.60332e-17
      311.098   1.58995e-17
      311.194   1.57654e-17
      311.290   1.56326e-17
      311.386   1.55008e-17
      311.481   1.53714e-17
      311.577   1.52418e-17
      311.673   1.51132e-17
      311.769   1.49857e-17
      311.865   1.48592e-17
      311.961   1.47342e-17
      312.057   1.46122e-17
      312.153   1.44919e-17
      312.249   1.43726e-17
      312.345   1.42542e-17
      312.441   1.41368e-17
      312.537   1.40204e-17
      312.633   1.39050e-17
      312.730   1.37892e-17
      312.826   1.36756e-17
      312.922   1.35630e-17
      313.018   1.34513e-17
      313.115   1.33394e-17
      313.211   1.32295e-17
      313.307   1.31206e-17
      313.404   1.30115e-17
      313.500   1.29043e-17
      313.597   1.27971e-17
      313.693   1.26918e-17
      313.790   1.25863e-17
      313.886   1.24827e-17
      313.983   1.23790e-17
      314.079   1.22771e-17
      314.176   1.21751e-17
      314.273   1.20740e-17
      314.369   1.19749e-17
      314.466   1.18755e-17
      314.563   1.17769e-17
      314.660   1.16792e-17
      314.756   1.15833e-17
      314.853   1.14872e-17
      314.950   1.13920e-17
      315.047   1.12976e-17
      315.144   1.12040e-17
      315.241   1.11112e-17
      315.338   1.10193e-17
      315.435   1.09280e-17
      315.532   1.08376e-17
      315.629   1.07480e-17
      315.726   1.06591e-17
      315.823   1.05710e-17
      315.921   1.04828e-17
      316.018   1.03962e-17
      316.115   1.03105e-17
      316.212   1.02254e-17
      316.310   1.01402e-17
      316.407   1.00566e-17
      316.504   9.97368e-18
      316.602   9.89069e-18
      316.699   9.80930e-18
      316.796   9.72854e-18
      316.894   9.64772e-18
      316.991   9.56861e-18
      317.089   9.49068e-18
      317.187   9.41415e-18
      317.284   9.33902e-18
      317.382   9.26375e-18
      317.479   9.18984e-18
      317.577   9.11583e-18
      317.675   9.04248e-18
      317.773   8.96973e-18
      317.870   8.89838e-18
      317.968   8.82687e-18
      318.066   8.75596e-18
      318.164   8.68567e-18
      318.262   8.61599e-18
      318.360   8.54690e-18
      318.458   8.47844e-18
      318.556   8.41060e-18
      318.654   8.34330e-18
      318.752   8.27654e-18
      318.850   8.21039e-18
      318.948   8.14479e-18
      319.046   8.07976e-18
      319.144   8.01526e-18
      319.242   7.95134e-18
      319.341   7.88732e-18
      319.439   7.82448e-18
      319.537   7.76222e-18
      319.635   7.70046e-18
      319.734   7.63859e-18
      319.832   7.57790e-18
      319.930   7.51768e-18
      320.029   7.45739e-18
      320.127   7.39823e-18
      320.226   7.33898e-18
      320.324   7.28079e-18
      320.423   7.22249e-18
      320.522   7.16479e-18
      320.620   7.10811e-18
      320.719   7.05130e-18
      320.818   6.99502e-18
      320.916   6.93976e-18
      321.015   6.88440e-18
      321.114   6.82951e-18
      321.213   6.77509e-18
      321.311   6.72170e-18
      321.410   6.66823e-18
      321.509   6.61515e-18
      321.608   6.56255e-18
      321.707   6.51040e-18
      321.806   6.45868e-18
      321.905   6.40741e-18
      322.004   6.35656e-18
      322.103   6.30615e-18
      322.202   6.25612e-18
      322.301   6.20655e-18
      322.401   6.15692e-18
      322.500   6.10817e-18
      322.599   6.05984e-18
      322.698   6.01188e-18
      322.798   5.96386e-18
      322.897   5.91672e-18
      322.996   5.86997e-18
      323.096   5.82312e-18
      323.195   5.77714e-18
      323.294   5.73151e-18
      323.394   5.68583e-18
      323.493   5.64097e-18
      323.593   5.59607e-18
      323.692   5.55194e-18
      323.792   5.50774e-18
      323.892   5.46389e-18
      323.991   5.42082e-18
      324.091   5.37773e-18
      324.191   5.33497e-18
      324.291   5.29254e-18
      324.390   5.25090e-18
      324.490   5.20917e-18
      324.590   5.16778e-18
      324.690   5.12672e-18
      324.790   5.08600e-18
      324.890   5.04562e-18
      324.990   5.00556e-18
      325.090   4.96582e-18
      325.190   4.92638e-18
      325.290   4.88729e-18
      325.390   4.84847e-18
      325.490   4.81001e-18
      325.590   4.77186e-18
      325.690   4.73395e-18
      325.790   4.69637e-18
      325.891   4.65873e-18
      325.991   4.62176e-18
      326.091   4.58506e-18
      326.192   4.54831e-18
      326.292   4.51221e-18
      326.392   4.47640e-18
      326.493   4.44052e-18
      326.593   4.40525e-18
      326.694   4.36995e-18
      326.794   4.33524e-18
      326.895   4.30046e-18
      326.995   4.26629e-18
      327.096   4.23206e-18
      327.197   4.19809e-18
      327.297   4.16473e-18
      327.398   4.13129e-18
      327.499   4.09812e-18
      327.599   4.06552e-18
      327.700   4.03285e-18
      327.801   4.00042e-18
      327.902   3.96828e-18
      328.003   3.93636e-18
      328.104   3.90470e-18
      328.205   3.87329e-18
      328.306   3.84211e-18
      328.407   3.81117e-18
      328.508   3.78045e-18
      328.609   3.74997e-18
      328.710   3.71973e-18
      328.811   3.68972e-18
      328.912   3.65995e-18
      329.013   3.63039e-18
      329.115   3.60080e-18
      329.216   3.57170e-18
      329.317   3.54280e-18
      329.419   3.51388e-18
      329.520   3.48544e-18
      329.621   3.45718e-18
      329.723   3.42889e-18
      329.824   3.40111e-18
      329.926   3.37325e-18
      330.027   3.34587e-18
      330.129   3.31842e-18
      330.230   3.29147e-18
      330.332   3.26443e-18
      330.434   3.23760e-18
      330.535   3.21125e-18
      330.637   3.18482e-18
      330.739   3.15859e-18
      330.840   3.13282e-18
      330.942   3.10699e-18
      331.044   3.08136e-18
      331.146   3.05591e-18
      331.248   3.03066e-18
      331.350   3.00562e-18
      331.452   2.98078e-18
      331.554   2.95683e-18
      331.656   2.93414e-18
      331.758   2.91161e-18
      331.860   2.88922e-18
      331.962   2.86700e-18
      332.064   2.84494e-18
      332.166   2.82304e-18
      332.268   2.80126e-18
      332.371   2.77945e-18
      332.473   2.75797e-18
      332.575   2.73664e-18
      332.677   2.71546e-18
      332.780   2.69423e-18
      332.882   2.67335e-18
      332.985   2.65241e-18
      333.087   2.63180e-18
      333.190   2.61115e-18
      333.292   2.59049e-18
      333.395   2.56887e-18
      333.497   2.54728e-18
      333.600   2.52565e-18
      333.702   2.50439e-18
      333.805   2.48309e-18
      333.908   2.46194e-18
      334.011   2.44096e-18
      334.113   2.42034e-18
      334.216   2.39967e-18
      334.319   2.37917e-18
      334.422   2.35881e-18
      334.525   2.33862e-18
      334.628   2.31858e-18
      334.731   2.29870e-18
      334.834   2.27898e-18
      334.937   2.25940e-18
      335.040   2.23997e-18
      335.143   2.22070e-18
      335.246   2.20158e-18
      335.349   2.18259e-18
      335.452   2.16376e-18
      335.555   2.14508e-18
      335.659   2.12637e-18
      335.762   2.10798e-18
      335.865   2.08975e-18
      335.969   2.07147e-18
      336.072   2.05349e-18
      336.175   2.03567e-18
      336.279   2.01783e-18
      336.382   2.00029e-18
      336.486   1.98272e-18
      336.589   1.96545e-18
      336.693   1.94817e-18
      336.796   1.93119e-18
      336.900   1.91418e-18
      337.004   1.89729e-18
      337.107   1.88071e-18
      337.211   1.86410e-18
      337.315   1.84765e-18
      337.419   1.83130e-18
      337.523   1.81508e-18
      337.626   1.79916e-18
      337.730   1.78323e-18
      337.834   1.76741e-18
      337.938   1.75173e-18
      338.042   1.73623e-18
      338.146   1.72107e-18
      338.250   1.70605e-18
      338.354   1.69116e-18
      338.458   1.67637e-18
      338.562   1.66171e-18
      338.667   1.64704e-18
      338.771   1.63261e-18
      338.875   1.61831e-18
      338.979   1.60412e-18
      339.084   1.58992e-18
      339.188   1.57596e-18
      339.292   1.56214e-18
      339.397   1.54827e-18
      339.501   1.53467e-18
      339.606   1.52104e-18
      339.710   1.50766e-18
      339.815   1.49426e-18
      339.919   1.48111e-18
      340.024   1.46793e-18
      340.128   1.45499e-18
      340.233   1.44204e-18
      340.338   1.42920e-18
      340.442   1.41658e-18
      340.547   1.40396e-18
      340.652   1.39144e-18
      340.757   1.37902e-18
      340.862   1.36671e-18
      340.966   1.35463e-18
      341.071   1.34252e-18
      341.176   1.33053e-18
      341.281   1.31864e-18
      341.386   1.30686e-18
      341.491   1.29517e-18
      341.596   1.28360e-18
      341.702   1.27201e-18
      341.807   1.26062e-18
      341.912   1.24935e-18
      342.017   1.23817e-18
      342.122   1.22708e-18
      342.228   1.21599e-18
      342.333   1.20510e-18
      342.438   1.19431e-18
      342.544   1.18351e-18
      342.649   1.17290e-18
      342.754   1.16240e-18
      342.860   1.15188e-18
      342.965   1.14156e-18
      343.071   1.13124e-18
      343.176   1.12110e-18
      343.282   1.11095e-18
      343.388   1.10091e-18
      343.493   1.09111e-18
      343.599   1.08190e-18
      343.705   1.07284e-18
      343.810   1.06392e-18
      343.916   1.05500e-18
      344.022   1.04616e-18
      344.128   1.03739e-18
      344.234   1.02869e-18
      344.340   1.02008e-18
      344.446   1.01152e-18
      344.552   1.00305e-18
      344.658   9.94654e-19
      344.764   9.86324e-19
      344.870   9.78065e-19
      344.976   9.69878e-19
      345.082   9.61760e-19
      345.188   9.53718e-19
      345.294   9.45737e-19
      345.401   9.37754e-19
      345.507   9.29914e-19
      345.613   9.22143e-19
      345.719   9.14438e-19
      345.826   9.06730e-19
      345.932   8.99157e-19
      346.039   8.91584e-19
      346.145   8.84140e-19
      346.252   8.76699e-19
      346.358   8.69390e-19
      346.465   8.62075e-19
      346.571   8.54893e-19
      346.678   8.47705e-19
      346.785   8.40580e-19
      346.891   8.33585e-19
      346.998   8.26588e-19
      347.105   8.19657e-19
      347.212   8.12779e-19
      347.319   8.05967e-19
      347.425   7.99269e-19
      347.532   7.92574e-19
      347.639   7.85941e-19
      347.746   7.79362e-19
      347.853   7.72847e-19
      347.960   7.66382e-19
      348.067   7.59985e-19
      348.174   7.53645e-19
      348.281   7.47348e-19
      348.389   7.41062e-19
      348.496   7.34876e-19
      348.603   7.28761e-19
      348.710   7.22688e-19
      348.818   7.16624e-19
      348.925   7.10659e-19
      349.032   7.04755e-19
      349.140   6.98832e-19
      349.247   6.93014e-19
      349.355   6.87204e-19
      349.462   6.81493e-19
      349.570   6.75774e-19
      349.677   6.70166e-19
      349.785   6.64551e-19
      349.892   6.59043e-19
      350.000   6.53534e-19
      350.100   6.48475e-19
      350.193   6.43811e-19
      350.287   6.39129e-19
      350.380   6.34532e-19
      350.473   6.29975e-19
      350.567   6.25399e-19
      350.660   6.20911e-19
      350.754   6.16408e-19
      350.847   6.11993e-19
      350.941   6.07560e-19
      351.034   6.03208e-19
      351.128   5.98846e-19
      351.221   5.94562e-19
      351.315   5.90269e-19
      351.409   5.86003e-19
      351.502   5.81820e-19
      351.596   5.77621e-19
      351.690   5.73455e-19
      351.783   5.69369e-19
      351.877   5.65273e-19
      351.971   5.61201e-19
      352.065   5.57165e-19
      352.159   5.53162e-19
      352.252   5.49229e-19
      352.346   5.45283e-19
      352.440   5.41368e-19
      352.534   5.37489e-19
      352.628   5.33638e-19
      352.722   5.29812e-19
      352.816   5.26018e-19
      352.910   5.22254e-19
      353.004   5.18520e-19
      353.098   5.14811e-19
      353.192   5.11131e-19
      353.287   5.07444e-19
      353.381   5.03821e-19
      353.475   5.00229e-19
      353.569   4.96659e-19
      353.663   4.93119e-19
      353.758   4.89573e-19
      353.852   4.86090e-19
      353.946   4.82631e-19
      354.041   4.79162e-19
      354.135   4.75756e-19
      354.229   4.72374e-19
      354.324   4.68987e-19
      354.418   4.65655e-19
      354.513   4.62315e-19
      354.607   4.59043e-19
      354.702   4.55741e-19
      354.796   4.52462e-19
      354.891   4.49165e-19
      354.985   4.45932e-19
      355.080   4.42686e-19
      355.175   4.39468e-19
      355.269   4.36304e-19
      355.364   4.33134e-19
      355.459   4.29988e-19
      355.553   4.26898e-19
      355.648   4.23800e-19
      355.743   4.20726e-19
      355.838   4.17671e-19
      355.933   4.14645e-19
      356.027   4.11672e-19
      356.122   4.08688e-19
      356.217   4.05727e-19
      356.312   4.02791e-19
      356.407   3.99875e-19
      356.502   3.96982e-19
      356.597   3.94107e-19
      356.692   3.91259e-19
      356.787   3.88430e-19
      356.882   3.85621e-19
      356.977   3.82835e-19
      357.073   3.80043e-19
      357.168   3.77295e-19
      357.263   3.74571e-19
      357.358   3.71867e-19
      357.453   3.69183e-19
      357.549   3.66492e-19
      357.644   3.63848e-19
      357.739   3.61224e-19
      357.835   3.58593e-19
      357.930   3.56007e-19
      358.025   3.53440e-19
      358.121   3.50865e-19
      358.216   3.48336e-19
      358.312   3.45798e-19
      358.407   3.43308e-19
      358.503   3.40808e-19
      358.598   3.38355e-19
      358.694   3.35893e-19
      358.790   3.33448e-19
      358.885   3.31045e-19
      358.981   3.28637e-19
      359.076   3.26270e-19
      359.172   3.23898e-19
      359.268   3.21539e-19
      359.364   3.19198e-19
      359.459   3.16902e-19
      359.555   3.14597e-19
      359.651   3.12307e-19
      359.747   3.10034e-19
      359.843   3.07779e-19
      359.939   3.05538e-19
      360.035   3.03315e-19
      360.131   3.01108e-19
      360.227   2.98916e-19
      360.323   2.96741e-19
      360.419   2.94582e-19
      360.515   2.92438e-19
      360.611   2.90309e-19
      360.707   2.88193e-19
      360.803   2.86096e-19
      360.899   2.84010e-19
      360.995   2.81944e-19
      361.092   2.79869e-19
      361.188   2.77829e-19
      361.284   2.75804e-19
      361.380   2.73794e-19
      361.477   2.71777e-19
      361.573   2.69795e-19
      361.669   2.67827e-19
      361.766   2.65850e-19
      361.862   2.63911e-19
      361.959   2.61965e-19
      362.055   2.60049e-19
      362.152   2.58131e-19
      362.248   2.56243e-19
      362.345   2.54349e-19
      362.441   2.52491e-19
      362.538   2.50626e-19
      362.635   2.48773e-19
      362.731   2.46950e-19
      362.828   2.45121e-19
      362.925   2.43307e-19
      363.021   2.41524e-19
      363.118   2.39735e-19
      363.215   2.37957e-19
      363.312   2.36191e-19
      363.409   2.34440e-19
      363.505   2.32717e-19
      363.602   2.30988e-19
      363.699   2.29273e-19
      363.796   2.27568e-19
      363.893   2.25875e-19
      363.990   2.24195e-19
      364.087   2.22525e-19
      364.184   2.20868e-19
      364.281   2.19221e-19
      364.378   2.17588e-19
      364.475   2.15964e-19
      364.573   2.14334e-19
      364.670   2.12733e-19
      364.767   2.11143e-19
      364.864   2.09565e-19
      364.961   2.07996e-19
      365.059   2.06423e-19
      365.156   2.04877e-19
      365.253   2.03341e-19
      365.351   2.01799e-19
      365.448   2.00284e-19
      365.545   1.98781e-19
      365.643   1.97271e-19
      365.740   1.95787e-19
      365.838   1.94298e-19
      365.935   1.92835e-19
      366.033   1.91368e-19
      366.130   1.89924e-19
      366.228   1.88477e-19
      366.326   1.87039e-19
      366.423   1.85626e-19
      366.521   1.84208e-19
      366.618   1.82813e-19
      366.716   1.81414e-19
      366.814   1.80025e-19
      366.912   1.78646e-19
      367.010   1.77277e-19
      367.107   1.75930e-19
      367.205   1.74579e-19
      367.303   1.73237e-19
      367.401   1.71905e-19
      367.499   1.70581e-19
      367.597   1.69267e-19
      367.695   1.67962e-19
      367.793   1.66667e-19
      367.891   1.65381e-19
      367.989   1.64103e-19
      368.087   1.62834e-19
      368.185   1.61574e-19
      368.283   1.60322e-19
      368.381   1.59079e-19
      368.480   1.57832e-19
      368.578   1.56607e-19
      368.676   1.55391e-19
      368.774   1.54183e-19
      368.873   1.52971e-19
      368.971   1.51780e-19
      369.069   1.50598e-19
      369.168   1.49410e-19
      369.266   1.48244e-19
      369.364   1.47085e-19
      369.463   1.45924e-19
      369.561   1.44783e-19
      369.660   1.43637e-19
      369.758   1.42512e-19
      369.857   1.41383e-19
      369.955   1.40273e-19
      370.054   1.39160e-19
      370.153   1.38054e-19
      370.251   1.36968e-19
      370.350   1.35879e-19
      370.449   1.34798e-19
      370.547   1.33735e-19
      370.646   1.32668e-19
      370.745   1.31609e-19
      370.844   1.30558e-19
      370.943   1.29515e-19
      371.041   1.28490e-19
      371.140   1.27461e-19
      371.239   1.26440e-19
      371.338   1.25427e-19
      371.437   1.24421e-19
      371.536   1.23422e-19
      371.635   1.22430e-19
      371.734   1.21446e-19
      371.833   1.20469e-19
      371.932   1.19499e-19
      372.032   1.18527e-19
      372.131   1.17571e-19
      372.230   1.16622e-19
      372.329   1.15682e-19
      372.428   1.14747e-19
      372.528   1.13810e-19
      372.627   1.12890e-19
      372.726   1.11977e-19
      372.826   1.11061e-19
      372.925   1.10162e-19
      373.024   1.09268e-19
      373.124   1.08372e-19
      373.223   1.07492e-19
      373.323   1.06611e-19
      373.422   1.05744e-19
      373.522   1.04874e-19
      373.621   1.04021e-19
      373.721   1.03165e-19
      373.820   1.02325e-19
      373.920   1.01482e-19
      374.020   1.00645e-19
      374.119   9.98228e-20
      374.219   9.89985e-20
      374.319   9.81814e-20
      374.419   9.73705e-20
      374.518   9.65733e-20
      374.618   9.57743e-20
      374.718   9.49807e-20
      374.818   9.41943e-20
      374.918   9.34140e-20
      375.018   9.26393e-20
      375.118   9.18711e-20
      375.218   9.11082e-20
      375.318   9.03517e-20
      375.418   8.96007e-20
      375.518   8.88563e-20
      375.618   8.81176e-20
      375.718   8.73838e-20
      375.818   8.66563e-20
      375.918   8.59344e-20
      376.019   8.52116e-20
      376.119   8.45014e-20
      376.219   8.37966e-20
      376.319   8.30973e-20
      376.420   8.23969e-20
      376.520   8.17086e-20
      376.620   8.10264e-20
      376.721   8.03423e-20
      376.821   7.96707e-20
      376.922   7.89977e-20
      377.022   7.83365e-20
      377.122   7.76813e-20
      377.223   7.70246e-20
      377.323   7.63796e-20
      377.424   7.57334e-20
      377.525   7.50926e-20
      377.625   7.44630e-20
      377.726   7.38325e-20
      377.827   7.32074e-20
      377.927   7.25930e-20
      378.028   7.19780e-20
      378.129   7.13679e-20
      378.230   7.08422e-20
      378.330   7.04469e-20
      378.431   7.00700e-20
      378.532   6.96955e-20
      378.633   6.93223e-20
      378.734   6.89512e-20
      378.835   6.85820e-20
      378.936   6.82146e-20
      379.037   6.78489e-20
      379.138   6.74845e-20
      379.239   6.71224e-20
      379.340   6.67626e-20
      379.441   6.64044e-20
      379.542   6.60477e-20
      379.643   6.56930e-20
      379.745   6.53367e-20
      379.846   6.49855e-20
      379.947   6.46357e-20
      380.048   6.42883e-20
      380.150   6.39392e-20
      380.251   6.35951e-20
      380.352   6.32531e-20
      380.454   6.29096e-20
      380.555   6.25708e-20
      380.656   6.22337e-20
      380.758   6.18953e-20
      380.859   6.15619e-20
      380.961   6.12272e-20
      381.062   6.08974e-20
      381.164   6.05662e-20
      381.266   6.02367e-20
      381.367   5.99122e-20
      381.469   5.95864e-20
      381.570   5.92656e-20
      381.672   5.89430e-20
      381.774   5.86224e-20
      381.876   5.83034e-20
      381.977   5.79895e-20
      382.079   5.76740e-20
      382.181   5.73603e-20
      382.283   5.70486e-20
      382.385   5.67384e-20
      382.487   5.64299e-20
      382.589   5.61231e-20
      382.691   5.58180e-20
      382.793   5.55147e-20
      382.895   5.52133e-20
      382.997   5.49134e-20
      383.099   5.46151e-20
      383.201   5.43185e-20
      383.303   5.40238e-20
      383.405   5.37304e-20
      383.507   5.34385e-20
      383.610   5.31460e-20
      383.712   5.28577e-20
      383.814   5.25712e-20
      383.916   5.22865e-20
      384.019   5.20004e-20
      384.121   5.17188e-20
      384.223   5.14385e-20
      384.326   5.11664e-20
      384.428   5.09205e-20
      384.531   5.06802e-20
      384.633   5.04435e-20
      384.736   5.02056e-20
      384.838   4.99709e-20
      384.941   4.97355e-20
      385.043   4.95033e-20
      385.146   4.92706e-20
      385.249   4.90386e-20
      385.351   4.88101e-20
      385.454   4.85807e-20
      385.557   4.83524e-20
      385.660   4.81254e-20
      385.762   4.79018e-20
      385.865   4.76771e-20
      385.968   4.74535e-20
      386.071   4.72311e-20
      386.174   4.70098e-20
      386.277   4.67898e-20
      386.380   4.65709e-20
      386.483   4.63529e-20
      386.586   4.61368e-20
      386.689   4.59213e-20
      386.792   4.57070e-20
      386.895   4.54937e-20
      386.998   4.52818e-20
      387.101   4.50708e-20
      387.204   4.48606e-20
      387.308   4.46501e-20
      387.411   4.44426e-20
      387.514   4.42361e-20
      387.617   4.40306e-20
      387.721   4.38244e-20
      387.824   4.36213e-20
      387.927   4.34190e-20
      388.031   4.32160e-20
      388.134   4.30160e-20
      388.238   4.28153e-20
      388.341   4.26174e-20
      388.445   4.24189e-20
      388.548   4.22229e-20
      388.652   4.20266e-20
      388.755   4.18331e-20
      388.859   4.16385e-20
      388.962   4.14469e-20
      389.066   4.12544e-20
      389.170   4.10631e-20
      389.274   4.08729e-20
      389.377   4.06857e-20
      389.481   4.04972e-20
      389.585   4.03099e-20
      389.689   4.01235e-20
      389.793   3.99383e-20
      389.897   3.97540e-20
      390.000   3.95726e-20
      390.104   3.93904e-20
      390.208   3.92089e-20
      390.312   3.90285e-20
      390.416   3.88487e-20
      390.520   3.86695e-20
      390.625   3.84897e-20
      390.729   3.83125e-20
      390.833   3.81362e-20
      390.937   3.79609e-20
      391.041   3.77866e-20
      391.145   3.76129e-20
      391.250   3.74388e-20
      391.354   3.72671e-20
      391.458   3.70963e-20
      391.563   3.69248e-20
      391.667   3.67559e-20
      391.771   3.65880e-20
      391.876   3.64193e-20
      391.980   3.62529e-20
      392.085   3.60859e-20
      392.189   3.59215e-20
      392.294   3.57563e-20
      392.398   3.55936e-20
      392.503   3.54301e-20
      392.607   3.52689e-20
      392.712   3.51074e-20
      392.817   3.49462e-20
      392.921   3.47879e-20
      393.026   3.46286e-20
      393.131   3.44703e-20
      393.236   3.43125e-20
      393.340   3.41574e-20
      393.445   3.40017e-20
      393.550   3.38464e-20
      393.655   3.36921e-20
      393.760   3.35386e-20
      393.865   3.33860e-20
      393.970   3.32340e-20
      394.075   3.30828e-20
      394.180   3.29327e-20
      394.285   3.27832e-20
      394.390   3.26342e-20
      394.495   3.24861e-20
      394.600   3.23388e-20
      394.706   3.21908e-20
      394.811   3.20452e-20
      394.916   3.18998e-20
      395.021   3.17554e-20
      395.126   3.16119e-20
      395.232   3.14675e-20
      395.337   3.13252e-20
      395.443   3.11824e-20
      395.548   3.10415e-20
      395.653   3.09013e-20
      395.759   3.07607e-20
      395.864   3.06221e-20
      395.970   3.04827e-20
      396.075   3.03453e-20
      396.181   3.02073e-20
      396.286   3.00710e-20
      396.392   2.99346e-20
      396.498   2.97987e-20
      396.603   2.96644e-20
      396.709   2.95296e-20
      396.815   2.93952e-20
      396.921   2.92616e-20
      397.026   2.91300e-20
      397.132   2.89979e-20
      397.238   2.88664e-20
      397.344   2.87353e-20
      397.450   2.86051e-20
      397.556   2.84753e-20
      397.662   2.83460e-20
      397.768   2.82175e-20
      397.874   2.80898e-20
      397.980   2.79622e-20
      398.086   2.78356e-20
      398.192   2.77093e-20
      398.298   2.75836e-20
      398.404   2.74588e-20
      398.510   2.73342e-20
      398.617   2.72091e-20
      398.723   2.70857e-20
      398.829   2.69629e-20
      398.935   2.68405e-20
      399.042   2.67179e-20
      399.148   2.65965e-20
      399.255   2.64748e-20
      399.361   2.63546e-20
      399.467   2.62349e-20
      399.574   2.61149e-20
      399.680   2.59962e-20
      399.787   2.58768e-20
      399.893       0.00000
      400.000       0.00000
