Filter Al-thick
observation_date 22-Sept-2006 22:40:45
wavelength effective area 
      1.00000   2.52799e-10
      1.10000   6.99242e-10
      1.20000   1.75060e-09
      1.30000   4.00511e-09
      1.40000   8.63414e-09
      1.50000   1.73702e-08
      1.60000   3.29006e-08
      1.70000   5.92567e-08
      1.80000   1.01470e-07
      1.90000   1.66212e-07
      2.00000   2.60889e-07
      2.10000   3.93934e-07
      2.20000   5.74645e-07
      2.30000   8.08615e-07
      2.40000   1.09929e-06
      2.50000   1.43863e-06
      2.60000   1.85810e-06
      2.70000   2.31696e-06
      2.80000   2.80137e-06
      2.90000   3.30752e-06
      3.00000   3.79789e-06
      3.10000   4.25010e-06
      3.20000   4.64244e-06
      3.30000   4.95245e-06
      3.40000   5.15881e-06
      3.50000   5.25135e-06
      3.60000   5.24146e-06
      3.70000   5.11001e-06
      3.80000   4.88656e-06
      3.90000   4.58129e-06
      4.00000   4.20848e-06
      4.10000   3.79220e-06
      4.20000   3.35522e-06
      4.30000   2.91602e-06
      4.40000   2.49035e-06
      4.50000   2.08976e-06
      4.60000   1.72196e-06
      4.70000   1.39799e-06
      4.80000   1.11644e-06
      4.90000   8.67146e-07
      5.00000   6.80737e-07
      5.10000   5.19179e-07
      5.20000   3.91332e-07
      5.30000   2.87974e-07
      5.40000   2.08519e-07
      5.50000   1.49184e-07
      5.60000   1.01815e-07
      5.70000   7.20240e-08
      5.80000   4.52362e-08
      5.90000   3.66349e-08
      6.00000   2.57744e-08
      6.10000   1.70025e-08
      6.20000   1.08149e-08
      6.30000   6.48331e-09
      6.40000   3.65944e-09
      6.50000   1.95153e-09
      6.60000   9.76951e-10
      6.70000   4.71201e-10
      6.80000   2.20175e-10
      6.90000   1.32618e-10
      7.00000   6.62049e-11
      7.10000   3.15362e-11
      7.20000   1.45477e-11
      7.30000   6.61619e-12
      7.40000   3.06370e-12
      7.50000   1.35906e-12
      7.60000   5.75590e-13
      7.70000   2.51323e-13
      7.80000   1.03645e-13
      7.90000   4.17739e-14
      8.00000     0.0721349
      8.10000     0.0721986
      8.20000     0.0669070
      8.30000     0.0615822
      8.40000     0.0566298
      8.50000     0.0519237
      8.60000     0.0474965
      8.70000     0.0433014
      8.80000     0.0393793
      8.90000     0.0356849
      9.00000     0.0322467
      9.10000     0.0290575
      9.20000     0.0260889
      9.30000     0.0233826
      9.40000     0.0208879
      9.50000     0.0185932
      9.60000     0.0165283
      9.70000     0.0146446
      9.80000     0.0129243
      9.90000     0.0113763
      10.0000    0.00998415
      10.1000    0.00872872
      10.2000    0.00760139
      10.3000    0.00660517
      10.4000    0.00572793
      10.5000    0.00495066
      10.6000    0.00426463
      10.7000    0.00366138
      10.8000    0.00313558
      10.9000    0.00268162
      11.0000    0.00228609
      11.1000    0.00194271
      11.2000    0.00164565
      11.3000    0.00138963
      11.4000    0.00116975
      11.5000   0.000981540
      11.6000   0.000821031
      11.7000   0.000685985
      11.8000   0.000571550
      11.9000   0.000475752
      12.0000   0.000394994
      12.1000   0.000328530
      12.2000   0.000277677
      12.3000   0.000230977
      12.4000   0.000189844
      12.5000   0.000155429
      12.6000   0.000126810
      12.7000   0.000103110
      12.8000   8.35699e-05
      12.9000   6.75280e-05
      13.0000   5.43978e-05
      13.1000   4.36813e-05
      13.2000   3.49627e-05
      13.3000   2.78915e-05
      13.4000   2.21758e-05
      13.5000   1.75802e-05
      13.6000   1.39560e-05
      13.7000   1.10448e-05
      13.8000   8.71237e-06
      13.9000   6.84925e-06
      14.0000   5.36519e-06
      14.1000   4.18656e-06
      14.2000   3.25354e-06
      14.3000   2.51768e-06
      14.4000   1.93968e-06
      14.5000   1.49384e-06
      14.6000   1.15371e-06
      14.7000   8.86833e-07
      14.8000   6.78216e-07
      14.9000   5.15834e-07
      15.0000   3.90053e-07
      15.1000   2.93137e-07
      15.2000   2.22355e-07
      15.3000   1.68067e-07
      15.4000   1.26134e-07
      15.5000   9.39629e-08
      15.6000   6.94591e-08
      15.7000   5.15452e-08
      15.8000   3.84883e-08
      15.9000   2.84825e-08
      16.0000   2.08888e-08
      16.1000   1.51828e-08
      16.2000   1.12100e-08
      16.3000   8.25495e-09
      16.4000   6.00668e-09
      16.5000   4.31941e-09
      16.6000   3.12720e-09
      16.7000   2.28349e-09
      16.8000   1.64183e-09
      16.9000   1.16308e-09
      17.0000   8.32390e-10
      17.1000   6.00313e-10
      17.2000   4.24752e-10
      17.3000   2.95286e-10
      17.4000   2.12034e-10
      17.5000   1.51323e-10
      17.6000   1.06173e-10
      17.7000   7.47195e-11
      17.8000   5.42966e-11
      17.9000   3.85581e-11
      18.0000   2.67639e-11
      18.1000   1.93012e-11
      18.2000   1.35691e-11
      18.3000   9.23639e-12
      18.4000   6.42664e-12
      18.5000   4.40851e-12
      18.6000   2.89868e-12
      18.7000   1.93840e-12
      18.8000   1.29358e-12
      18.9000   8.25084e-13
      19.0000   5.45745e-13
      19.1000   3.59964e-13
      19.2000   2.26161e-13
      19.3000   1.50294e-13
      19.4000   9.81084e-14
      19.5000   6.09139e-14
      19.6000   4.11448e-14
      19.7000   2.65276e-14
      19.8000   1.64737e-14
      19.9000   1.11914e-14
      20.0000   7.06628e-15
      20.1000   4.52824e-15
      20.2000   2.97230e-15
      20.3000   1.81531e-15
      20.4000   1.20118e-15
      20.5000   7.55939e-16
      20.6000   4.61123e-16
      20.7000   3.04254e-16
      20.8000   1.82548e-16
      20.9000   1.17640e-16
      21.0000   7.29227e-17
      21.1000   4.33088e-17
      21.2000   2.82374e-17
      21.3000   1.64314e-17
      21.4000   1.05544e-17
      21.5000   6.33040e-18
      21.6000   3.78471e-18
      21.7000   2.37322e-18
      21.8000   1.31849e-18
      21.9000   8.66225e-19
      22.0000   4.93286e-19
      22.1000   3.06928e-19
      22.2000   1.79971e-19
      22.3000   1.04622e-19
      22.4000   6.33103e-20
      22.5000   3.28581e-20
      22.6000   1.99487e-20
      22.7000   9.27714e-21
      22.8000   6.90082e-21
      22.9000   5.03869e-21
      23.0000   3.90589e-21
      23.1000   2.82775e-21
      23.2000   1.80107e-21
      23.3000   1.13302e-21
      23.4000   6.44131e-22
      23.5000   3.99654e-22
      23.6000   2.14779e-22
      23.7000   1.37744e-22
      23.8000   7.08737e-23
      23.9000   4.63225e-23
      24.0000   2.38773e-23
      24.1000   1.52851e-23
      24.2000   7.87541e-24
      24.3000   4.95209e-24
      24.4000   2.55568e-24
      24.5000   1.58397e-24
      24.6000   8.18941e-25
      24.7000   5.01511e-25
      24.8000   2.58980e-25
      24.9000   1.57795e-25
      25.0000   8.15509e-26
      25.1000   4.94385e-26
      25.2000   2.53068e-26
      25.3000   1.53594e-26
      25.4000   7.77986e-27
      25.5000   4.73458e-27
      25.6000   2.35135e-27
      25.7000   1.44123e-27
      25.8000   6.99103e-28
      25.9000   4.32977e-28
      26.0000   2.04006e-28
      26.1000   1.28093e-28
      26.2000   5.83900e-29
      26.3000   3.72656e-29
      26.4000   1.63707e-29
      26.5000   1.06418e-29
      26.6000   4.93310e-30
      26.7000   2.97750e-30
      26.8000   1.47040e-30
      26.9000   8.15318e-31
      27.0000   4.27895e-31
      27.1000   2.18120e-31
      27.2000   1.21164e-31
      27.3000   5.69183e-32
      27.4000   3.34315e-32
      27.5000   1.46162e-32
      27.6000   8.98964e-33
      27.7000   3.62566e-33
      27.8000   2.32788e-33
      27.9000   1.03447e-33
      28.0000   5.82042e-34
      28.1000   2.94088e-34
      28.2000   1.41650e-34
      28.3000   7.96325e-35
      28.4000   3.43810e-35
      28.5000   2.08778e-35
      28.6000   8.16009e-36
      28.7000   5.33180e-36
      28.8000   2.51307e-36
      28.9000   1.39092e-36
      29.0000   7.53589e-37
      29.1000   3.49382e-37
      29.2000   2.09167e-37
      29.3000   8.46126e-38
      29.4000   5.46003e-38
      29.5000   2.46906e-38
      29.6000   1.35208e-38
      29.7000   7.29818e-39
      29.8000   3.19353e-39
      29.9000   1.93567e-39
      30.0000   7.21908e-40
      30.1000   4.74979e-40
      30.2000   2.28871e-40
      30.3000   1.09916e-40
      30.4000   6.37395e-41
      30.5000   2.54826e-41
      30.6000   1.62467e-41
      30.7000   7.04853e-42
      30.8000   3.64478e-42
      30.9000   1.99965e-42
      31.0000   7.73517e-43
      31.1000   4.86251e-43
      31.2000   1.97583e-43
      31.3000   1.09301e-43
      31.4000   5.04467e-44
      31.5000   2.24208e-44
      31.6000   1.26117e-44
      31.7000   2.80260e-45
      31.8000   2.80260e-45
      31.9000   2.80260e-45
      32.0000       0.00000
      32.1000       0.00000
      32.2000       0.00000
      32.3000       0.00000
      32.4000       0.00000
      32.5000       0.00000
      32.6000       0.00000
      32.7000       0.00000
      32.8000       0.00000
      32.9000       0.00000
      33.0000       0.00000
      33.1000       0.00000
      33.2000       0.00000
      33.3000       0.00000
      33.4000       0.00000
      33.5000       0.00000
      33.6000       0.00000
      33.7000       0.00000
      33.8000       0.00000
      33.9000       0.00000
      34.0000       0.00000
      34.1000       0.00000
      34.2000       0.00000
      34.3000       0.00000
      34.4000       0.00000
      34.5000       0.00000
      34.6000       0.00000
      34.7000       0.00000
      34.8000       0.00000
      34.9000       0.00000
      35.0000       0.00000
      35.1000       0.00000
      35.2000       0.00000
      35.3000       0.00000
      35.4000       0.00000
      35.5000       0.00000
      35.6000       0.00000
      35.7000       0.00000
      35.8000       0.00000
      35.9000       0.00000
      36.0000       0.00000
      36.1000       0.00000
      36.2000       0.00000
      36.3000       0.00000
      36.4000       0.00000
      36.5000       0.00000
      36.6000       0.00000
      36.7000       0.00000
      36.8000       0.00000
      36.9000       0.00000
      37.0000       0.00000
      37.1000       0.00000
      37.2000       0.00000
      37.3000       0.00000
      37.4000       0.00000
      37.5000       0.00000
      37.6000       0.00000
      37.7000       0.00000
      37.8000       0.00000
      37.9000       0.00000
      38.0000       0.00000
      38.1000       0.00000
      38.2000       0.00000
      38.3000       0.00000
      38.4000       0.00000
      38.5000       0.00000
      38.6000       0.00000
      38.7000       0.00000
      38.8000       0.00000
      38.9000       0.00000
      39.0000       0.00000
      39.1000       0.00000
      39.2000       0.00000
      39.3000       0.00000
      39.4000       0.00000
      39.5000       0.00000
      39.6000       0.00000
      39.7000       0.00000
      39.8000       0.00000
      39.9000       0.00000
      40.0000       0.00000
      40.1000       0.00000
      40.2000       0.00000
      40.3000       0.00000
      40.4000       0.00000
      40.5000       0.00000
      40.6000       0.00000
      40.7000       0.00000
      40.8000       0.00000
      40.9000       0.00000
      41.0000       0.00000
      41.1000       0.00000
      41.2000       0.00000
      41.3000       0.00000
      41.4000       0.00000
      41.5000       0.00000
      41.6000       0.00000
      41.7000       0.00000
      41.8000       0.00000
      41.9000       0.00000
      42.0000       0.00000
      42.1000       0.00000
      42.2000       0.00000
      42.3000       0.00000
      42.4000       0.00000
      42.5000       0.00000
      42.6000       0.00000
      42.7000       0.00000
      42.8000       0.00000
      42.9000       0.00000
      43.0000       0.00000
      43.1000       0.00000
      43.2000       0.00000
      43.3000       0.00000
      43.4000       0.00000
      43.5000       0.00000
      43.6000       0.00000
      43.7000       0.00000
      43.8000       0.00000
      43.9000       0.00000
      44.0000       0.00000
      44.1000       0.00000
      44.2000       0.00000
      44.3000       0.00000
      44.4000       0.00000
      44.5000       0.00000
      44.6000       0.00000
      44.7000       0.00000
      44.8000       0.00000
      44.9000       0.00000
      45.0000       0.00000
      45.1000       0.00000
      45.2000       0.00000
      45.3000       0.00000
      45.4000       0.00000
      45.5000       0.00000
      45.6000       0.00000
      45.7000       0.00000
      45.8000       0.00000
      45.9000       0.00000
      46.0000       0.00000
      46.1000       0.00000
      46.2000       0.00000
      46.3000       0.00000
      46.4000       0.00000
      46.5000       0.00000
      46.6000       0.00000
      46.7000       0.00000
      46.8000       0.00000
      46.9000       0.00000
      47.0000       0.00000
      47.1000       0.00000
      47.2000       0.00000
      47.3000       0.00000
      47.4000       0.00000
      47.5000       0.00000
      47.6000       0.00000
      47.7000       0.00000
      47.8000       0.00000
      47.9000       0.00000
      48.0000       0.00000
      48.1000       0.00000
      48.2000       0.00000
      48.3000       0.00000
      48.4000       0.00000
      48.5000       0.00000
      48.6000       0.00000
      48.7000       0.00000
      48.8000       0.00000
      48.9000       0.00000
      49.0000       0.00000
      49.1000       0.00000
      49.2000       0.00000
      49.3000       0.00000
      49.4000       0.00000
      49.5000       0.00000
      49.6000       0.00000
      49.7000       0.00000
      49.8000       0.00000
      49.9000       0.00000
      50.0000       0.00000
      50.1000       0.00000
      50.2000       0.00000
      50.3000       0.00000
      50.4000       0.00000
      50.5000       0.00000
      50.6000       0.00000
      50.7000       0.00000
      50.8000       0.00000
      50.9000       0.00000
      51.0000       0.00000
      51.1000       0.00000
      51.2000       0.00000
      51.3000       0.00000
      51.4000       0.00000
      51.5000       0.00000
      51.6000       0.00000
      51.7000       0.00000
      51.8000       0.00000
      51.9000       0.00000
      52.0000       0.00000
      52.1000       0.00000
      52.2000       0.00000
      52.3000       0.00000
      52.4000       0.00000
      52.5000       0.00000
      52.6000       0.00000
      52.7000       0.00000
      52.8000       0.00000
      52.9000       0.00000
      53.0000       0.00000
      53.1000       0.00000
      53.2000       0.00000
      53.3000       0.00000
      53.4000       0.00000
      53.5000       0.00000
      53.6000       0.00000
      53.7000       0.00000
      53.8000       0.00000
      53.9000       0.00000
      54.0000       0.00000
      54.1000       0.00000
      54.2000       0.00000
      54.3000       0.00000
      54.4000       0.00000
      54.5000       0.00000
      54.6000       0.00000
      54.7000       0.00000
      54.8000       0.00000
      54.9000       0.00000
      55.0000       0.00000
      55.1000       0.00000
      55.2000       0.00000
      55.3000       0.00000
      55.4000       0.00000
      55.5000       0.00000
      55.6000       0.00000
      55.7000       0.00000
      55.8000       0.00000
      55.9000       0.00000
      56.0000       0.00000
      56.1000       0.00000
      56.2000       0.00000
      56.3000       0.00000
      56.4000       0.00000
      56.5000       0.00000
      56.6000       0.00000
      56.7000       0.00000
      56.8000       0.00000
      56.9000       0.00000
      57.0000       0.00000
      57.1000       0.00000
      57.2000       0.00000
      57.3000       0.00000
      57.4000       0.00000
      57.5000       0.00000
      57.6000       0.00000
      57.7000       0.00000
      57.8000       0.00000
      57.9000       0.00000
      58.0000       0.00000
      58.1000       0.00000
      58.2000       0.00000
      58.3000       0.00000
      58.4000       0.00000
      58.5000       0.00000
      58.6000       0.00000
      58.7000       0.00000
      58.8000       0.00000
      58.9000       0.00000
      59.0000       0.00000
      59.1000       0.00000
      59.2000       0.00000
      59.3000       0.00000
      59.4000       0.00000
      59.5000       0.00000
      59.6000       0.00000
      59.7000       0.00000
      59.8000       0.00000
      59.9000       0.00000
      60.0000       0.00000
      60.1000       0.00000
      60.2000       0.00000
      60.3000       0.00000
      60.4000       0.00000
      60.5000       0.00000
      60.6000       0.00000
      60.7000       0.00000
      60.8000       0.00000
      60.9000       0.00000
      61.0000       0.00000
      61.1000       0.00000
      61.2000       0.00000
      61.3000       0.00000
      61.4000       0.00000
      61.5000       0.00000
      61.6000       0.00000
      61.7000       0.00000
      61.8000       0.00000
      61.9000       0.00000
      62.0000       0.00000
      62.1000       0.00000
      62.2000       0.00000
      62.3000       0.00000
      62.4000       0.00000
      62.5000       0.00000
      62.6000       0.00000
      62.7000       0.00000
      62.8000       0.00000
      62.9000       0.00000
      63.0000       0.00000
      63.1000       0.00000
      63.2000       0.00000
      63.3000       0.00000
      63.4000       0.00000
      63.5000       0.00000
      63.6000       0.00000
      63.7000       0.00000
      63.8000       0.00000
      63.9000       0.00000
      64.0000       0.00000
      64.1000       0.00000
      64.2000       0.00000
      64.3000       0.00000
      64.4000       0.00000
      64.5000       0.00000
      64.6000       0.00000
      64.7000       0.00000
      64.8000       0.00000
      64.9000       0.00000
      65.0000       0.00000
      65.1000       0.00000
      65.2000       0.00000
      65.3000       0.00000
      65.4000       0.00000
      65.5000       0.00000
      65.6000       0.00000
      65.7000       0.00000
      65.8000       0.00000
      65.9000       0.00000
      66.0000       0.00000
      66.1000       0.00000
      66.2000       0.00000
      66.3000       0.00000
      66.4000       0.00000
      66.5000       0.00000
      66.6000       0.00000
      66.7000       0.00000
      66.8000       0.00000
      66.9000       0.00000
      67.0000       0.00000
      67.1000       0.00000
      67.2000       0.00000
      67.3000       0.00000
      67.4000       0.00000
      67.5000       0.00000
      67.6000       0.00000
      67.7000       0.00000
      67.8000       0.00000
      67.9000       0.00000
      68.0000       0.00000
      68.1000       0.00000
      68.2000       0.00000
      68.3000       0.00000
      68.4000       0.00000
      68.5000       0.00000
      68.6000       0.00000
      68.7000       0.00000
      68.8000       0.00000
      68.9000       0.00000
      69.0000       0.00000
      69.1000       0.00000
      69.2000       0.00000
      69.3000       0.00000
      69.4000       0.00000
      69.5000       0.00000
      69.6000       0.00000
      69.7000       0.00000
      69.8000       0.00000
      69.9000       0.00000
      70.0000       0.00000
      70.1000       0.00000
      70.2000       0.00000
      70.3000       0.00000
      70.4000       0.00000
      70.5000       0.00000
      70.6000       0.00000
      70.7000       0.00000
      70.8000       0.00000
      70.9000       0.00000
      71.0000       0.00000
      71.1000       0.00000
      71.2000       0.00000
      71.3000       0.00000
      71.4000       0.00000
      71.5000       0.00000
      71.6000       0.00000
      71.7000       0.00000
      71.8000       0.00000
      71.9000       0.00000
      72.0000       0.00000
      72.1000       0.00000
      72.2000       0.00000
      72.3000       0.00000
      72.4000       0.00000
      72.5000       0.00000
      72.6000       0.00000
      72.7000       0.00000
      72.8000       0.00000
      72.9000       0.00000
      73.0000       0.00000
      73.1000       0.00000
      73.2000       0.00000
      73.3000       0.00000
      73.4000       0.00000
      73.5000       0.00000
      73.6000       0.00000
      73.7000       0.00000
      73.8000       0.00000
      73.9000       0.00000
      74.0000       0.00000
      74.1000       0.00000
      74.2000       0.00000
      74.3000       0.00000
      74.4000       0.00000
      74.5000       0.00000
      74.6000       0.00000
      74.7000       0.00000
      74.8000       0.00000
      74.9000       0.00000
      75.0000       0.00000
      75.1000       0.00000
      75.2000       0.00000
      75.3000       0.00000
      75.4000       0.00000
      75.5000       0.00000
      75.6000       0.00000
      75.7000       0.00000
      75.8000       0.00000
      75.9000       0.00000
      76.0000       0.00000
      76.1000       0.00000
      76.2000       0.00000
      76.3000       0.00000
      76.4000       0.00000
      76.5000       0.00000
      76.6000       0.00000
      76.7000       0.00000
      76.8000       0.00000
      76.9000       0.00000
      77.0000       0.00000
      77.1000       0.00000
      77.2000       0.00000
      77.3000       0.00000
      77.4000       0.00000
      77.5000       0.00000
      77.6000       0.00000
      77.7000       0.00000
      77.8000       0.00000
      77.9000       0.00000
      78.0000       0.00000
      78.1000       0.00000
      78.2000       0.00000
      78.3000       0.00000
      78.4000       0.00000
      78.5000       0.00000
      78.6000       0.00000
      78.7000       0.00000
      78.8000       0.00000
      78.9000       0.00000
      79.0000       0.00000
      79.1000       0.00000
      79.2000       0.00000
      79.3000       0.00000
      79.4000       0.00000
      79.5000       0.00000
      79.6000       0.00000
      79.7000       0.00000
      79.8000       0.00000
      79.9000       0.00000
      80.0000       0.00000
      80.1000       0.00000
      80.2000       0.00000
      80.3000       0.00000
      80.4000       0.00000
      80.5000       0.00000
      80.6000       0.00000
      80.7000       0.00000
      80.8000       0.00000
      80.9000       0.00000
      81.0000       0.00000
      81.1000       0.00000
      81.2000       0.00000
      81.3000       0.00000
      81.4000       0.00000
      81.5000       0.00000
      81.6000       0.00000
      81.7000       0.00000
      81.8000       0.00000
      81.9000       0.00000
      82.0000       0.00000
      82.1000       0.00000
      82.2000       0.00000
      82.3000       0.00000
      82.4000       0.00000
      82.5000       0.00000
      82.6000       0.00000
      82.7000       0.00000
      82.8000       0.00000
      82.9000       0.00000
      83.0000       0.00000
      83.1000       0.00000
      83.2000       0.00000
      83.3000       0.00000
      83.4000       0.00000
      83.5000       0.00000
      83.6000       0.00000
      83.7000       0.00000
      83.8000       0.00000
      83.9000       0.00000
      84.0000       0.00000
      84.1000       0.00000
      84.2000       0.00000
      84.3000       0.00000
      84.4000       0.00000
      84.5000       0.00000
      84.6000       0.00000
      84.7000       0.00000
      84.8000       0.00000
      84.9000       0.00000
      85.0000       0.00000
      85.1000       0.00000
      85.2000       0.00000
      85.3000       0.00000
      85.4000       0.00000
      85.5000       0.00000
      85.6000       0.00000
      85.7000       0.00000
      85.8000       0.00000
      85.9000       0.00000
      86.0000       0.00000
      86.1000       0.00000
      86.2000       0.00000
      86.3000       0.00000
      86.4000       0.00000
      86.5000       0.00000
      86.6000       0.00000
      86.7000       0.00000
      86.8000       0.00000
      86.9000       0.00000
      87.0000       0.00000
      87.1000       0.00000
      87.2000       0.00000
      87.3000       0.00000
      87.4000       0.00000
      87.5000       0.00000
      87.6000       0.00000
      87.7000       0.00000
      87.8000       0.00000
      87.9000       0.00000
      88.0000       0.00000
      88.1000       0.00000
      88.2000       0.00000
      88.3000       0.00000
      88.4000       0.00000
      88.5000       0.00000
      88.6000       0.00000
      88.7000       0.00000
      88.8000       0.00000
      88.9000       0.00000
      89.0000       0.00000
      89.1000       0.00000
      89.2000       0.00000
      89.3000       0.00000
      89.4000       0.00000
      89.5000       0.00000
      89.6000       0.00000
      89.7000       0.00000
      89.8000       0.00000
      89.9000       0.00000
      90.0000       0.00000
      90.1000       0.00000
      90.2000       0.00000
      90.3000       0.00000
      90.4000       0.00000
      90.5000       0.00000
      90.6000       0.00000
      90.7000       0.00000
      90.8000       0.00000
      90.9000       0.00000
      91.0000       0.00000
      91.1000       0.00000
      91.2000       0.00000
      91.3000       0.00000
      91.4000       0.00000
      91.5000       0.00000
      91.6000       0.00000
      91.7000       0.00000
      91.8000       0.00000
      91.9000       0.00000
      92.0000       0.00000
      92.1000       0.00000
      92.2000       0.00000
      92.3000       0.00000
      92.4000       0.00000
      92.5000       0.00000
      92.6000       0.00000
      92.7000       0.00000
      92.8000       0.00000
      92.9000       0.00000
      93.0000       0.00000
      93.1000       0.00000
      93.2000       0.00000
      93.3000       0.00000
      93.4000       0.00000
      93.5000       0.00000
      93.6000       0.00000
      93.7000       0.00000
      93.8000       0.00000
      93.9000       0.00000
      94.0000       0.00000
      94.1000       0.00000
      94.2000       0.00000
      94.3000       0.00000
      94.4000       0.00000
      94.5000       0.00000
      94.6000       0.00000
      94.7000       0.00000
      94.8000       0.00000
      94.9000       0.00000
      95.0000       0.00000
      95.1000       0.00000
      95.2000       0.00000
      95.3000       0.00000
      95.4000       0.00000
      95.5000       0.00000
      95.6000       0.00000
      95.7000       0.00000
      95.8000       0.00000
      95.9000       0.00000
      96.0000       0.00000
      96.1000       0.00000
      96.2000       0.00000
      96.3000       0.00000
      96.4000       0.00000
      96.5000       0.00000
      96.6000       0.00000
      96.7000       0.00000
      96.8000       0.00000
      96.9000       0.00000
      97.0000       0.00000
      97.1000       0.00000
      97.2000       0.00000
      97.3000       0.00000
      97.4000       0.00000
      97.5000       0.00000
      97.6000       0.00000
      97.7000       0.00000
      97.8000       0.00000
      97.9000       0.00000
      98.0000       0.00000
      98.1000       0.00000
      98.2000       0.00000
      98.3000       0.00000
      98.4000       0.00000
      98.5000       0.00000
      98.6000       0.00000
      98.7000       0.00000
      98.8000       0.00000
      98.9000       0.00000
      99.0000       0.00000
      99.1000       0.00000
      99.2000       0.00000
      99.3000       0.00000
      99.4000       0.00000
      99.5000       0.00000
      99.6000       0.00000
      99.7000       0.00000
      99.8000       0.00000
      99.9000       0.00000
      100.000       0.00000
      100.100       0.00000
      100.200       0.00000
      100.300       0.00000
      100.400       0.00000
      100.500       0.00000
      100.600       0.00000
      100.700       0.00000
      100.800       0.00000
      100.900       0.00000
      101.000       0.00000
      101.100       0.00000
      101.200       0.00000
      101.300       0.00000
      101.400       0.00000
      101.500       0.00000
      101.600       0.00000
      101.700       0.00000
      101.800       0.00000
      101.900       0.00000
      102.000       0.00000
      102.100       0.00000
      102.200       0.00000
      102.300       0.00000
      102.400       0.00000
      102.500       0.00000
      102.600       0.00000
      102.700       0.00000
      102.800       0.00000
      102.900       0.00000
      103.000       0.00000
      103.100       0.00000
      103.200       0.00000
      103.300       0.00000
      103.400       0.00000
      103.500       0.00000
      103.600       0.00000
      103.700       0.00000
      103.800       0.00000
      103.900       0.00000
      104.000       0.00000
      104.100       0.00000
      104.200       0.00000
      104.300       0.00000
      104.400       0.00000
      104.500       0.00000
      104.600       0.00000
      104.700       0.00000
      104.800       0.00000
      104.900       0.00000
      105.000       0.00000
      105.100       0.00000
      105.200       0.00000
      105.300       0.00000
      105.400       0.00000
      105.500       0.00000
      105.600       0.00000
      105.700       0.00000
      105.800       0.00000
      105.900       0.00000
      106.000       0.00000
      106.100       0.00000
      106.200       0.00000
      106.300       0.00000
      106.400       0.00000
      106.500       0.00000
      106.600       0.00000
      106.700       0.00000
      106.800       0.00000
      106.900       0.00000
      107.000       0.00000
      107.100       0.00000
      107.200       0.00000
      107.300       0.00000
      107.400       0.00000
      107.500       0.00000
      107.600       0.00000
      107.700       0.00000
      107.800       0.00000
      107.900       0.00000
      108.000       0.00000
      108.100       0.00000
      108.200       0.00000
      108.300       0.00000
      108.400       0.00000
      108.500       0.00000
      108.600       0.00000
      108.700       0.00000
      108.800       0.00000
      108.900       0.00000
      109.000       0.00000
      109.100       0.00000
      109.200       0.00000
      109.300       0.00000
      109.400       0.00000
      109.500       0.00000
      109.600       0.00000
      109.700       0.00000
      109.800       0.00000
      109.900       0.00000
      110.000       0.00000
      110.100       0.00000
      110.200       0.00000
      110.300       0.00000
      110.400       0.00000
      110.500       0.00000
      110.600       0.00000
      110.700       0.00000
      110.800       0.00000
      110.900       0.00000
      111.000       0.00000
      111.100       0.00000
      111.200       0.00000
      111.300       0.00000
      111.400       0.00000
      111.500       0.00000
      111.600       0.00000
      111.700       0.00000
      111.800       0.00000
      111.900       0.00000
      112.000       0.00000
      112.100       0.00000
      112.200       0.00000
      112.300       0.00000
      112.400       0.00000
      112.500       0.00000
      112.600       0.00000
      112.700       0.00000
      112.800       0.00000
      112.900       0.00000
      113.000       0.00000
      113.100       0.00000
      113.200       0.00000
      113.300       0.00000
      113.400       0.00000
      113.500       0.00000
      113.600       0.00000
      113.700       0.00000
      113.800       0.00000
      113.900       0.00000
      114.000       0.00000
      114.100       0.00000
      114.200       0.00000
      114.300       0.00000
      114.400       0.00000
      114.500       0.00000
      114.600       0.00000
      114.700       0.00000
      114.800       0.00000
      114.900       0.00000
      115.000       0.00000
      115.100       0.00000
      115.200       0.00000
      115.300       0.00000
      115.400       0.00000
      115.500       0.00000
      115.600       0.00000
      115.700       0.00000
      115.800       0.00000
      115.900       0.00000
      116.000       0.00000
      116.100       0.00000
      116.200       0.00000
      116.300       0.00000
      116.400       0.00000
      116.500       0.00000
      116.600       0.00000
      116.700       0.00000
      116.800       0.00000
      116.900       0.00000
      117.000       0.00000
      117.100       0.00000
      117.200       0.00000
      117.300       0.00000
      117.400       0.00000
      117.500       0.00000
      117.600       0.00000
      117.700       0.00000
      117.800       0.00000
      117.900       0.00000
      118.000       0.00000
      118.100       0.00000
      118.200       0.00000
      118.300       0.00000
      118.400       0.00000
      118.500       0.00000
      118.600       0.00000
      118.700       0.00000
      118.800       0.00000
      118.900       0.00000
      119.000       0.00000
      119.100       0.00000
      119.200       0.00000
      119.300       0.00000
      119.400       0.00000
      119.500       0.00000
      119.600       0.00000
      119.700       0.00000
      119.800       0.00000
      119.900       0.00000
      120.000       0.00000
      120.100       0.00000
      120.200       0.00000
      120.300       0.00000
      120.400       0.00000
      120.500       0.00000
      120.600       0.00000
      120.700       0.00000
      120.800       0.00000
      120.900       0.00000
      121.000       0.00000
      121.100       0.00000
      121.200       0.00000
      121.300       0.00000
      121.400       0.00000
      121.500       0.00000
      121.600       0.00000
      121.700       0.00000
      121.800       0.00000
      121.900       0.00000
      122.000       0.00000
      122.100       0.00000
      122.200       0.00000
      122.300       0.00000
      122.400       0.00000
      122.500       0.00000
      122.600       0.00000
      122.700       0.00000
      122.800       0.00000
      122.900       0.00000
      123.000       0.00000
      123.100       0.00000
      123.200       0.00000
      123.300       0.00000
      123.400       0.00000
      123.500       0.00000
      123.600       0.00000
      123.700       0.00000
      123.800       0.00000
      123.900       0.00000
      124.000       0.00000
      124.100       0.00000
      124.200       0.00000
      124.300       0.00000
      124.400       0.00000
      124.500       0.00000
      124.600       0.00000
      124.700       0.00000
      124.800       0.00000
      124.900       0.00000
      125.000       0.00000
      125.100       0.00000
      125.200       0.00000
      125.300       0.00000
      125.400       0.00000
      125.500       0.00000
      125.600       0.00000
      125.700       0.00000
      125.800       0.00000
      125.900       0.00000
      126.000       0.00000
      126.100       0.00000
      126.200       0.00000
      126.300       0.00000
      126.400       0.00000
      126.500       0.00000
      126.600       0.00000
      126.700       0.00000
      126.800       0.00000
      126.900       0.00000
      127.000       0.00000
      127.100       0.00000
      127.200       0.00000
      127.300       0.00000
      127.400       0.00000
      127.500       0.00000
      127.600       0.00000
      127.700       0.00000
      127.800       0.00000
      127.900       0.00000
      128.000       0.00000
      128.100       0.00000
      128.200       0.00000
      128.300       0.00000
      128.400       0.00000
      128.500       0.00000
      128.600       0.00000
      128.700       0.00000
      128.800       0.00000
      128.900       0.00000
      129.000       0.00000
      129.100       0.00000
      129.200       0.00000
      129.300       0.00000
      129.400       0.00000
      129.500       0.00000
      129.600       0.00000
      129.700       0.00000
      129.800       0.00000
      129.900       0.00000
      130.000       0.00000
      130.100       0.00000
      130.200       0.00000
      130.300       0.00000
      130.400       0.00000
      130.500       0.00000
      130.600       0.00000
      130.700       0.00000
      130.800       0.00000
      130.900       0.00000
      131.000       0.00000
      131.100       0.00000
      131.200       0.00000
      131.300       0.00000
      131.400       0.00000
      131.500       0.00000
      131.600       0.00000
      131.700       0.00000
      131.800       0.00000
      131.900       0.00000
      132.000       0.00000
      132.100       0.00000
      132.200       0.00000
      132.300       0.00000
      132.400       0.00000
      132.500       0.00000
      132.600       0.00000
      132.700       0.00000
      132.800       0.00000
      132.900       0.00000
      133.000       0.00000
      133.100       0.00000
      133.200       0.00000
      133.300       0.00000
      133.400       0.00000
      133.500       0.00000
      133.600       0.00000
      133.700       0.00000
      133.800       0.00000
      133.900       0.00000
      134.000       0.00000
      134.100       0.00000
      134.200       0.00000
      134.300       0.00000
      134.400       0.00000
      134.500       0.00000
      134.600       0.00000
      134.700       0.00000
      134.800       0.00000
      134.900       0.00000
      135.000       0.00000
      135.100       0.00000
      135.200       0.00000
      135.300       0.00000
      135.400       0.00000
      135.500       0.00000
      135.600       0.00000
      135.700       0.00000
      135.800       0.00000
      135.900       0.00000
      136.000       0.00000
      136.100       0.00000
      136.200       0.00000
      136.300       0.00000
      136.400       0.00000
      136.500       0.00000
      136.600       0.00000
      136.700       0.00000
      136.800       0.00000
      136.900       0.00000
      137.000       0.00000
      137.100       0.00000
      137.200       0.00000
      137.300       0.00000
      137.400       0.00000
      137.500       0.00000
      137.600       0.00000
      137.700       0.00000
      137.800       0.00000
      137.900       0.00000
      138.000       0.00000
      138.100       0.00000
      138.200       0.00000
      138.300       0.00000
      138.400       0.00000
      138.500       0.00000
      138.600       0.00000
      138.700       0.00000
      138.800       0.00000
      138.900       0.00000
      139.000       0.00000
      139.100       0.00000
      139.200       0.00000
      139.300       0.00000
      139.400       0.00000
      139.500       0.00000
      139.600       0.00000
      139.700       0.00000
      139.800       0.00000
      139.900       0.00000
      140.000       0.00000
      140.100       0.00000
      140.200       0.00000
      140.300       0.00000
      140.400       0.00000
      140.500       0.00000
      140.600       0.00000
      140.700       0.00000
      140.800       0.00000
      140.900       0.00000
      141.000       0.00000
      141.100       0.00000
      141.200       0.00000
      141.300       0.00000
      141.400       0.00000
      141.500       0.00000
      141.600       0.00000
      141.700       0.00000
      141.800       0.00000
      141.900       0.00000
      142.000       0.00000
      142.100       0.00000
      142.200       0.00000
      142.300       0.00000
      142.400       0.00000
      142.500       0.00000
      142.600       0.00000
      142.700       0.00000
      142.800       0.00000
      142.900       0.00000
      143.000       0.00000
      143.100       0.00000
      143.200       0.00000
      143.300       0.00000
      143.400       0.00000
      143.500       0.00000
      143.600       0.00000
      143.700       0.00000
      143.800       0.00000
      143.900       0.00000
      144.000       0.00000
      144.100       0.00000
      144.200       0.00000
      144.300       0.00000
      144.400       0.00000
      144.500       0.00000
      144.600       0.00000
      144.700       0.00000
      144.800       0.00000
      144.900       0.00000
      145.000       0.00000
      145.100       0.00000
      145.200       0.00000
      145.300       0.00000
      145.400       0.00000
      145.500       0.00000
      145.600       0.00000
      145.700       0.00000
      145.800       0.00000
      145.900       0.00000
      146.000       0.00000
      146.100       0.00000
      146.200       0.00000
      146.300       0.00000
      146.400       0.00000
      146.500       0.00000
      146.600       0.00000
      146.700       0.00000
      146.800       0.00000
      146.900       0.00000
      147.000       0.00000
      147.100       0.00000
      147.200       0.00000
      147.300       0.00000
      147.400       0.00000
      147.500       0.00000
      147.600       0.00000
      147.700       0.00000
      147.800       0.00000
      147.900       0.00000
      148.000       0.00000
      148.100       0.00000
      148.200       0.00000
      148.300       0.00000
      148.400       0.00000
      148.500       0.00000
      148.600       0.00000
      148.700       0.00000
      148.800       0.00000
      148.900       0.00000
      149.000       0.00000
      149.100       0.00000
      149.200       0.00000
      149.300       0.00000
      149.400       0.00000
      149.500       0.00000
      149.600       0.00000
      149.700       0.00000
      149.800       0.00000
      149.900       0.00000
      150.000       0.00000
      150.100       0.00000
      150.200       0.00000
      150.300       0.00000
      150.400       0.00000
      150.500       0.00000
      150.600       0.00000
      150.700       0.00000
      150.800       0.00000
      150.900       0.00000
      151.000       0.00000
      151.100       0.00000
      151.200       0.00000
      151.300       0.00000
      151.400       0.00000
      151.500       0.00000
      151.600       0.00000
      151.700       0.00000
      151.800       0.00000
      151.900       0.00000
      152.000       0.00000
      152.100       0.00000
      152.200       0.00000
      152.300       0.00000
      152.400       0.00000
      152.500       0.00000
      152.600       0.00000
      152.700       0.00000
      152.800       0.00000
      152.900       0.00000
      153.000       0.00000
      153.100       0.00000
      153.200       0.00000
      153.300       0.00000
      153.400       0.00000
      153.500       0.00000
      153.600       0.00000
      153.700       0.00000
      153.800       0.00000
      153.900       0.00000
      154.000       0.00000
      154.100       0.00000
      154.200       0.00000
      154.300       0.00000
      154.400       0.00000
      154.500       0.00000
      154.600       0.00000
      154.700       0.00000
      154.800       0.00000
      154.900       0.00000
      155.000       0.00000
      155.100       0.00000
      155.200       0.00000
      155.300       0.00000
      155.400       0.00000
      155.500       0.00000
      155.600       0.00000
      155.700       0.00000
      155.800       0.00000
      155.900       0.00000
      156.000       0.00000
      156.100       0.00000
      156.200       0.00000
      156.300       0.00000
      156.400       0.00000
      156.500       0.00000
      156.600       0.00000
      156.700       0.00000
      156.800       0.00000
      156.900       0.00000
      157.000       0.00000
      157.100       0.00000
      157.200       0.00000
      157.300       0.00000
      157.400       0.00000
      157.500       0.00000
      157.600       0.00000
      157.700       0.00000
      157.800       0.00000
      157.900       0.00000
      158.000       0.00000
      158.100       0.00000
      158.200       0.00000
      158.300       0.00000
      158.400       0.00000
      158.500       0.00000
      158.600       0.00000
      158.700       0.00000
      158.800       0.00000
      158.900       0.00000
      159.000       0.00000
      159.100       0.00000
      159.200       0.00000
      159.300       0.00000
      159.400       0.00000
      159.500       0.00000
      159.600       0.00000
      159.700       0.00000
      159.800       0.00000
      159.900       0.00000
      160.000       0.00000
      160.100       0.00000
      160.200       0.00000
      160.300       0.00000
      160.400       0.00000
      160.500       0.00000
      160.600       0.00000
      160.700       0.00000
      160.800       0.00000
      160.900       0.00000
      161.000       0.00000
      161.100       0.00000
      161.200       0.00000
      161.300       0.00000
      161.400       0.00000
      161.500       0.00000
      161.600       0.00000
      161.700       0.00000
      161.800       0.00000
      161.900       0.00000
      162.000       0.00000
      162.100       0.00000
      162.200       0.00000
      162.300       0.00000
      162.400       0.00000
      162.500       0.00000
      162.600       0.00000
      162.700       0.00000
      162.800       0.00000
      162.900       0.00000
      163.000       0.00000
      163.100       0.00000
      163.200       0.00000
      163.300       0.00000
      163.400       0.00000
      163.500       0.00000
      163.600       0.00000
      163.700       0.00000
      163.800       0.00000
      163.900       0.00000
      164.000       0.00000
      164.100       0.00000
      164.200       0.00000
      164.300       0.00000
      164.400       0.00000
      164.500       0.00000
      164.600       0.00000
      164.700       0.00000
      164.800       0.00000
      164.900       0.00000
      165.000       0.00000
      165.100       0.00000
      165.200       0.00000
      165.300       0.00000
      165.400       0.00000
      165.500       0.00000
      165.600       0.00000
      165.700       0.00000
      165.800       0.00000
      165.900       0.00000
      166.000       0.00000
      166.100       0.00000
      166.200       0.00000
      166.300       0.00000
      166.400       0.00000
      166.500       0.00000
      166.600       0.00000
      166.700       0.00000
      166.800       0.00000
      166.900       0.00000
      167.000       0.00000
      167.100       0.00000
      167.200       0.00000
      167.300       0.00000
      167.400       0.00000
      167.500       0.00000
      167.600       0.00000
      167.700       0.00000
      167.800       0.00000
      167.900       0.00000
      168.000       0.00000
      168.100       0.00000
      168.200       0.00000
      168.300       0.00000
      168.400       0.00000
      168.500       0.00000
      168.600       0.00000
      168.700       0.00000
      168.800       0.00000
      168.900       0.00000
      169.000       0.00000
      169.100       0.00000
      169.200       0.00000
      169.300       0.00000
      169.400       0.00000
      169.500       0.00000
      169.600       0.00000
      169.700       0.00000
      169.800       0.00000
      169.900       0.00000
      170.000       0.00000
      170.100       0.00000
      170.200       0.00000
      170.300       0.00000
      170.400       0.00000
      170.500       0.00000
      170.600   1.00773e-39
      170.700   1.25426e-24
      170.800   1.68086e-20
      170.900   2.79410e-20
      171.000   2.85799e-20
      171.100   2.92308e-20
      171.200   2.98936e-20
      171.300   3.05693e-20
      171.400   3.12569e-20
      171.500   3.19569e-20
      171.600   3.26698e-20
      171.700   3.33964e-20
      171.800   3.41367e-20
      171.900   3.48906e-20
      172.000   3.56594e-20
      172.100   3.64444e-20
      172.200   3.72447e-20
      172.300   3.80600e-20
      172.400   3.88852e-20
      172.500   3.97256e-20
      172.600   4.05844e-20
      172.700   4.14606e-20
      172.800   4.23546e-20
      172.900   4.32686e-20
      173.000   4.42005e-20
      173.100   4.51518e-20
      173.200   4.61231e-20
      173.300   4.71148e-20
      173.400   4.81284e-20
      173.500   4.91623e-20
      173.600   5.02181e-20
      173.700   5.12956e-20
      173.800   5.23971e-20
      173.900   5.35195e-20
      174.000   5.46656e-20
      174.100   5.58374e-20
      174.200   5.70315e-20
      174.300   5.82489e-20
      174.400   5.94925e-20
      174.500   6.07603e-20
      174.600   6.20551e-20
      174.700   6.33754e-20
      174.800   6.47209e-20
      174.900   6.60937e-20
      175.000   6.74947e-20
      175.100   6.89208e-20
      175.200   7.03794e-20
      175.300   7.18644e-20
      175.400   7.33805e-20
      175.500   7.49252e-20
      175.600   7.64985e-20
      175.700   7.81032e-20
      175.800   7.97408e-20
      175.900   8.14085e-20
      176.000   8.31070e-20
      176.100   8.48391e-20
      176.200   8.66044e-20
      176.300   8.84052e-20
      176.400   9.02389e-20
      176.500   9.21073e-20
      176.600   9.40137e-20
      176.700   9.59550e-20
      176.800   9.79321e-20
      176.900   9.99466e-20
      177.000   1.02001e-19
      177.100   1.04095e-19
      177.200   1.06226e-19
      177.300   1.08396e-19
      177.400   1.10609e-19
      177.500   1.12863e-19
      177.600   1.15158e-19
      177.700   1.17494e-19
      177.800   1.19873e-19
      177.900   1.22298e-19
      178.000   1.24775e-19
      178.100   1.27296e-19
      178.200   1.29864e-19
      178.300   1.32481e-19
      178.400   1.35143e-19
      178.500   1.37853e-19
      178.600   1.40613e-19
      178.700   1.43426e-19
      178.800   1.46288e-19
      178.900   1.49199e-19
      179.000   1.52162e-19
      179.100   1.55180e-19
      179.200   1.58256e-19
      179.300   1.61384e-19
      179.400   1.64568e-19
      179.500   1.67811e-19
      179.600   1.71120e-19
      179.700   1.74483e-19
      179.800   1.77908e-19
      179.900   1.81395e-19
      180.000   1.84952e-19
      180.100   1.88568e-19
      180.200   1.92252e-19
      180.300   1.96002e-19
      180.400   1.99826e-19
      180.500   2.03720e-19
      180.600   2.07682e-19
      180.700   2.11717e-19
      180.800   2.15867e-19
      180.900   2.20164e-19
      181.000   2.24574e-19
      181.100   2.29062e-19
      181.200   2.33641e-19
      181.300   2.38312e-19
      181.400   2.43066e-19
      181.500   2.47908e-19
      181.600   2.52846e-19
      181.700   2.57881e-19
      181.800   2.63005e-19
      181.900   2.68227e-19
      182.000   2.73551e-19
      182.100   2.78970e-19
      182.200   2.84506e-19
      182.300   2.90137e-19
      182.400   2.95872e-19
      182.500   3.01715e-19
      182.600   3.07675e-19
      182.700   3.13737e-19
      182.800   3.19906e-19
      182.900   3.26196e-19
      183.000   3.32600e-19
      183.100   3.39119e-19
      183.200   3.45755e-19
      183.300   3.52515e-19
      183.400   3.59400e-19
      183.500   3.66405e-19
      183.600   3.73536e-19
      183.700   3.81029e-19
      183.800   3.89662e-19
      183.900   3.99098e-19
      184.000   4.08734e-19
      184.100   4.18607e-19
      184.200   4.28702e-19
      184.300   4.39038e-19
      184.400   4.49603e-19
      184.500   4.60399e-19
      184.600   4.71439e-19
      184.700   4.82736e-19
      184.800   4.94284e-19
      184.900   5.06084e-19
      185.000   5.18146e-19
      185.100   5.30486e-19
      185.200   5.43105e-19
      185.300   5.55989e-19
      185.400   5.69160e-19
      185.500   5.82617e-19
      185.600   5.96376e-19
      185.700   6.10454e-19
      185.800   6.24845e-19
      185.900   6.39544e-19
      186.000   6.54592e-19
      186.100   6.69951e-19
      186.200   6.85632e-19
      186.300   7.01653e-19
      186.400   7.18029e-19
      186.500   7.34761e-19
      186.600   7.51837e-19
      186.700   7.69263e-19
      186.800   7.87058e-19
      186.900   8.05242e-19
      187.000   8.23810e-19
      187.100   8.42743e-19
      187.200   8.62089e-19
      187.300   8.81878e-19
      187.400   9.02074e-19
      187.500   9.22682e-19
      187.600   9.43715e-19
      187.700   9.65183e-19
      187.800   9.87116e-19
      187.900   1.00950e-18
      188.000   1.03232e-18
      188.100   1.05562e-18
      188.200   1.07940e-18
      188.300   1.10368e-18
      188.400   1.12847e-18
      188.500   1.15375e-18
      188.600   1.17957e-18
      188.700   1.20598e-18
      188.800   1.23291e-18
      188.900   1.26039e-18
      189.000   1.28843e-18
      189.100   1.31708e-18
      189.200   1.34631e-18
      189.300   1.37613e-18
      189.400   1.40655e-18
      189.500   1.43762e-18
      189.600   1.46936e-18
      189.700   1.50171e-18
      189.800   1.53487e-18
      189.900   1.56878e-18
      190.000   1.60345e-18
      190.100   1.63879e-18
      190.200   1.67488e-18
      190.300   1.71169e-18
      190.400   1.74930e-18
      190.500   1.78767e-18
      190.600   1.82682e-18
      190.700   1.86677e-18
      190.800   1.90753e-18
      190.900   1.94913e-18
      191.000   1.99168e-18
      191.100   2.03510e-18
      191.200   2.07941e-18
      191.300   2.12462e-18
      191.400   2.17076e-18
      191.500   2.21785e-18
      191.600   2.26586e-18
      191.700   2.31484e-18
      191.800   2.36486e-18
      191.900   2.41584e-18
      192.000   2.46781e-18
      192.100   2.52091e-18
      192.200   2.57514e-18
      192.300   2.63044e-18
      192.400   2.68691e-18
      192.500   2.74449e-18
      192.600   2.80317e-18
      192.700   2.86302e-18
      192.800   2.92163e-18
      192.900   2.97515e-18
      193.000   3.02894e-18
      193.100   3.08369e-18
      193.200   3.13950e-18
      193.300   3.19619e-18
      193.400   3.25380e-18
      193.500   3.31240e-18
      193.600   3.37201e-18
      193.700   3.43263e-18
      193.800   3.49423e-18
      193.900   3.55680e-18
      194.000   3.62047e-18
      194.100   3.68538e-18
      194.200   3.75130e-18
      194.300   3.81834e-18
      194.400   3.88649e-18
      194.500   3.95583e-18
      194.600   4.02632e-18
      194.700   4.09789e-18
      194.800   4.17062e-18
      194.900   4.24460e-18
      195.000   4.31981e-18
      195.100   4.39649e-18
      195.200   4.47429e-18
      195.300   4.55334e-18
      195.400   4.63368e-18
      195.500   4.71536e-18
      195.600   4.79835e-18
      195.700   4.88258e-18
      195.800   4.96747e-18
      195.900   5.04856e-18
      196.000   4.95301e-18
      196.100   4.85698e-18
      196.200   4.76276e-18
      196.300   4.67032e-18
      196.400   4.57962e-18
      196.500   4.49060e-18
      196.600   4.40326e-18
      196.700   4.31756e-18
      196.800   4.23353e-18
      196.900   4.15121e-18
      197.000   4.07042e-18
      197.100   3.99112e-18
      197.200   3.91332e-18
      197.300   3.83696e-18
      197.400   3.76200e-18
      197.500   3.68843e-18
      197.600   3.61626e-18
      197.700   3.54561e-18
      197.800   3.47633e-18
      197.900   3.40831e-18
      198.000   3.34156e-18
      198.100   3.27607e-18
      198.200   3.21180e-18
      198.300   3.14875e-18
      198.400   3.08689e-18
      198.500   3.02633e-18
      198.600   2.96695e-18
      198.700   2.90869e-18
      198.800   2.85155e-18
      198.900   2.79551e-18
      199.000   2.74050e-18
      199.100   2.68655e-18
      199.200   2.63365e-18
      199.300   2.58188e-18
      199.400   2.53115e-18
      199.500   2.48139e-18
      199.600   2.43257e-18
      199.700   2.38469e-18
      199.800   2.33773e-18
      199.900   2.29168e-18
      200.000   2.24650e-18
      200.100   2.20241e-18
      200.200   2.15908e-18
      200.300   2.11662e-18
      200.400   2.07498e-18
      200.500   2.03414e-18
      200.600   1.99412e-18
      200.700   1.95487e-18
      200.800   1.91636e-18
      200.900   1.87865e-18
      201.000   1.84168e-18
      201.100   1.80546e-18
      201.200   1.76996e-18
      201.300   1.73514e-18
      201.400   1.70102e-18
      201.500   1.66755e-18
      201.600   1.63474e-18
      201.700   1.60257e-18
      201.800   1.57104e-18
      201.900   1.54013e-18
      202.000   1.50987e-18
      202.100   1.48020e-18
      202.200   1.45111e-18
      202.300   1.42268e-18
      202.400   1.39500e-18
      202.500   1.36789e-18
      202.600   1.34130e-18
      202.700   1.31525e-18
      202.800   1.28972e-18
      202.900   1.26470e-18
      203.000   1.24017e-18
      203.100   1.21613e-18
      203.200   1.19255e-18
      203.300   1.16943e-18
      203.400   1.14676e-18
      203.500   1.12453e-18
      203.600   1.10274e-18
      203.700   1.08138e-18
      203.800   1.06045e-18
      203.900   1.03996e-18
      204.000   1.01986e-18
      204.100   1.00015e-18
      204.200   9.80838e-19
      204.300   9.61901e-19
      204.400   9.43334e-19
      204.500   9.25133e-19
      204.600   9.07284e-19
      204.700   8.89785e-19
      204.800   8.72650e-19
      204.900   8.55859e-19
      205.000   8.39396e-19
      205.100   8.23255e-19
      205.200   8.07427e-19
      205.300   7.91912e-19
      205.400   7.76699e-19
      205.500   7.61782e-19
      205.600   7.45856e-19
      205.700   7.29083e-19
      205.800   7.12518e-19
      205.900   6.96345e-19
      206.000   6.80555e-19
      206.100   6.65119e-19
      206.200   6.50028e-19
      206.300   6.35286e-19
      206.400   6.20877e-19
      206.500   6.06786e-19
      206.600   5.93016e-19
      206.700   5.79560e-19
      206.800   5.66399e-19
      206.900   5.53536e-19
      207.000   5.40965e-19
      207.100   5.28688e-19
      207.200   5.16693e-19
      207.300   5.04962e-19
      207.400   4.93494e-19
      207.500   4.82279e-19
      207.600   4.71318e-19
      207.700   4.60600e-19
      207.800   4.50119e-19
      207.900   4.39871e-19
      208.000   4.29854e-19
      208.100   4.20061e-19
      208.200   4.10484e-19
      208.300   4.01124e-19
      208.400   3.91982e-19
      208.500   3.83045e-19
      208.600   3.74303e-19
      208.700   3.65757e-19
      208.800   3.57403e-19
      208.900   3.48229e-19
      209.000   3.37507e-19
      209.100   3.26684e-19
      209.200   3.16200e-19
      209.300   3.06043e-19
      209.400   2.96210e-19
      209.500   2.86685e-19
      209.600   2.77460e-19
      209.700   2.68533e-19
      209.800   2.59901e-19
      209.900   2.51536e-19
      210.000   2.43439e-19
      210.100   2.35598e-19
      210.200   2.28004e-19
      210.300   2.20651e-19
      210.400   2.13531e-19
      210.500   2.06637e-19
      210.600   1.99962e-19
      210.700   1.93499e-19
      210.800   1.87242e-19
      210.900   1.81183e-19
      211.000   1.75316e-19
      211.100   1.69640e-19
      211.200   1.64141e-19
      211.300   1.58828e-19
      211.400   1.53687e-19
      211.500   1.48707e-19
      211.600   1.43888e-19
      211.700   1.39223e-19
      211.800   1.34705e-19
      211.900   1.30331e-19
      212.000   1.26100e-19
      212.100   1.22003e-19
      212.200   1.18037e-19
      212.300   1.14198e-19
      212.400   1.10482e-19
      212.500   1.06885e-19
      212.600   1.03405e-19
      212.700   1.00036e-19
      212.800   9.67749e-20
      212.900   9.36197e-20
      213.000   9.05665e-20
      213.100   8.76152e-20
      213.200   8.47591e-20
      213.300   8.19944e-20
      213.400   7.93191e-20
      213.500   7.67299e-20
      213.600   7.42240e-20
      213.700   7.17999e-20
      213.800   6.94532e-20
      213.900   6.71836e-20
      214.000   6.49865e-20
      214.100   6.28608e-20
      214.200   6.08047e-20
      214.300   5.88146e-20
      214.400   5.68889e-20
      214.500   5.50260e-20
      214.600   5.32242e-20
      214.700   5.14805e-20
      214.800   4.97937e-20
      214.900   4.81623e-20
      215.000   4.65833e-20
      215.100   4.50567e-20
      215.200   4.35807e-20
      215.300   4.21538e-20
      215.400   4.07728e-20
      215.500   3.94371e-20
      215.600   3.81459e-20
      215.700   3.68959e-20
      215.800   3.56868e-20
      215.900   3.45179e-20
      216.000   3.33869e-20
      216.100   3.22927e-20
      216.200   3.12346e-20
      216.300   3.02111e-20
      216.400   2.92214e-20
      216.500   2.82637e-20
      216.600   2.73376e-20
      216.700   2.64420e-20
      216.800   2.55755e-20
      216.900   2.47375e-20
      217.000   2.39270e-20
      217.100   2.31429e-20
      217.200   2.23847e-20
      217.300   2.16512e-20
      217.400   2.09416e-20
      217.500   2.02556e-20
      217.600   1.95919e-20
      217.700   1.89496e-20
      217.800   1.83286e-20
      217.900   1.77281e-20
      218.000   1.71476e-20
      218.100   1.65859e-20
      218.200   1.60427e-20
      218.300   1.55173e-20
      218.400   1.50091e-20
      218.500   1.45172e-20
      218.600   1.40416e-20
      218.700   1.35814e-20
      218.800   1.31361e-20
      218.900   1.27056e-20
      219.000   1.22890e-20
      219.100   1.18858e-20
      219.200   1.14959e-20
      219.300   1.11186e-20
      219.400   1.07535e-20
      219.500   1.04004e-20
      219.600   1.00587e-20
      219.700   9.72826e-21
      219.800   9.40860e-21
      219.900   9.09928e-21
      220.000   8.79998e-21
      220.100   8.51047e-21
      220.200   8.23036e-21
      220.300   7.95941e-21
      220.400   7.69728e-21
      220.500   7.44377e-21
      220.600   7.19851e-21
      220.700   6.96117e-21
      220.800   6.73152e-21
      220.900   6.50951e-21
      221.000   6.29465e-21
      221.100   6.08676e-21
      221.200   5.88576e-21
      221.300   5.69131e-21
      221.400   5.50319e-21
      221.500   5.32125e-21
      221.600   5.14525e-21
      221.700   4.97498e-21
      221.800   4.81023e-21
      221.900   4.65093e-21
      222.000   4.49688e-21
      222.100   4.34779e-21
      222.200   4.20368e-21
      222.300   4.06422e-21
      222.400   3.92938e-21
      222.500   3.79891e-21
      222.600   3.67278e-21
      222.700   3.55075e-21
      222.800   3.43273e-21
      222.900   3.31860e-21
      223.000   3.20821e-21
      223.100   3.10144e-21
      223.200   2.99820e-21
      223.300   2.89834e-21
      223.400   2.80179e-21
      223.500   2.70837e-21
      223.600   2.61808e-21
      223.700   2.53074e-21
      223.800   2.44625e-21
      223.900   2.36463e-21
      224.000   2.28564e-21
      224.100   2.20926e-21
      224.200   2.13540e-21
      224.300   2.06399e-21
      224.400   1.99492e-21
      224.500   1.92815e-21
      224.600   1.86356e-21
      224.700   1.80115e-21
      224.800   1.74079e-21
      224.900   1.68241e-21
      225.000   1.62598e-21
      225.100   1.57140e-21
      225.200   1.51863e-21
      225.300   1.46764e-21
      225.400   1.41831e-21
      225.500   1.37062e-21
      225.600   1.32451e-21
      225.700   1.27995e-21
      225.800   1.23685e-21
      225.900   1.19520e-21
      226.000   1.15493e-21
      226.100   1.11600e-21
      226.200   1.07837e-21
      226.300   1.04207e-21
      226.400   1.00701e-21
      226.500   9.73095e-22
      226.600   9.40287e-22
      226.700   9.08573e-22
      226.800   8.77895e-22
      226.900   8.48240e-22
      227.000   8.19580e-22
      227.100   7.91868e-22
      227.200   7.65092e-22
      227.300   7.39213e-22
      227.400   7.14199e-22
      227.500   6.90025e-22
      227.600   6.66660e-22
      227.700   6.44081e-22
      227.800   6.22261e-22
      227.900   6.01178e-22
      228.000   5.80804e-22
      228.100   5.61114e-22
      228.200   5.42084e-22
      228.300   5.23698e-22
      228.400   5.05938e-22
      228.500   4.88770e-22
      228.600   4.72184e-22
      228.700   4.56158e-22
      228.800   4.40671e-22
      228.900   4.25716e-22
      229.000   4.11260e-22
      229.100   3.97296e-22
      229.200   3.83803e-22
      229.300   3.70768e-22
      229.400   3.58175e-22
      229.500   3.46010e-22
      229.600   3.34253e-22
      229.700   3.22898e-22
      229.800   3.11926e-22
      229.900   3.01328e-22
      230.000   2.90976e-22
      230.100   2.80183e-22
      230.200   2.69762e-22
      230.300   2.59733e-22
      230.400   2.50073e-22
      230.500   2.40773e-22
      230.600   2.31824e-22
      230.700   2.23204e-22
      230.800   2.14906e-22
      230.900   2.06916e-22
      231.000   1.99221e-22
      231.100   1.91810e-22
      231.200   1.84675e-22
      231.300   1.77805e-22
      231.400   1.71192e-22
      231.500   1.64820e-22
      231.600   1.58684e-22
      231.700   1.52777e-22
      231.800   1.47090e-22
      231.900   1.41612e-22
      232.000   1.36338e-22
      232.100   1.31258e-22
      232.200   1.26367e-22
      232.300   1.21659e-22
      232.400   1.17124e-22
      232.500   1.12756e-22
      232.600   1.08551e-22
      232.700   1.04502e-22
      232.800   1.00603e-22
      232.900   9.68478e-23
      233.000   9.32323e-23
      233.100   8.97517e-23
      233.200   8.63991e-23
      233.300   8.31719e-23
      233.400   8.00644e-23
      233.500   7.70745e-23
      233.600   7.41972e-23
      233.700   7.14252e-23
      233.800   6.84224e-23
      233.900   6.55017e-23
      234.000   6.27029e-23
      234.100   6.00232e-23
      234.200   5.74574e-23
      234.300   5.50000e-23
      234.400   5.26465e-23
      234.500   5.03928e-23
      234.600   4.82342e-23
      234.700   4.61676e-23
      234.800   4.41891e-23
      234.900   4.22939e-23
      235.000   4.04788e-23
      235.100   3.87411e-23
      235.200   3.70773e-23
      235.300   3.54841e-23
      235.400   3.39586e-23
      235.500   3.24979e-23
      235.600   3.10998e-23
      235.700   2.97613e-23
      235.800   2.84822e-23
      235.900   2.72574e-23
      236.000   2.60849e-23
      236.100   2.49620e-23
      236.200   2.38869e-23
      236.300   2.28575e-23
      236.400   2.18722e-23
      236.500   2.09288e-23
      236.600   2.00255e-23
      236.700   1.91607e-23
      236.800   1.83328e-23
      236.900   1.75402e-23
      237.000   1.67814e-23
      237.100   1.60550e-23
      237.200   1.53597e-23
      237.300   1.46941e-23
      237.400   1.40570e-23
      237.500   1.34469e-23
      237.600   1.28634e-23
      237.700   1.23058e-23
      237.800   1.17721e-23
      237.900   1.12612e-23
      238.000   1.07723e-23
      238.100   1.03042e-23
      238.200   9.85609e-24
      238.300   9.42723e-24
      238.400   9.01673e-24
      238.500   8.62375e-24
      238.600   8.24771e-24
      238.700   7.88789e-24
      238.800   7.54344e-24
      238.900   7.21381e-24
      239.000   6.89829e-24
      239.100   6.59639e-24
      239.200   6.30755e-24
      239.300   6.03155e-24
      239.400   5.76782e-24
      239.500   5.51541e-24
      239.600   5.27381e-24
      239.700   5.04276e-24
      239.800   4.82158e-24
      239.900   4.60994e-24
      240.000   4.40744e-24
      240.100   4.21364e-24
      240.200   4.02822e-24
      240.300   3.85083e-24
      240.400   3.68107e-24
      240.500   3.51875e-24
      240.600   3.36345e-24
      240.700   3.21487e-24
      240.800   3.07297e-24
      240.900   2.93743e-24
      241.000   2.80779e-24
      241.100   2.68376e-24
      241.200   2.56514e-24
      241.300   2.45164e-24
      241.400   2.34311e-24
      241.500   2.23929e-24
      241.600   2.14000e-24
      241.700   2.04503e-24
      241.800   1.95419e-24
      241.900   1.86731e-24
      242.000   1.78424e-24
      242.100   1.70481e-24
      242.200   1.62902e-24
      242.300   1.55667e-24
      242.400   1.48745e-24
      242.500   1.42126e-24
      242.600   1.35798e-24
      242.700   1.29745e-24
      242.800   1.23960e-24
      242.900   1.18428e-24
      243.000   1.13139e-24
      243.100   1.08082e-24
      243.200   1.03246e-24
      243.300   9.86240e-25
      243.400   9.42073e-25
      243.500   8.99926e-25
      243.600   8.59726e-25
      243.700   8.21275e-25
      243.800   7.84520e-25
      243.900   7.49399e-25
      244.000   7.15814e-25
      244.100   6.83715e-25
      244.200   6.53036e-25
      244.300   6.23703e-25
      244.400   5.95674e-25
      244.500   5.68886e-25
      244.600   5.43281e-25
      244.700   5.18852e-25
      244.800   4.95569e-25
      244.900   4.73318e-25
      245.000   4.52042e-25
      245.100   4.31711e-25
      245.200   4.12289e-25
      245.300   3.93726e-25
      245.400   3.75981e-25
      245.500   3.59032e-25
      245.600   3.42832e-25
      245.700   3.27348e-25
      245.800   3.12553e-25
      245.900   2.98467e-25
      246.000   2.85026e-25
      246.100   2.72177e-25
      246.200   2.59901e-25
      246.300   2.48167e-25
      246.400   2.36960e-25
      246.500   2.26249e-25
      246.600   2.16014e-25
      246.700   2.06237e-25
      246.800   1.96892e-25
      246.900   1.87966e-25
      247.000   1.79466e-25
      247.100   1.71357e-25
      247.200   1.63609e-25
      247.300   1.56208e-25
      247.400   1.49135e-25
      247.500   1.42377e-25
      247.600   1.35920e-25
      247.700   1.29752e-25
      247.800   1.23859e-25
      247.900   1.18229e-25
      248.000   1.12851e-25
      248.100   1.07743e-25
      248.200   1.02861e-25
      248.300   9.81960e-26
      248.400   9.37392e-26
      248.500   8.94804e-26
      248.600   8.54123e-26
      248.700   8.15268e-26
      248.800   7.78145e-26
      248.900   7.42688e-26
      249.000   7.08821e-26
      249.100   6.76613e-26
      249.200   6.45881e-26
      249.300   6.16508e-26
      249.400   5.88449e-26
      249.500   5.61650e-26
      249.600   5.36044e-26
      249.700   5.11586e-26
      249.800   4.88225e-26
      249.900   4.65911e-26
      250.000   4.44601e-26
      250.100   4.24315e-26
      250.200   4.04968e-26
      250.300   3.86507e-26
      250.400   3.68870e-26
      250.500   3.52030e-26
      250.600   3.35950e-26
      250.700   3.20593e-26
      250.800   3.05930e-26
      250.900   2.91928e-26
      251.000   2.78559e-26
      251.100   2.65793e-26
      251.200   2.53625e-26
      251.300   2.42031e-26
      251.400   2.30963e-26
      251.500   2.20389e-26
      251.600   2.10294e-26
      251.700   2.00661e-26
      251.800   1.91461e-26
      251.900   1.82677e-26
      252.000   1.74289e-26
      252.100   1.66285e-26
      252.200   1.58642e-26
      252.300   1.51357e-26
      252.400   1.44412e-26
      252.500   1.37787e-26
      252.600   1.31459e-26
      252.700   1.25419e-26
      252.800   1.19654e-26
      252.900   1.14150e-26
      253.000   1.08896e-26
      253.100   1.03881e-26
      253.200   9.90945e-27
      253.300   9.45440e-27
      253.400   9.02080e-27
      253.500   8.60744e-27
      253.600   8.21352e-27
      253.700   7.83730e-27
      253.800   7.47819e-27
      253.900   7.13537e-27
      254.000   6.80801e-27
      254.100   6.49541e-27
      254.200   6.19700e-27
      254.300   5.91216e-27
      254.400   5.64017e-27
      254.500   5.38054e-27
      254.600   5.13271e-27
      254.700   4.89619e-27
      254.800   4.67101e-27
      254.900   4.45608e-27
      255.000   4.25096e-27
      255.100   4.05504e-27
      255.200   3.86805e-27
      255.300   3.68961e-27
      255.400   3.51926e-27
      255.500   3.35668e-27
      255.600   3.20153e-27
      255.700   3.05344e-27
      255.800   2.91208e-27
      255.900   2.77716e-27
      256.000   2.64840e-27
      256.100   2.52569e-27
      256.200   2.40875e-27
      256.300   2.29716e-27
      256.400   2.19072e-27
      256.500   2.08906e-27
      256.600   1.99210e-27
      256.700   1.89958e-27
      256.800   1.81128e-27
      256.900   1.72701e-27
      257.000   1.64663e-27
      257.100   1.56993e-27
      257.200   1.49677e-27
      257.300   1.42695e-27
      257.400   1.36979e-27
      257.500   1.31829e-27
      257.600   1.26893e-27
      257.700   1.22143e-27
      257.800   1.17567e-27
      257.900   1.13162e-27
      258.000   1.08919e-27
      258.100   1.04832e-27
      258.200   1.00898e-27
      258.300   9.71102e-28
      258.400   9.34606e-28
      258.500   8.99462e-28
      258.600   8.65636e-28
      258.700   8.33062e-28
      258.800   8.01692e-28
      258.900   7.71507e-28
      259.000   7.42421e-28
      259.100   7.14429e-28
      259.200   6.87495e-28
      259.300   6.61604e-28
      259.400   6.36672e-28
      259.500   6.12657e-28
      259.600   5.89545e-28
      259.700   5.67297e-28
      259.800   5.45872e-28
      259.900   5.25240e-28
      260.000   5.05390e-28
      260.100   4.86280e-28
      260.200   4.67882e-28
      260.300   4.50172e-28
      260.400   4.33128e-28
      260.500   4.16725e-28
      260.600   4.00931e-28
      260.700   3.85727e-28
      260.800   3.71106e-28
      260.900   3.57021e-28
      261.000   3.43479e-28
      261.100   3.30457e-28
      261.200   3.17924e-28
      261.300   3.05860e-28
      261.400   2.94254e-28
      261.500   2.84314e-28
      261.600   2.78706e-28
      261.700   2.73900e-28
      261.800   2.69180e-28
      261.900   2.64537e-28
      262.000   2.59975e-28
      262.100   2.55491e-28
      262.200   2.51086e-28
      262.300   2.46755e-28
      262.400   2.42498e-28
      262.500   2.38316e-28
      262.600   2.34204e-28
      262.700   2.30164e-28
      262.800   2.26193e-28
      262.900   2.22287e-28
      263.000   2.18456e-28
      263.100   2.14687e-28
      263.200   2.10984e-28
      263.300   2.07347e-28
      263.400   2.03771e-28
      263.500   2.00257e-28
      263.600   1.96807e-28
      263.700   1.93413e-28
      263.800   1.90078e-28
      263.900   1.86803e-28
      264.000   1.83584e-28
      264.100   1.80420e-28
      264.200   1.77310e-28
      264.300   1.74256e-28
      264.400   1.71255e-28
      264.500   1.68305e-28
      264.600   1.65405e-28
      264.700   1.62557e-28
      264.800   1.59758e-28
      264.900   1.57009e-28
      265.000   1.54306e-28
      265.100   1.51650e-28
      265.200   1.49040e-28
      265.300   1.46476e-28
      265.400   1.43958e-28
      265.500   1.41482e-28
      265.600   1.39050e-28
      265.700   1.36659e-28
      265.800   1.34314e-28
      265.900   1.32008e-28
      266.000   1.29744e-28
      266.100   1.27521e-28
      266.200   1.25335e-28
      266.300   1.23187e-28
      266.400   1.21076e-28
      266.500   1.19002e-28
      266.600   1.16965e-28
      266.700   1.14961e-28
      266.800   1.12996e-28
      266.900   1.11063e-28
      267.000   1.09163e-28
      267.100   1.07298e-28
      267.200   1.05466e-28
      267.300   1.03665e-28
      267.400   1.01894e-28
      267.500   1.00155e-28
      267.600   9.84462e-29
      267.700   9.67670e-29
      267.800   9.51168e-29
      267.900   9.34958e-29
      268.000   9.19036e-29
      268.100   9.03391e-29
      268.200   8.88017e-29
      268.300   8.72915e-29
      268.400   8.58065e-29
      268.500   8.43480e-29
      268.600   8.29144e-29
      268.700   8.15071e-29
      268.800   8.01230e-29
      268.900   7.87635e-29
      269.000   7.74280e-29
      269.100   7.61151e-29
      269.200   7.48257e-29
      269.300   7.35585e-29
      269.400   7.23131e-29
      269.500   7.10886e-29
      269.600   6.98871e-29
      269.700   6.87048e-29
      269.800   6.75444e-29
      269.900   6.64029e-29
      270.000   6.52828e-29
      270.100   6.41811e-29
      270.200   6.31002e-29
      270.300   6.20371e-29
      270.400   6.09922e-29
      270.500   5.99657e-29
      270.600   5.89566e-29
      270.700   5.79653e-29
      270.800   5.69914e-29
      270.900   5.60336e-29
      271.000   5.50923e-29
      271.100   5.41669e-29
      271.200   5.32574e-29
      271.300   5.23643e-29
      271.400   5.14857e-29
      271.500   5.06232e-29
      271.600   4.97742e-29
      271.700   4.89403e-29
      271.800   4.81204e-29
      271.900   4.73149e-29
      272.000   4.65231e-29
      272.100   4.57445e-29
      272.200   4.49790e-29
      272.300   4.42265e-29
      272.400   4.34868e-29
      272.500   4.27599e-29
      272.600   4.20451e-29
      272.700   4.13426e-29
      272.800   4.06517e-29
      272.900   3.99725e-29
      273.000   3.93051e-29
      273.100   3.86489e-29
      273.200   3.80037e-29
      273.300   3.73694e-29
      273.400   3.67456e-29
      273.500   3.61324e-29
      273.600   3.55295e-29
      273.700   3.49364e-29
      273.800   3.43534e-29
      273.900   3.37806e-29
      274.000   3.32171e-29
      274.100   3.26632e-29
      274.200   3.21184e-29
      274.300   3.15828e-29
      274.400   3.10530e-29
      274.500   3.05259e-29
      274.600   3.00064e-29
      274.700   2.94958e-29
      274.800   2.89939e-29
      274.900   2.85004e-29
      275.000   2.80151e-29
      275.100   2.75382e-29
      275.200   2.70692e-29
      275.300   2.66081e-29
      275.400   2.61552e-29
      275.500   2.57099e-29
      275.600   2.52718e-29
      275.700   2.48412e-29
      275.800   2.44180e-29
      275.900   2.40020e-29
      276.000   2.35931e-29
      276.100   2.31909e-29
      276.200   2.27953e-29
      276.300   2.24066e-29
      276.400   2.20244e-29
      276.500   2.16488e-29
      276.600   2.12795e-29
      276.700   2.09162e-29
      276.800   2.05593e-29
      276.900   2.02081e-29
      277.000   1.98631e-29
      277.100   1.95237e-29
      277.200   1.91901e-29
      277.300   1.88622e-29
      277.400   1.85398e-29
      277.500   1.82226e-29
      277.600   1.79111e-29
      277.700   1.76046e-29
      277.800   1.73030e-29
      277.900   1.70069e-29
      278.000   1.67158e-29
      278.100   1.64296e-29
      278.200   1.61481e-29
      278.300   1.58713e-29
      278.400   1.55993e-29
      278.500   1.53317e-29
      278.600   1.50686e-29
      278.700   1.48101e-29
      278.800   1.45561e-29
      278.900   1.43057e-29
      279.000   1.40596e-29
      279.100   1.38177e-29
      279.200   1.35797e-29
      279.300   1.33459e-29
      279.400   1.31159e-29
      279.500   1.28898e-29
      279.600   1.26677e-29
      279.700   1.24493e-29
      279.800   1.22346e-29
      279.900   1.20234e-29
      280.000   1.18159e-29
      280.100   1.16119e-29
      280.200   1.14113e-29
      280.300   1.12141e-29
      280.400   1.10203e-29
      280.500   1.08300e-29
      280.600   1.06427e-29
      280.700   1.04586e-29
      280.800   1.02776e-29
      280.900   1.00997e-29
      281.000   9.92482e-30
      281.100   9.75289e-30
      281.200   9.58392e-30
      281.300   9.41787e-30
      281.400   9.25470e-30
      281.500   9.09419e-30
      281.600   8.93634e-30
      281.700   8.78129e-30
      281.800   8.62893e-30
      281.900   8.47913e-30
      282.000   8.33192e-30
      282.100   8.18716e-30
      282.200   8.04500e-30
      282.300   7.90516e-30
      282.400   7.76775e-30
      282.500   7.63264e-30
      282.600   7.49988e-30
      282.700   7.36934e-30
      282.800   7.24111e-30
      282.900   7.11516e-30
      283.000   6.99129e-30
      283.100   6.86958e-30
      283.200   6.75005e-30
      283.300   6.63248e-30
      283.400   6.51697e-30
      283.500   6.40353e-30
      283.600   6.29196e-30
      283.700   6.18230e-30
      283.800   6.07455e-30
      283.900   5.96872e-30
      284.000   5.86464e-30
      284.100   5.76231e-30
      284.200   5.66179e-30
      284.300   5.56306e-30
      284.400   5.46601e-30
      284.500   5.37067e-30
      284.600   5.27697e-30
      284.700   5.18490e-30
      284.800   5.09443e-30
      284.900   5.00552e-30
      285.000   4.91809e-30
      285.100   4.83221e-30
      285.200   4.74788e-30
      285.300   4.66497e-30
      285.400   4.58350e-30
      285.500   4.50342e-30
      285.600   4.42486e-30
      285.700   4.34755e-30
      285.800   4.27166e-30
      285.900   4.19707e-30
      286.000   4.12379e-30
      286.100   4.05187e-30
      286.200   3.98114e-30
      286.300   3.91170e-30
      286.400   3.84346e-30
      286.500   3.77638e-30
      286.600   3.71047e-30
      286.700   3.64571e-30
      286.800   3.58213e-30
      286.900   3.51965e-30
      287.000   3.45824e-30
      287.100   3.39791e-30
      287.200   3.33866e-30
      287.300   3.28043e-30
      287.400   3.22323e-30
      287.500   3.16704e-30
      287.600   3.11185e-30
      287.700   3.05760e-30
      287.800   3.00433e-30
      287.900   2.95198e-30
      288.000   2.90057e-30
      288.100   2.85005e-30
      288.200   2.80046e-30
      288.300   2.75175e-30
      288.400   2.70389e-30
      288.500   2.65688e-30
      288.600   2.61067e-30
      288.700   2.56530e-30
      288.800   2.52071e-30
      288.900   2.47693e-30
      289.000   2.43392e-30
      289.100   2.39164e-30
      289.200   2.35012e-30
      289.300   2.30934e-30
      289.400   2.26927e-30
      289.500   2.22990e-30
      289.600   2.19122e-30
      289.700   2.15327e-30
      289.800   2.11593e-30
      289.900   2.07924e-30
      290.000   2.04326e-30
      290.100   2.00785e-30
      290.200   1.97314e-30
      290.300   1.93901e-30
      290.400   1.90549e-30
      290.500   1.87259e-30
      290.600   1.84023e-30
      290.700   1.80845e-30
      290.800   1.77725e-30
      290.900   1.74658e-30
      291.000   1.71643e-30
      291.100   1.68682e-30
      291.200   1.65773e-30
      291.300   1.62916e-30
      291.400   1.60109e-30
      291.500   1.57350e-30
      291.600   1.54640e-30
      291.700   1.51978e-30
      291.800   1.49362e-30
      291.900   1.46795e-30
      292.000   1.44275e-30
      292.100   1.41797e-30
      292.200   1.39363e-30
      292.300   1.36970e-30
      292.400   1.34620e-30
      292.500   1.32310e-30
      292.600   1.30040e-30
      292.700   1.27810e-30
      292.800   1.25619e-30
      292.900   1.23466e-30
      293.000   1.21351e-30
      293.100   1.19273e-30
      293.200   1.17231e-30
      293.300   1.15223e-30
      293.400   1.13253e-30
      293.500   1.11317e-30
      293.600   1.09415e-30
      293.700   1.07545e-30
      293.800   1.05709e-30
      293.900   1.03904e-30
      294.000   1.02130e-30
      294.100   1.00387e-30
      294.200   9.86755e-31
      294.300   9.69934e-31
      294.400   9.53391e-31
      294.500   9.37137e-31
      294.600   9.21155e-31
      294.700   9.05462e-31
      294.800   8.90033e-31
      294.900   8.74870e-31
      295.000   8.59990e-31
      295.100   8.45369e-31
      295.200   8.30996e-31
      295.300   8.16857e-31
      295.400   8.02970e-31
      295.500   7.89327e-31
      295.600   7.75910e-31
      295.700   7.62725e-31
      295.800   7.49766e-31
      295.900   7.37021e-31
      296.000   7.24504e-31
      296.100   7.12190e-31
      296.200   7.00097e-31
      296.300   6.88213e-31
      296.400   6.76552e-31
      296.500   6.65069e-31
      296.600   6.53793e-31
      296.700   6.42707e-31
      296.800   6.31810e-31
      296.900   6.21098e-31
      297.000   6.10566e-31
      297.100   6.00210e-31
      297.200   5.90033e-31
      297.300   5.80030e-31
      297.400   5.70198e-31
      297.500   5.60524e-31
      297.600   5.51031e-31
      297.700   5.41697e-31
      297.800   5.32523e-31
      297.900   5.23508e-31
      298.000   5.14646e-31
      298.100   5.05929e-31
      298.200   4.97359e-31
      298.300   4.88938e-31
      298.400   4.80654e-31
      298.500   4.72510e-31
      298.600   4.64504e-31
      298.700   4.56632e-31
      298.800   4.48889e-31
      298.900   4.41288e-31
      299.000   4.33821e-31
      299.100   4.26479e-31
      299.200   4.19253e-31
      299.300   4.12152e-31
      299.400   4.05170e-31
      299.500   3.98305e-31
      299.600   3.91555e-31
      299.700   3.84916e-31
      299.800   3.78389e-31
      299.900   3.71974e-31
      300.000   3.65665e-31
      300.100   3.59463e-31
      300.192   3.53855e-31
      300.285   3.48265e-31
      300.377   3.42829e-31
      300.470   3.37421e-31
      300.562   3.32151e-31
      300.654   3.26962e-31
      300.747   3.21799e-31
      300.839   3.16773e-31
      300.932   3.11765e-31
      301.025   3.06840e-31
      301.117   3.02046e-31
      301.210   2.97267e-31
      301.303   2.92572e-31
      301.395   2.87999e-31
      301.488   2.83441e-31
      301.581   2.78959e-31
      301.674   2.74546e-31
      301.766   2.70246e-31
      301.859   2.65968e-31
      301.952   2.61759e-31
      302.045   2.57615e-31
      302.138   2.53913e-31
      302.231   2.51112e-31
      302.324   2.48379e-31
      302.417   2.45678e-31
      302.510   2.43002e-31
      302.603   2.40359e-31
      302.696   2.37738e-31
      302.789   2.35146e-31
      302.882   2.32581e-31
      302.976   2.30020e-31
      303.069   2.27510e-31
      303.162   2.25026e-31
      303.255   2.22567e-31
      303.349   2.20110e-31
      303.442   2.17703e-31
      303.535   2.15322e-31
      303.629   2.12941e-31
      303.722   2.10611e-31
      303.816   2.08282e-31
      303.909   2.05999e-31
      304.003   2.03718e-31
      304.096   2.01485e-31
      304.190   1.99251e-31
      304.283   1.97064e-31
      304.377   1.94878e-31
      304.471   1.92713e-31
      304.564   1.90595e-31
      304.658   1.88479e-31
      304.752   1.86383e-31
      304.846   1.84310e-31
      304.939   1.82281e-31
      305.033   1.80252e-31
      305.127   1.78243e-31
      305.221   1.76257e-31
      305.315   1.74294e-31
      305.409   1.72348e-31
      305.503   1.70425e-31
      305.597   1.68524e-31
      305.691   1.66641e-31
      305.785   1.64781e-31
      305.879   1.62937e-31
      305.973   1.61115e-31
      306.067   1.59312e-31
      306.161   1.57528e-31
      306.255   1.55764e-31
      306.350   1.54001e-31
      306.444   1.52273e-31
      306.538   1.50566e-31
      306.633   1.48860e-31
      306.727   1.47189e-31
      306.821   1.45537e-31
      306.916   1.43885e-31
      307.010   1.42303e-31
      307.105   1.40836e-31
      307.199   1.39416e-31
      307.294   1.37995e-31
      307.388   1.36604e-31
      307.483   1.35211e-31
      307.577   1.33847e-31
      307.672   1.32480e-31
      307.767   1.31128e-31
      307.861   1.29802e-31
      307.956   1.28474e-31
      308.051   1.27161e-31
      308.146   1.25861e-31
      308.240   1.24586e-31
      308.335   1.23310e-31
      308.430   1.22046e-31
      308.525   1.20796e-31
      308.620   1.19558e-31
      308.715   1.18332e-31
      308.810   1.17119e-31
      308.905   1.15917e-31
      309.000   1.14726e-31
      309.095   1.13548e-31
      309.190   1.12383e-31
      309.285   1.11228e-31
      309.380   1.10085e-31
      309.476   1.08943e-31
      309.571   1.07822e-31
      309.666   1.06713e-31
      309.761   1.05616e-31
      309.857   1.04518e-31
      309.952   1.03441e-31
      310.047   1.02376e-31
      310.143   1.01311e-31
      310.238   1.00267e-31
      310.334   9.92233e-32
      310.429   9.82009e-32
      310.525   9.71777e-32
      310.620   9.61763e-32
      310.716   9.51743e-32
      310.811   9.41941e-32
      310.907   9.32126e-32
      311.003   9.22410e-32
      311.098   9.12892e-32
      311.194   9.03373e-32
      311.290   8.93970e-32
      311.386   8.84655e-32
      311.481   8.75528e-32
      311.577   8.66397e-32
      311.673   8.57368e-32
      311.769   8.48430e-32
      311.865   8.39580e-32
      311.961   8.30847e-32
      312.057   8.22286e-32
      312.153   8.13848e-32
      312.249   8.05491e-32
      312.345   7.97228e-32
      312.441   7.89045e-32
      312.537   7.80950e-32
      312.633   7.72939e-32
      312.730   7.64922e-32
      312.826   7.57075e-32
      312.922   7.49305e-32
      313.018   7.41622e-32
      313.115   7.33939e-32
      313.211   7.26408e-32
      313.307   7.18963e-32
      313.404   7.11520e-32
      313.500   7.04225e-32
      313.597   6.96939e-32
      313.693   6.89800e-32
      313.790   6.82662e-32
      313.886   6.75673e-32
      313.983   6.68681e-32
      314.079   6.61837e-32
      314.176   6.54994e-32
      314.273   6.48223e-32
      314.369   6.41605e-32
      314.466   6.34981e-32
      314.563   6.28425e-32
      314.660   6.21935e-32
      314.756   6.15584e-32
      314.853   6.09231e-32
      314.950   6.02949e-32
      315.047   5.96738e-32
      315.144   5.90592e-32
      315.241   5.84508e-32
      315.338   5.78492e-32
      315.435   5.72537e-32
      315.532   5.66644e-32
      315.629   5.60816e-32
      315.726   5.55054e-32
      315.823   5.49347e-32
      315.921   5.43647e-32
      316.018   5.38067e-32
      316.115   5.32548e-32
      316.212   5.27084e-32
      316.310   5.21624e-32
      316.407   5.16276e-32
      316.504   5.10987e-32
      316.602   5.05703e-32
      316.699   5.00531e-32
      316.796   4.95406e-32
      316.894   4.90290e-32
      316.991   4.85288e-32
      317.089   4.80340e-32
      317.187   4.75470e-32
      317.284   4.70702e-32
      317.382   4.65935e-32
      317.479   4.61263e-32
      317.577   4.56595e-32
      317.675   4.51976e-32
      317.773   4.47406e-32
      317.870   4.42935e-32
      317.968   4.38461e-32
      318.066   4.34034e-32
      318.164   4.29655e-32
      318.262   4.25322e-32
      318.360   4.21037e-32
      318.458   4.16799e-32
      318.556   4.12608e-32
      318.654   4.08459e-32
      318.752   4.04350e-32
      318.850   4.00289e-32
      318.948   3.96269e-32
      319.046   3.92292e-32
      319.144   3.88356e-32
      319.242   3.84463e-32
      319.341   3.80573e-32
      319.439   3.76762e-32
      319.537   3.72995e-32
      319.635   3.69265e-32
      319.734   3.65535e-32
      319.832   3.61885e-32
      319.930   3.58270e-32
      320.029   3.54657e-32
      320.127   3.51121e-32
      320.226   3.47588e-32
      320.324   3.44124e-32
      320.423   3.40659e-32
      320.522   3.37239e-32
      320.620   3.33886e-32
      320.719   3.30531e-32
      320.818   3.27215e-32
      320.916   3.23966e-32
      321.015   3.20719e-32
      321.114   3.17504e-32
      321.213   3.14324e-32
      321.311   3.11212e-32
      321.410   3.08100e-32
      321.509   3.05017e-32
      321.608   3.01969e-32
      321.707   2.98953e-32
      321.806   2.95969e-32
      321.905   2.93016e-32
      322.004   2.90094e-32
      322.103   2.87203e-32
      322.202   2.84338e-32
      322.301   2.81507e-32
      322.401   2.78679e-32
      322.500   2.75907e-32
      322.599   2.73164e-32
      322.698   2.70447e-32
      322.798   2.67732e-32
      322.897   2.65074e-32
      322.996   2.62443e-32
      323.096   2.59811e-32
      323.195   2.57234e-32
      323.294   2.54681e-32
      323.394   2.52130e-32
      323.493   2.49632e-32
      323.593   2.47138e-32
      323.692   2.44690e-32
      323.792   2.42243e-32
      323.892   2.39821e-32
      323.991   2.37447e-32
      324.091   2.35078e-32
      324.191   2.32731e-32
      324.291   2.30407e-32
      324.390   2.28132e-32
      324.490   2.25857e-32
      324.590   2.23603e-32
      324.690   2.21373e-32
      324.790   2.19167e-32
      324.890   2.16984e-32
      324.990   2.14823e-32
      325.090   2.12684e-32
      325.190   2.10564e-32
      325.290   2.08469e-32
      325.390   2.06392e-32
      325.490   2.04339e-32
      325.590   2.02307e-32
      325.690   2.00291e-32
      325.790   1.98298e-32
      325.891   1.96306e-32
      325.991   1.94354e-32
      326.091   1.92420e-32
      326.192   1.90487e-32
      326.292   1.88594e-32
      326.392   1.86719e-32
      326.493   1.84845e-32
      326.593   1.83006e-32
      326.694   1.81170e-32
      326.794   1.79368e-32
      326.895   1.77567e-32
      326.995   1.75802e-32
      327.096   1.74037e-32
      327.197   1.72289e-32
      327.297   1.70576e-32
      327.398   1.68864e-32
      327.499   1.67169e-32
      327.599   1.65507e-32
      327.700   1.63844e-32
      327.801   1.62198e-32
      327.902   1.60569e-32
      328.003   1.58956e-32
      328.104   1.57360e-32
      328.205   1.55779e-32
      328.306   1.54214e-32
      328.407   1.52664e-32
      328.508   1.51129e-32
      328.609   1.49609e-32
      328.710   1.48103e-32
      328.811   1.46613e-32
      328.912   1.45138e-32
      329.013   1.43677e-32
      329.115   1.42218e-32
      329.216   1.40786e-32
      329.317   1.39366e-32
      329.419   1.37950e-32
      329.520   1.36559e-32
      329.621   1.35181e-32
      329.723   1.33804e-32
      329.824   1.32455e-32
      329.926   1.31106e-32
      330.027   1.29782e-32
      330.129   1.28459e-32
      330.230   1.27161e-32
      330.332   1.25863e-32
      330.434   1.24578e-32
      330.535   1.23319e-32
      330.637   1.22058e-32
      330.739   1.20810e-32
      330.840   1.19586e-32
      330.942   1.18363e-32
      331.044   1.17152e-32
      331.146   1.15951e-32
      331.248   1.14764e-32
      331.350   1.13588e-32
      331.452   1.12424e-32
      331.554   1.11299e-32
      331.656   1.10224e-32
      331.758   1.09160e-32
      331.860   1.08104e-32
      331.962   1.07059e-32
      332.064   1.06024e-32
      332.166   1.05000e-32
      332.268   1.03983e-32
      332.371   1.02966e-32
      332.473   1.01968e-32
      332.575   1.00978e-32
      332.677   9.99983e-33
      332.780   9.90179e-33
      332.882   9.80562e-33
      332.985   9.70940e-33
      333.087   9.61494e-33
      333.190   9.52053e-33
      333.292   9.42657e-33
      333.395   9.32921e-33
      333.497   9.23257e-33
      333.600   9.13598e-33
      333.702   9.04125e-33
      333.805   8.94650e-33
      333.908   8.85271e-33
      334.011   8.75988e-33
      334.113   8.66880e-33
      334.216   8.57776e-33
      334.319   8.48766e-33
      334.422   8.39833e-33
      334.525   8.30998e-33
      334.628   8.22246e-33
      334.731   8.13588e-33
      334.834   8.05017e-33
      334.937   7.96529e-33
      335.040   7.88122e-33
      335.143   7.79804e-33
      335.246   7.71564e-33
      335.349   7.63404e-33
      335.452   7.55330e-33
      335.555   7.47334e-33
      335.659   7.39348e-33
      335.762   7.31519e-33
      335.865   7.23773e-33
      335.969   7.16020e-33
      336.072   7.08412e-33
      336.175   7.00890e-33
      336.279   6.93373e-33
      336.382   6.86007e-33
      336.486   6.78636e-33
      336.589   6.71408e-33
      336.693   6.64199e-33
      336.796   6.57122e-33
      336.900   6.50054e-33
      337.004   6.43051e-33
      337.107   6.36189e-33
      337.211   6.29334e-33
      337.315   6.22558e-33
      337.419   6.15837e-33
      337.523   6.09182e-33
      337.626   6.02666e-33
      337.730   5.96165e-33
      337.834   5.89715e-33
      337.938   5.83343e-33
      338.042   5.77047e-33
      338.146   5.70875e-33
      338.250   5.64777e-33
      338.354   5.58743e-33
      338.458   5.52765e-33
      338.562   5.46852e-33
      338.667   5.40943e-33
      338.771   5.35148e-33
      338.875   5.29416e-33
      338.979   5.23741e-33
      339.084   5.18078e-33
      339.188   5.12519e-33
      339.292   5.07027e-33
      339.397   5.01529e-33
      339.501   4.96149e-33
      339.606   4.90771e-33
      339.710   4.85497e-33
      339.815   4.80235e-33
      339.919   4.75077e-33
      340.024   4.69919e-33
      340.128   4.64869e-33
      340.233   4.59822e-33
      340.338   4.54832e-33
      340.442   4.49936e-33
      340.547   4.45049e-33
      340.652   4.40214e-33
      340.757   4.35427e-33
      340.862   4.30693e-33
      340.966   4.26057e-33
      341.071   4.21416e-33
      341.176   4.16832e-33
      341.281   4.12297e-33
      341.386   4.07817e-33
      341.491   4.03375e-33
      341.596   3.98992e-33
      341.702   3.94610e-33
      341.807   3.90310e-33
      341.912   3.86064e-33
      342.017   3.81866e-33
      342.122   3.77707e-33
      342.228   3.73554e-33
      342.333   3.69488e-33
      342.438   3.65466e-33
      342.544   3.61453e-33
      342.649   3.57514e-33
      342.754   3.53628e-33
      342.860   3.49739e-33
      342.965   3.45930e-33
      343.071   3.42133e-33
      343.176   3.38410e-33
      343.282   3.34691e-33
      343.388   3.31016e-33
      343.493   3.27433e-33
      343.599   3.24009e-33
      343.705   3.20645e-33
      343.810   3.17338e-33
      343.916   3.14037e-33
      344.022   3.10776e-33
      344.128   3.07544e-33
      344.234   3.04347e-33
      344.340   3.01187e-33
      344.446   2.98054e-33
      344.552   2.94957e-33
      344.658   2.91900e-33
      344.764   2.88870e-33
      344.870   2.85872e-33
      344.976   2.82905e-33
      345.082   2.79971e-33
      345.188   2.77071e-33
      345.294   2.74198e-33
      345.401   2.71330e-33
      345.507   2.68519e-33
      345.613   2.65739e-33
      345.719   2.62989e-33
      345.826   2.60243e-33
      345.932   2.57551e-33
      346.039   2.54864e-33
      346.145   2.52227e-33
      346.252   2.49598e-33
      346.358   2.47022e-33
      346.465   2.44446e-33
      346.571   2.41924e-33
      346.678   2.39405e-33
      346.785   2.36913e-33
      346.891   2.34472e-33
      346.998   2.32034e-33
      347.105   2.29626e-33
      347.212   2.27239e-33
      347.319   2.24881e-33
      347.425   2.22565e-33
      347.532   2.20257e-33
      347.639   2.17975e-33
      347.746   2.15715e-33
      347.853   2.13484e-33
      347.960   2.11271e-33
      348.067   2.09088e-33
      348.174   2.06929e-33
      348.281   2.04787e-33
      348.389   2.02655e-33
      348.496   2.00559e-33
      348.603   1.98493e-33
      348.710   1.96444e-33
      348.818   1.94404e-33
      348.925   1.92400e-33
      349.032   1.90421e-33
      349.140   1.88441e-33
      349.247   1.86500e-33
      349.355   1.84567e-33
      349.462   1.82670e-33
      349.570   1.80773e-33
      349.677   1.78918e-33
      349.785   1.77064e-33
      349.892   1.75249e-33
      350.000   1.73437e-33
      350.100   1.71776e-33
      350.193   1.70248e-33
      350.287   1.68717e-33
      350.380   1.67215e-33
      350.473   1.65730e-33
      350.567   1.64240e-33
      350.660   1.62782e-33
      350.754   1.61321e-33
      350.847   1.59892e-33
      350.941   1.58459e-33
      351.034   1.57054e-33
      351.128   1.55649e-33
      351.221   1.54271e-33
      351.315   1.52894e-33
      351.409   1.51526e-33
      351.502   1.50187e-33
      351.596   1.48845e-33
      351.690   1.47517e-33
      351.783   1.46216e-33
      351.877   1.44916e-33
      351.971   1.43623e-33
      352.065   1.42345e-33
      352.159   1.41079e-33
      352.252   1.39838e-33
      352.346   1.38594e-33
      352.440   1.37362e-33
      352.534   1.36144e-33
      352.628   1.34937e-33
      352.722   1.33740e-33
      352.816   1.32554e-33
      352.910   1.31380e-33
      353.004   1.30217e-33
      353.098   1.29064e-33
      353.192   1.27922e-33
      353.287   1.26780e-33
      353.381   1.25660e-33
      353.475   1.24551e-33
      353.569   1.23450e-33
      353.663   1.22360e-33
      353.758   1.21271e-33
      353.852   1.20203e-33
      353.946   1.19144e-33
      354.041   1.18083e-33
      354.135   1.17044e-33
      354.229   1.16014e-33
      354.324   1.14985e-33
      354.418   1.13972e-33
      354.513   1.12961e-33
      354.607   1.11971e-33
      354.702   1.10975e-33
      354.796   1.09992e-33
      354.891   1.09006e-33
      354.985   1.08042e-33
      355.080   1.07074e-33
      355.175   1.06118e-33
      355.269   1.05178e-33
      355.364   1.04238e-33
      355.459   1.03306e-33
      355.553   1.02394e-33
      355.648   1.01480e-33
      355.743   1.00574e-33
      355.838   9.96764e-34
      355.933   9.87885e-34
      356.027   9.79178e-34
      356.122   9.70450e-34
      356.217   9.61803e-34
      356.312   9.53244e-34
      356.407   9.44759e-34
      356.502   9.36355e-34
      356.597   9.28013e-34
      356.692   9.19773e-34
      356.787   9.11598e-34
      356.882   9.03493e-34
      356.977   8.95468e-34
      357.073   8.87439e-34
      357.168   8.79550e-34
      357.263   8.71743e-34
      357.358   8.64009e-34
      357.453   8.56347e-34
      357.549   8.48676e-34
      357.644   8.41149e-34
      357.739   8.33694e-34
      357.835   8.26235e-34
      357.930   8.18917e-34
      358.025   8.11658e-34
      358.121   8.04392e-34
      358.216   7.97268e-34
      358.312   7.90132e-34
      358.407   7.83143e-34
      358.503   7.76137e-34
      358.598   7.69279e-34
      358.694   7.62404e-34
      358.790   7.55589e-34
      358.885   7.48901e-34
      358.981   7.42214e-34
      359.076   7.35647e-34
      359.172   7.29082e-34
      359.268   7.22563e-34
      359.364   7.16105e-34
      359.459   7.09783e-34
      359.555   7.03451e-34
      359.651   6.97165e-34
      359.747   6.90941e-34
      359.843   6.84775e-34
      359.939   6.78658e-34
      360.035   6.72601e-34
      360.131   6.66597e-34
      360.227   6.60645e-34
      360.323   6.54751e-34
      360.419   6.48909e-34
      360.515   6.43120e-34
      360.611   6.37381e-34
      360.707   6.31686e-34
      360.803   6.26050e-34
      360.899   6.20457e-34
      360.995   6.14928e-34
      361.092   6.09383e-34
      361.188   6.03942e-34
      361.284   5.98551e-34
      361.380   5.93211e-34
      361.477   5.87858e-34
      361.573   5.82613e-34
      361.669   5.77410e-34
      361.766   5.72193e-34
      361.862   5.67085e-34
      361.959   5.61970e-34
      362.055   5.56939e-34
      362.152   5.51914e-34
      362.248   5.46977e-34
      362.345   5.42032e-34
      362.441   5.37192e-34
      362.538   5.32341e-34
      362.635   5.27531e-34
      362.731   5.22806e-34
      362.828   5.18073e-34
      362.925   5.13389e-34
      363.021   5.08796e-34
      363.118   5.04192e-34
      363.215   4.99622e-34
      363.312   4.95097e-34
      363.409   4.90616e-34
      363.505   4.86215e-34
      363.602   4.81806e-34
      363.699   4.77444e-34
      363.796   4.73112e-34
      363.893   4.68819e-34
      363.990   4.64564e-34
      364.087   4.60345e-34
      364.184   4.56167e-34
      364.281   4.52023e-34
      364.378   4.47920e-34
      364.475   4.43847e-34
      364.573   4.39765e-34
      364.670   4.35762e-34
      364.767   4.31799e-34
      364.864   4.27869e-34
      364.961   4.23969e-34
      365.059   4.20068e-34
      365.156   4.16239e-34
      365.253   4.12444e-34
      365.351   4.08641e-34
      365.448   4.04910e-34
      365.545   4.01215e-34
      365.643   3.97510e-34
      365.740   3.93875e-34
      365.838   3.90237e-34
      365.935   3.86667e-34
      366.033   3.83095e-34
      366.130   3.79585e-34
      366.228   3.76071e-34
      366.326   3.72590e-34
      366.423   3.69171e-34
      366.521   3.65748e-34
      366.618   3.62388e-34
      366.716   3.59022e-34
      366.814   3.55689e-34
      366.912   3.52385e-34
      367.010   3.49112e-34
      367.107   3.45898e-34
      367.205   3.42678e-34
      367.303   3.39486e-34
      367.401   3.36323e-34
      367.499   3.33187e-34
      367.597   3.30080e-34
      367.695   3.26997e-34
      367.793   3.23944e-34
      367.891   3.20921e-34
      367.989   3.17921e-34
      368.087   3.14948e-34
      368.185   3.11999e-34
      368.283   3.09078e-34
      368.381   3.06181e-34
      368.480   3.03281e-34
      368.578   3.00436e-34
      368.676   2.97617e-34
      368.774   2.94824e-34
      368.873   2.92027e-34
      368.971   2.89282e-34
      369.069   2.86563e-34
      369.168   2.83837e-34
      369.266   2.81161e-34
      369.364   2.78513e-34
      369.463   2.75863e-34
      369.561   2.73261e-34
      369.660   2.70655e-34
      369.758   2.68099e-34
      369.857   2.65541e-34
      369.955   2.63031e-34
      370.054   2.60516e-34
      370.153   2.58024e-34
      370.251   2.55580e-34
      370.350   2.53135e-34
      370.449   2.50712e-34
      370.547   2.48334e-34
      370.646   2.45950e-34
      370.745   2.43592e-34
      370.844   2.41254e-34
      370.943   2.38937e-34
      371.041   2.36665e-34
      371.140   2.34388e-34
      371.239   2.32132e-34
      371.338   2.29900e-34
      371.437   2.27686e-34
      371.536   2.25491e-34
      371.635   2.23316e-34
      371.734   2.21163e-34
      371.833   2.19030e-34
      371.932   2.16914e-34
      372.032   2.14798e-34
      372.131   2.12720e-34
      372.230   2.10665e-34
      372.329   2.08629e-34
      372.428   2.06610e-34
      372.528   2.04590e-34
      372.627   2.02610e-34
      372.726   2.00647e-34
      372.826   1.98685e-34
      372.925   1.96759e-34
      373.024   1.94850e-34
      373.124   1.92939e-34
      373.223   1.91066e-34
      373.323   1.89193e-34
      373.422   1.87354e-34
      373.522   1.85513e-34
      373.621   1.83710e-34
      373.721   1.81905e-34
      373.820   1.80133e-34
      373.920   1.78361e-34
      374.020   1.76605e-34
      374.119   1.74883e-34
      374.219   1.73160e-34
      374.319   1.71455e-34
      374.419   1.69765e-34
      374.518   1.68107e-34
      374.618   1.66448e-34
      374.718   1.64804e-34
      374.818   1.63177e-34
      374.918   1.61565e-34
      375.018   1.59968e-34
      375.118   1.58388e-34
      375.218   1.56821e-34
      375.318   1.55270e-34
      375.418   1.53733e-34
      375.518   1.52212e-34
      375.618   1.50705e-34
      375.718   1.49211e-34
      375.818   1.47732e-34
      375.918   1.46268e-34
      376.019   1.44804e-34
      376.119   1.43369e-34
      376.219   1.41946e-34
      376.319   1.40538e-34
      376.420   1.39129e-34
      376.520   1.37747e-34
      376.620   1.36380e-34
      376.721   1.35012e-34
      376.821   1.33670e-34
      376.922   1.32329e-34
      377.022   1.31013e-34
      377.122   1.29711e-34
      377.223   1.28409e-34
      377.323   1.27132e-34
      377.424   1.25855e-34
      377.525   1.24591e-34
      377.625   1.23351e-34
      377.726   1.22111e-34
      377.827   1.20884e-34
      377.927   1.19680e-34
      378.028   1.18478e-34
      378.129   1.17286e-34
      378.230   1.16388e-34
      378.330   1.15936e-34
      378.431   1.15554e-34
      378.532   1.15173e-34
      378.633   1.14793e-34
      378.734   1.14414e-34
      378.835   1.14036e-34
      378.936   1.13660e-34
      379.037   1.13283e-34
      379.138   1.12907e-34
      379.239   1.12533e-34
      379.340   1.12161e-34
      379.441   1.11790e-34
      379.542   1.11419e-34
      379.643   1.11049e-34
      379.745   1.10677e-34
      379.846   1.10310e-34
      379.947   1.09942e-34
      380.048   1.09577e-34
      380.150   1.09209e-34
      380.251   1.08846e-34
      380.352   1.08484e-34
      380.454   1.08121e-34
      380.555   1.07760e-34
      380.656   1.07401e-34
      380.758   1.07040e-34
      380.859   1.06683e-34
      380.961   1.06324e-34
      381.062   1.05970e-34
      381.164   1.05614e-34
      381.266   1.05259e-34
      381.367   1.04908e-34
      381.469   1.04556e-34
      381.570   1.04208e-34
      381.672   1.03857e-34
      381.774   1.03508e-34
      381.876   1.03159e-34
      381.977   1.02816e-34
      382.079   1.02470e-34
      382.181   1.02126e-34
      382.283   1.01783e-34
      382.385   1.01441e-34
      382.487   1.01101e-34
      382.589   1.00761e-34
      382.691   1.00422e-34
      382.793   1.00085e-34
      382.895   9.97499e-35
      382.997   9.94158e-35
      383.099   9.90824e-35
      383.201   9.87501e-35
      383.303   9.84203e-35
      383.405   9.80900e-35
      383.507   9.77608e-35
      383.610   9.74310e-35
      383.712   9.71052e-35
      383.814   9.67807e-35
      383.916   9.64583e-35
      384.019   9.61331e-35
      384.121   9.58129e-35
      384.223   9.54924e-35
      384.326   9.52072e-35
      384.428   9.50159e-35
      384.531   9.48500e-35
      384.633   9.46865e-35
      384.736   9.45218e-35
      384.838   9.43581e-35
      384.941   9.41940e-35
      385.043   9.40317e-35
      385.146   9.38700e-35
      385.249   9.37069e-35
      385.351   9.35459e-35
      385.454   9.33848e-35
      385.557   9.32236e-35
      385.660   9.30636e-35
      385.762   9.29052e-35
      385.865   9.27458e-35
      385.968   9.25866e-35
      386.071   9.24284e-35
      386.174   9.22701e-35
      386.277   9.21123e-35
      386.380   9.19552e-35
      386.483   9.17982e-35
      386.586   9.16437e-35
      386.689   9.14883e-35
      386.792   9.13332e-35
      386.895   9.11785e-35
      386.998   9.10251e-35
      387.101   9.08712e-35
      387.204   9.07173e-35
      387.308   9.05645e-35
      387.411   9.04131e-35
      387.514   9.02617e-35
      387.617   9.01105e-35
      387.721   8.99588e-35
      387.824   8.98095e-35
      387.927   8.96604e-35
      388.031   8.95102e-35
      388.134   8.93617e-35
      388.238   8.92130e-35
      388.341   8.90658e-35
      388.445   8.89185e-35
      388.548   8.87718e-35
      388.652   8.86261e-35
      388.755   8.84813e-35
      388.859   8.83349e-35
      388.962   8.81907e-35
      389.066   8.80457e-35
      389.170   8.79015e-35
      389.274   8.77585e-35
      389.377   8.76177e-35
      389.481   8.74746e-35
      389.585   8.73323e-35
      389.689   8.71903e-35
      389.793   8.70498e-35
      389.897   8.69089e-35
      390.000   8.67709e-35
      390.104   8.66316e-35
      390.208   8.64922e-35
      390.312   8.63536e-35
      390.416   8.62149e-35
      390.520   8.60757e-35
      390.625   8.59365e-35
      390.729   8.57980e-35
      390.833   8.56605e-35
      390.937   8.55237e-35
      391.041   8.53872e-35
      391.145   8.52500e-35
      391.250   8.51136e-35
      391.354   8.49780e-35
      391.458   8.48428e-35
      391.563   8.47073e-35
      391.667   8.45737e-35
      391.771   8.44408e-35
      391.876   8.43071e-35
      391.980   8.41742e-35
      392.085   8.40411e-35
      392.189   8.39101e-35
      392.294   8.37781e-35
      392.398   8.36477e-35
      392.503   8.35166e-35
      392.607   8.33865e-35
      392.712   8.32571e-35
      392.817   8.31263e-35
      392.921   8.29992e-35
      393.026   8.28697e-35
      393.131   8.27414e-35
      393.236   8.26127e-35
      393.340   8.24873e-35
      393.445   8.23608e-35
      393.550   8.22334e-35
      393.655   8.21074e-35
      393.760   8.19815e-35
      393.865   8.18569e-35
      393.970   8.17313e-35
      394.075   8.16067e-35
      394.180   8.14836e-35
      394.285   8.13603e-35
      394.390   8.12361e-35
      394.495   8.11132e-35
      394.600   8.09911e-35
      394.706   8.08675e-35
      394.811   8.07467e-35
      394.916   8.06240e-35
      395.021   8.05032e-35
      395.126   8.03827e-35
      395.232   8.02611e-35
      395.337   8.01404e-35
      395.443   8.00202e-35
      395.548   7.99003e-35
      395.653   7.97805e-35
      395.759   7.96616e-35
      395.864   7.95437e-35
      395.970   7.94247e-35
      396.075   7.93069e-35
      396.181   7.91884e-35
      396.286   7.90702e-35
      396.392   7.89529e-35
      396.498   7.88359e-35
      396.603   7.87187e-35
      396.709   7.86011e-35
      396.815   7.84829e-35
      396.921   7.83663e-35
      397.026   7.82508e-35
      397.132   7.81353e-35
      397.238   7.80192e-35
      397.344   7.79034e-35
      397.450   7.77883e-35
      397.556   7.76727e-35
      397.662   7.75573e-35
      397.768   7.74424e-35
      397.874   7.73292e-35
      397.980   7.72133e-35
      398.086   7.71001e-35
      398.192   7.69850e-35
      398.298   7.68707e-35
      398.404   7.67586e-35
      398.510   7.66447e-35
      398.617   7.65297e-35
      398.723   7.64164e-35
      398.829   7.63035e-35
      398.935   7.61899e-35
      399.042   7.60773e-35
      399.148   7.59638e-35
      399.255   7.58500e-35
      399.361   7.57374e-35
      399.467   7.56247e-35
      399.574   7.55123e-35
      399.680   7.53994e-35
      399.787   7.52851e-35
      399.893       0.00000
      400.000       0.00000
