Filter Al-thick
observation_date 22-Sept-2010 22:40:45
wavelength effective area 
      1.00000   2.52798e-10
      1.10000   6.99238e-10
      1.20000   1.75058e-09
      1.30000   4.00507e-09
      1.40000   8.63403e-09
      1.50000   1.73700e-08
      1.60000   3.29000e-08
      1.70000   5.92555e-08
      1.80000   1.01468e-07
      1.90000   1.66206e-07
      2.00000   2.60879e-07
      2.10000   3.93918e-07
      2.20000   5.74618e-07
      2.30000   8.08571e-07
      2.40000   1.09922e-06
      2.50000   1.43853e-06
      2.60000   1.85795e-06
      2.70000   2.31675e-06
      2.80000   2.80108e-06
      2.90000   3.30715e-06
      3.00000   3.79742e-06
      3.10000   4.24952e-06
      3.20000   4.64174e-06
      3.30000   4.95162e-06
      3.40000   5.15787e-06
      3.50000   5.25031e-06
      3.60000   5.24033e-06
      3.70000   5.10881e-06
      3.80000   4.88531e-06
      3.90000   4.58003e-06
      4.00000   4.20724e-06
      4.10000   3.79099e-06
      4.20000   3.35407e-06
      4.30000   2.91495e-06
      4.40000   2.48937e-06
      4.50000   2.08888e-06
      4.60000   1.72119e-06
      4.70000   1.39732e-06
      4.80000   1.11587e-06
      4.90000   8.66678e-07
      5.00000   6.80348e-07
      5.10000   5.18865e-07
      5.20000   3.91081e-07
      5.30000   2.87779e-07
      5.40000   2.08370e-07
      5.50000   1.49072e-07
      5.60000   1.01734e-07
      5.70000   7.19636e-08
      5.80000   4.51964e-08
      5.90000   3.66010e-08
      6.00000   2.57493e-08
      6.10000   1.69852e-08
      6.20000   1.08033e-08
      6.30000   6.47604e-09
      6.40000   3.65515e-09
      6.50000   1.94914e-09
      6.60000   9.75700e-10
      6.70000   4.70571e-10
      6.80000   2.19868e-10
      6.90000   1.32425e-10
      7.00000   6.61044e-11
      7.10000   3.14863e-11
      7.20000   1.45237e-11
      7.30000   6.60486e-12
      7.40000   3.05825e-12
      7.50000   1.35654e-12
      7.60000   5.74485e-13
      7.70000   2.50822e-13
      7.80000   1.03430e-13
      7.90000   4.16843e-14
      8.00000     0.0719745
      8.10000     0.0720322
      8.20000     0.0667474
      8.30000     0.0614301
      8.40000     0.0564851
      8.50000     0.0517865
      8.60000     0.0473668
      8.70000     0.0431792
      8.80000     0.0392646
      8.90000     0.0355776
      9.00000     0.0321467
      9.10000     0.0289645
      9.20000     0.0260028
      9.30000     0.0233030
      9.40000     0.0208146
      9.50000     0.0185260
      9.60000     0.0164668
      9.70000     0.0145885
      9.80000     0.0128734
      9.90000     0.0113301
      10.0000    0.00994248
      10.1000    0.00869127
      10.2000    0.00756788
      10.3000    0.00657526
      10.4000    0.00570128
      10.5000    0.00492701
      10.6000    0.00424372
      10.7000    0.00364295
      10.8000    0.00311939
      10.9000    0.00266742
      11.0000    0.00227367
      11.1000    0.00193190
      11.2000    0.00163625
      11.3000    0.00138150
      11.4000    0.00116273
      11.5000   0.000975511
      11.6000   0.000815865
      11.7000   0.000681566
      11.8000   0.000567780
      11.9000   0.000472541
      12.0000   0.000392267
      12.1000   0.000326209
      12.2000   0.000275672
      12.3000   0.000229271
      12.4000   0.000188411
      12.5000   0.000154230
      12.6000   0.000125810
      12.7000   0.000102279
      12.8000   8.28821e-05
      12.9000   6.69603e-05
      13.0000   5.39308e-05
      13.1000   4.32984e-05
      13.2000   3.46498e-05
      13.3000   2.76368e-05
      13.4000   2.19691e-05
      13.5000   1.74131e-05
      13.6000   1.38207e-05
      13.7000   1.09356e-05
      13.8000   8.62457e-06
      13.9000   6.77889e-06
      14.0000   5.30902e-06
      14.1000   4.14189e-06
      14.2000   3.21817e-06
      14.3000   2.48979e-06
      14.4000   1.91779e-06
      14.5000   1.47667e-06
      14.6000   1.14021e-06
      14.7000   8.76262e-07
      14.8000   6.69983e-07
      14.9000   5.09458e-07
      15.0000   3.85145e-07
      15.1000   2.89382e-07
      15.2000   2.19456e-07
      15.3000   1.65837e-07
      15.4000   1.24431e-07
      15.5000   9.26719e-08
      15.6000   6.84882e-08
      15.7000   5.08123e-08
      15.8000   3.79317e-08
      15.9000   2.80636e-08
      16.0000   2.05764e-08
      16.1000   1.49520e-08
      16.2000   1.10367e-08
      16.3000   8.12527e-09
      16.4000   5.91078e-09
      16.5000   4.24933e-09
      16.6000   3.07565e-09
      16.7000   2.24525e-09
      16.8000   1.61390e-09
      16.9000   1.14298e-09
      17.0000   8.17780e-10
      17.1000   5.89612e-10
      17.2000   4.17064e-10
      17.3000   2.89859e-10
      17.4000   2.08078e-10
      17.5000   1.48459e-10
      17.6000   1.04134e-10
      17.7000   7.32652e-11
      17.8000   5.32256e-11
      17.9000   3.77875e-11
      18.0000   2.62220e-11
      18.1000   1.89052e-11
      18.2000   1.32871e-11
      18.3000   9.04189e-12
      18.4000   6.28950e-12
      18.5000   4.31318e-12
      18.6000   2.83515e-12
      18.7000   1.89534e-12
      18.8000   1.26445e-12
      18.9000   8.06255e-13
      19.0000   5.33124e-13
      19.1000   3.51528e-13
      19.2000   2.20791e-13
      19.3000   1.46678e-13
      19.4000   9.57176e-14
      19.5000   5.94104e-14
      19.6000   4.01162e-14
      19.7000   2.58561e-14
      19.8000   1.60514e-14
      19.9000   1.09009e-14
      20.0000   6.88060e-15
      20.1000   4.40779e-15
      20.2000   2.89226e-15
      20.3000   1.76584e-15
      20.4000   1.16805e-15
      20.5000   7.34834e-16
      20.6000   4.48095e-16
      20.7000   2.95555e-16
      20.8000   1.77267e-16
      20.9000   1.14197e-16
      21.0000   7.07627e-17
      21.1000   4.20109e-17
      21.2000   2.73813e-17
      21.3000   1.59275e-17
      21.4000   1.02270e-17
      21.5000   6.13174e-18
      21.6000   3.66459e-18
      21.7000   2.29703e-18
      21.8000   1.27569e-18
      21.9000   8.37782e-19
      22.0000   4.76905e-19
      22.1000   2.96621e-19
      22.2000   1.73860e-19
      22.3000   1.01030e-19
      22.4000   6.11125e-20
      22.5000   3.17049e-20
      22.6000   1.92409e-20
      22.7000   8.96592e-21
      22.8000   6.69954e-21
      22.9000   4.90053e-21
      23.0000   3.80132e-21
      23.1000   2.75146e-21
      23.2000   1.75196e-21
      23.3000   1.10178e-21
      23.4000   6.26185e-22
      23.5000   3.88400e-22
      23.6000   2.08666e-22
      23.7000   1.33783e-22
      23.8000   6.88138e-23
      23.9000   4.49621e-23
      24.0000   2.31687e-23
      24.1000   1.48267e-23
      24.2000   7.63681e-24
      24.3000   4.80051e-24
      24.4000   2.47665e-24
      24.5000   1.53448e-24
      24.6000   7.93096e-25
      24.7000   4.85523e-25
      24.8000   2.50640e-25
      24.9000   1.52662e-25
      25.0000   7.88719e-26
      25.1000   4.77983e-26
      25.2000   2.44588e-26
      25.3000   1.48397e-26
      25.4000   7.51400e-27
      25.5000   4.57121e-27
      25.6000   2.26943e-27
      25.7000   1.39054e-27
      25.8000   6.74279e-28
      25.9000   4.17457e-28
      26.0000   1.96625e-28
      26.1000   1.23415e-28
      26.2000   5.62375e-29
      26.3000   3.58791e-29
      26.4000   1.57560e-29
      26.5000   1.02385e-29
      26.6000   4.74442e-30
      26.7000   2.86258e-30
      26.8000   1.41312e-30
      26.9000   7.83273e-31
      27.0000   4.10925e-31
      27.1000   2.09392e-31
      27.2000   1.16271e-31
      27.3000   5.45995e-32
      27.4000   3.20573e-32
      27.5000   1.40100e-32
      27.6000   8.61355e-33
      27.7000   3.47264e-33
      27.8000   2.22877e-33
      27.9000   9.90046e-34
      28.0000   5.56827e-34
      28.1000   2.81237e-34
      28.2000   1.35407e-34
      28.3000   7.60924e-35
      28.4000   3.28395e-35
      28.5000   1.99337e-35
      28.6000   7.78794e-36
      28.7000   5.08658e-36
      28.8000   2.39651e-36
      28.9000   1.32586e-36
      29.0000   7.18045e-37
      29.1000   3.32765e-37
      29.2000   1.99136e-37
      29.3000   8.05211e-38
      29.4000   5.19382e-38
      29.5000   2.34768e-38
      29.6000   1.28507e-38
      29.7000   6.93351e-39
      29.8000   3.03266e-39
      29.9000   1.83737e-39
      30.0000   6.84949e-40
      30.1000   4.50467e-40
      30.2000   2.16963e-40
      30.3000   1.04153e-40
      30.4000   6.03721e-41
      30.5000   2.41248e-41
      30.6000   1.53736e-41
      30.7000   6.66458e-42
      30.8000   3.44439e-42
      30.9000   1.88755e-42
      31.0000   7.31478e-43
      31.1000   4.56823e-43
      31.2000   1.84971e-43
      31.3000   1.02295e-43
      31.4000   4.76441e-44
      31.5000   2.24208e-44
      31.6000   1.26117e-44
      31.7000   2.80260e-45
      31.8000   2.80260e-45
      31.9000   2.80260e-45
      32.0000       0.00000
      32.1000       0.00000
      32.2000       0.00000
      32.3000       0.00000
      32.4000       0.00000
      32.5000       0.00000
      32.6000       0.00000
      32.7000       0.00000
      32.8000       0.00000
      32.9000       0.00000
      33.0000       0.00000
      33.1000       0.00000
      33.2000       0.00000
      33.3000       0.00000
      33.4000       0.00000
      33.5000       0.00000
      33.6000       0.00000
      33.7000       0.00000
      33.8000       0.00000
      33.9000       0.00000
      34.0000       0.00000
      34.1000       0.00000
      34.2000       0.00000
      34.3000       0.00000
      34.4000       0.00000
      34.5000       0.00000
      34.6000       0.00000
      34.7000       0.00000
      34.8000       0.00000
      34.9000       0.00000
      35.0000       0.00000
      35.1000       0.00000
      35.2000       0.00000
      35.3000       0.00000
      35.4000       0.00000
      35.5000       0.00000
      35.6000       0.00000
      35.7000       0.00000
      35.8000       0.00000
      35.9000       0.00000
      36.0000       0.00000
      36.1000       0.00000
      36.2000       0.00000
      36.3000       0.00000
      36.4000       0.00000
      36.5000       0.00000
      36.6000       0.00000
      36.7000       0.00000
      36.8000       0.00000
      36.9000       0.00000
      37.0000       0.00000
      37.1000       0.00000
      37.2000       0.00000
      37.3000       0.00000
      37.4000       0.00000
      37.5000       0.00000
      37.6000       0.00000
      37.7000       0.00000
      37.8000       0.00000
      37.9000       0.00000
      38.0000       0.00000
      38.1000       0.00000
      38.2000       0.00000
      38.3000       0.00000
      38.4000       0.00000
      38.5000       0.00000
      38.6000       0.00000
      38.7000       0.00000
      38.8000       0.00000
      38.9000       0.00000
      39.0000       0.00000
      39.1000       0.00000
      39.2000       0.00000
      39.3000       0.00000
      39.4000       0.00000
      39.5000       0.00000
      39.6000       0.00000
      39.7000       0.00000
      39.8000       0.00000
      39.9000       0.00000
      40.0000       0.00000
      40.1000       0.00000
      40.2000       0.00000
      40.3000       0.00000
      40.4000       0.00000
      40.5000       0.00000
      40.6000       0.00000
      40.7000       0.00000
      40.8000       0.00000
      40.9000       0.00000
      41.0000       0.00000
      41.1000       0.00000
      41.2000       0.00000
      41.3000       0.00000
      41.4000       0.00000
      41.5000       0.00000
      41.6000       0.00000
      41.7000       0.00000
      41.8000       0.00000
      41.9000       0.00000
      42.0000       0.00000
      42.1000       0.00000
      42.2000       0.00000
      42.3000       0.00000
      42.4000       0.00000
      42.5000       0.00000
      42.6000       0.00000
      42.7000       0.00000
      42.8000       0.00000
      42.9000       0.00000
      43.0000       0.00000
      43.1000       0.00000
      43.2000       0.00000
      43.3000       0.00000
      43.4000       0.00000
      43.5000       0.00000
      43.6000       0.00000
      43.7000       0.00000
      43.8000       0.00000
      43.9000       0.00000
      44.0000       0.00000
      44.1000       0.00000
      44.2000       0.00000
      44.3000       0.00000
      44.4000       0.00000
      44.5000       0.00000
      44.6000       0.00000
      44.7000       0.00000
      44.8000       0.00000
      44.9000       0.00000
      45.0000       0.00000
      45.1000       0.00000
      45.2000       0.00000
      45.3000       0.00000
      45.4000       0.00000
      45.5000       0.00000
      45.6000       0.00000
      45.7000       0.00000
      45.8000       0.00000
      45.9000       0.00000
      46.0000       0.00000
      46.1000       0.00000
      46.2000       0.00000
      46.3000       0.00000
      46.4000       0.00000
      46.5000       0.00000
      46.6000       0.00000
      46.7000       0.00000
      46.8000       0.00000
      46.9000       0.00000
      47.0000       0.00000
      47.1000       0.00000
      47.2000       0.00000
      47.3000       0.00000
      47.4000       0.00000
      47.5000       0.00000
      47.6000       0.00000
      47.7000       0.00000
      47.8000       0.00000
      47.9000       0.00000
      48.0000       0.00000
      48.1000       0.00000
      48.2000       0.00000
      48.3000       0.00000
      48.4000       0.00000
      48.5000       0.00000
      48.6000       0.00000
      48.7000       0.00000
      48.8000       0.00000
      48.9000       0.00000
      49.0000       0.00000
      49.1000       0.00000
      49.2000       0.00000
      49.3000       0.00000
      49.4000       0.00000
      49.5000       0.00000
      49.6000       0.00000
      49.7000       0.00000
      49.8000       0.00000
      49.9000       0.00000
      50.0000       0.00000
      50.1000       0.00000
      50.2000       0.00000
      50.3000       0.00000
      50.4000       0.00000
      50.5000       0.00000
      50.6000       0.00000
      50.7000       0.00000
      50.8000       0.00000
      50.9000       0.00000
      51.0000       0.00000
      51.1000       0.00000
      51.2000       0.00000
      51.3000       0.00000
      51.4000       0.00000
      51.5000       0.00000
      51.6000       0.00000
      51.7000       0.00000
      51.8000       0.00000
      51.9000       0.00000
      52.0000       0.00000
      52.1000       0.00000
      52.2000       0.00000
      52.3000       0.00000
      52.4000       0.00000
      52.5000       0.00000
      52.6000       0.00000
      52.7000       0.00000
      52.8000       0.00000
      52.9000       0.00000
      53.0000       0.00000
      53.1000       0.00000
      53.2000       0.00000
      53.3000       0.00000
      53.4000       0.00000
      53.5000       0.00000
      53.6000       0.00000
      53.7000       0.00000
      53.8000       0.00000
      53.9000       0.00000
      54.0000       0.00000
      54.1000       0.00000
      54.2000       0.00000
      54.3000       0.00000
      54.4000       0.00000
      54.5000       0.00000
      54.6000       0.00000
      54.7000       0.00000
      54.8000       0.00000
      54.9000       0.00000
      55.0000       0.00000
      55.1000       0.00000
      55.2000       0.00000
      55.3000       0.00000
      55.4000       0.00000
      55.5000       0.00000
      55.6000       0.00000
      55.7000       0.00000
      55.8000       0.00000
      55.9000       0.00000
      56.0000       0.00000
      56.1000       0.00000
      56.2000       0.00000
      56.3000       0.00000
      56.4000       0.00000
      56.5000       0.00000
      56.6000       0.00000
      56.7000       0.00000
      56.8000       0.00000
      56.9000       0.00000
      57.0000       0.00000
      57.1000       0.00000
      57.2000       0.00000
      57.3000       0.00000
      57.4000       0.00000
      57.5000       0.00000
      57.6000       0.00000
      57.7000       0.00000
      57.8000       0.00000
      57.9000       0.00000
      58.0000       0.00000
      58.1000       0.00000
      58.2000       0.00000
      58.3000       0.00000
      58.4000       0.00000
      58.5000       0.00000
      58.6000       0.00000
      58.7000       0.00000
      58.8000       0.00000
      58.9000       0.00000
      59.0000       0.00000
      59.1000       0.00000
      59.2000       0.00000
      59.3000       0.00000
      59.4000       0.00000
      59.5000       0.00000
      59.6000       0.00000
      59.7000       0.00000
      59.8000       0.00000
      59.9000       0.00000
      60.0000       0.00000
      60.1000       0.00000
      60.2000       0.00000
      60.3000       0.00000
      60.4000       0.00000
      60.5000       0.00000
      60.6000       0.00000
      60.7000       0.00000
      60.8000       0.00000
      60.9000       0.00000
      61.0000       0.00000
      61.1000       0.00000
      61.2000       0.00000
      61.3000       0.00000
      61.4000       0.00000
      61.5000       0.00000
      61.6000       0.00000
      61.7000       0.00000
      61.8000       0.00000
      61.9000       0.00000
      62.0000       0.00000
      62.1000       0.00000
      62.2000       0.00000
      62.3000       0.00000
      62.4000       0.00000
      62.5000       0.00000
      62.6000       0.00000
      62.7000       0.00000
      62.8000       0.00000
      62.9000       0.00000
      63.0000       0.00000
      63.1000       0.00000
      63.2000       0.00000
      63.3000       0.00000
      63.4000       0.00000
      63.5000       0.00000
      63.6000       0.00000
      63.7000       0.00000
      63.8000       0.00000
      63.9000       0.00000
      64.0000       0.00000
      64.1000       0.00000
      64.2000       0.00000
      64.3000       0.00000
      64.4000       0.00000
      64.5000       0.00000
      64.6000       0.00000
      64.7000       0.00000
      64.8000       0.00000
      64.9000       0.00000
      65.0000       0.00000
      65.1000       0.00000
      65.2000       0.00000
      65.3000       0.00000
      65.4000       0.00000
      65.5000       0.00000
      65.6000       0.00000
      65.7000       0.00000
      65.8000       0.00000
      65.9000       0.00000
      66.0000       0.00000
      66.1000       0.00000
      66.2000       0.00000
      66.3000       0.00000
      66.4000       0.00000
      66.5000       0.00000
      66.6000       0.00000
      66.7000       0.00000
      66.8000       0.00000
      66.9000       0.00000
      67.0000       0.00000
      67.1000       0.00000
      67.2000       0.00000
      67.3000       0.00000
      67.4000       0.00000
      67.5000       0.00000
      67.6000       0.00000
      67.7000       0.00000
      67.8000       0.00000
      67.9000       0.00000
      68.0000       0.00000
      68.1000       0.00000
      68.2000       0.00000
      68.3000       0.00000
      68.4000       0.00000
      68.5000       0.00000
      68.6000       0.00000
      68.7000       0.00000
      68.8000       0.00000
      68.9000       0.00000
      69.0000       0.00000
      69.1000       0.00000
      69.2000       0.00000
      69.3000       0.00000
      69.4000       0.00000
      69.5000       0.00000
      69.6000       0.00000
      69.7000       0.00000
      69.8000       0.00000
      69.9000       0.00000
      70.0000       0.00000
      70.1000       0.00000
      70.2000       0.00000
      70.3000       0.00000
      70.4000       0.00000
      70.5000       0.00000
      70.6000       0.00000
      70.7000       0.00000
      70.8000       0.00000
      70.9000       0.00000
      71.0000       0.00000
      71.1000       0.00000
      71.2000       0.00000
      71.3000       0.00000
      71.4000       0.00000
      71.5000       0.00000
      71.6000       0.00000
      71.7000       0.00000
      71.8000       0.00000
      71.9000       0.00000
      72.0000       0.00000
      72.1000       0.00000
      72.2000       0.00000
      72.3000       0.00000
      72.4000       0.00000
      72.5000       0.00000
      72.6000       0.00000
      72.7000       0.00000
      72.8000       0.00000
      72.9000       0.00000
      73.0000       0.00000
      73.1000       0.00000
      73.2000       0.00000
      73.3000       0.00000
      73.4000       0.00000
      73.5000       0.00000
      73.6000       0.00000
      73.7000       0.00000
      73.8000       0.00000
      73.9000       0.00000
      74.0000       0.00000
      74.1000       0.00000
      74.2000       0.00000
      74.3000       0.00000
      74.4000       0.00000
      74.5000       0.00000
      74.6000       0.00000
      74.7000       0.00000
      74.8000       0.00000
      74.9000       0.00000
      75.0000       0.00000
      75.1000       0.00000
      75.2000       0.00000
      75.3000       0.00000
      75.4000       0.00000
      75.5000       0.00000
      75.6000       0.00000
      75.7000       0.00000
      75.8000       0.00000
      75.9000       0.00000
      76.0000       0.00000
      76.1000       0.00000
      76.2000       0.00000
      76.3000       0.00000
      76.4000       0.00000
      76.5000       0.00000
      76.6000       0.00000
      76.7000       0.00000
      76.8000       0.00000
      76.9000       0.00000
      77.0000       0.00000
      77.1000       0.00000
      77.2000       0.00000
      77.3000       0.00000
      77.4000       0.00000
      77.5000       0.00000
      77.6000       0.00000
      77.7000       0.00000
      77.8000       0.00000
      77.9000       0.00000
      78.0000       0.00000
      78.1000       0.00000
      78.2000       0.00000
      78.3000       0.00000
      78.4000       0.00000
      78.5000       0.00000
      78.6000       0.00000
      78.7000       0.00000
      78.8000       0.00000
      78.9000       0.00000
      79.0000       0.00000
      79.1000       0.00000
      79.2000       0.00000
      79.3000       0.00000
      79.4000       0.00000
      79.5000       0.00000
      79.6000       0.00000
      79.7000       0.00000
      79.8000       0.00000
      79.9000       0.00000
      80.0000       0.00000
      80.1000       0.00000
      80.2000       0.00000
      80.3000       0.00000
      80.4000       0.00000
      80.5000       0.00000
      80.6000       0.00000
      80.7000       0.00000
      80.8000       0.00000
      80.9000       0.00000
      81.0000       0.00000
      81.1000       0.00000
      81.2000       0.00000
      81.3000       0.00000
      81.4000       0.00000
      81.5000       0.00000
      81.6000       0.00000
      81.7000       0.00000
      81.8000       0.00000
      81.9000       0.00000
      82.0000       0.00000
      82.1000       0.00000
      82.2000       0.00000
      82.3000       0.00000
      82.4000       0.00000
      82.5000       0.00000
      82.6000       0.00000
      82.7000       0.00000
      82.8000       0.00000
      82.9000       0.00000
      83.0000       0.00000
      83.1000       0.00000
      83.2000       0.00000
      83.3000       0.00000
      83.4000       0.00000
      83.5000       0.00000
      83.6000       0.00000
      83.7000       0.00000
      83.8000       0.00000
      83.9000       0.00000
      84.0000       0.00000
      84.1000       0.00000
      84.2000       0.00000
      84.3000       0.00000
      84.4000       0.00000
      84.5000       0.00000
      84.6000       0.00000
      84.7000       0.00000
      84.8000       0.00000
      84.9000       0.00000
      85.0000       0.00000
      85.1000       0.00000
      85.2000       0.00000
      85.3000       0.00000
      85.4000       0.00000
      85.5000       0.00000
      85.6000       0.00000
      85.7000       0.00000
      85.8000       0.00000
      85.9000       0.00000
      86.0000       0.00000
      86.1000       0.00000
      86.2000       0.00000
      86.3000       0.00000
      86.4000       0.00000
      86.5000       0.00000
      86.6000       0.00000
      86.7000       0.00000
      86.8000       0.00000
      86.9000       0.00000
      87.0000       0.00000
      87.1000       0.00000
      87.2000       0.00000
      87.3000       0.00000
      87.4000       0.00000
      87.5000       0.00000
      87.6000       0.00000
      87.7000       0.00000
      87.8000       0.00000
      87.9000       0.00000
      88.0000       0.00000
      88.1000       0.00000
      88.2000       0.00000
      88.3000       0.00000
      88.4000       0.00000
      88.5000       0.00000
      88.6000       0.00000
      88.7000       0.00000
      88.8000       0.00000
      88.9000       0.00000
      89.0000       0.00000
      89.1000       0.00000
      89.2000       0.00000
      89.3000       0.00000
      89.4000       0.00000
      89.5000       0.00000
      89.6000       0.00000
      89.7000       0.00000
      89.8000       0.00000
      89.9000       0.00000
      90.0000       0.00000
      90.1000       0.00000
      90.2000       0.00000
      90.3000       0.00000
      90.4000       0.00000
      90.5000       0.00000
      90.6000       0.00000
      90.7000       0.00000
      90.8000       0.00000
      90.9000       0.00000
      91.0000       0.00000
      91.1000       0.00000
      91.2000       0.00000
      91.3000       0.00000
      91.4000       0.00000
      91.5000       0.00000
      91.6000       0.00000
      91.7000       0.00000
      91.8000       0.00000
      91.9000       0.00000
      92.0000       0.00000
      92.1000       0.00000
      92.2000       0.00000
      92.3000       0.00000
      92.4000       0.00000
      92.5000       0.00000
      92.6000       0.00000
      92.7000       0.00000
      92.8000       0.00000
      92.9000       0.00000
      93.0000       0.00000
      93.1000       0.00000
      93.2000       0.00000
      93.3000       0.00000
      93.4000       0.00000
      93.5000       0.00000
      93.6000       0.00000
      93.7000       0.00000
      93.8000       0.00000
      93.9000       0.00000
      94.0000       0.00000
      94.1000       0.00000
      94.2000       0.00000
      94.3000       0.00000
      94.4000       0.00000
      94.5000       0.00000
      94.6000       0.00000
      94.7000       0.00000
      94.8000       0.00000
      94.9000       0.00000
      95.0000       0.00000
      95.1000       0.00000
      95.2000       0.00000
      95.3000       0.00000
      95.4000       0.00000
      95.5000       0.00000
      95.6000       0.00000
      95.7000       0.00000
      95.8000       0.00000
      95.9000       0.00000
      96.0000       0.00000
      96.1000       0.00000
      96.2000       0.00000
      96.3000       0.00000
      96.4000       0.00000
      96.5000       0.00000
      96.6000       0.00000
      96.7000       0.00000
      96.8000       0.00000
      96.9000       0.00000
      97.0000       0.00000
      97.1000       0.00000
      97.2000       0.00000
      97.3000       0.00000
      97.4000       0.00000
      97.5000       0.00000
      97.6000       0.00000
      97.7000       0.00000
      97.8000       0.00000
      97.9000       0.00000
      98.0000       0.00000
      98.1000       0.00000
      98.2000       0.00000
      98.3000       0.00000
      98.4000       0.00000
      98.5000       0.00000
      98.6000       0.00000
      98.7000       0.00000
      98.8000       0.00000
      98.9000       0.00000
      99.0000       0.00000
      99.1000       0.00000
      99.2000       0.00000
      99.3000       0.00000
      99.4000       0.00000
      99.5000       0.00000
      99.6000       0.00000
      99.7000       0.00000
      99.8000       0.00000
      99.9000       0.00000
      100.000       0.00000
      100.100       0.00000
      100.200       0.00000
      100.300       0.00000
      100.400       0.00000
      100.500       0.00000
      100.600       0.00000
      100.700       0.00000
      100.800       0.00000
      100.900       0.00000
      101.000       0.00000
      101.100       0.00000
      101.200       0.00000
      101.300       0.00000
      101.400       0.00000
      101.500       0.00000
      101.600       0.00000
      101.700       0.00000
      101.800       0.00000
      101.900       0.00000
      102.000       0.00000
      102.100       0.00000
      102.200       0.00000
      102.300       0.00000
      102.400       0.00000
      102.500       0.00000
      102.600       0.00000
      102.700       0.00000
      102.800       0.00000
      102.900       0.00000
      103.000       0.00000
      103.100       0.00000
      103.200       0.00000
      103.300       0.00000
      103.400       0.00000
      103.500       0.00000
      103.600       0.00000
      103.700       0.00000
      103.800       0.00000
      103.900       0.00000
      104.000       0.00000
      104.100       0.00000
      104.200       0.00000
      104.300       0.00000
      104.400       0.00000
      104.500       0.00000
      104.600       0.00000
      104.700       0.00000
      104.800       0.00000
      104.900       0.00000
      105.000       0.00000
      105.100       0.00000
      105.200       0.00000
      105.300       0.00000
      105.400       0.00000
      105.500       0.00000
      105.600       0.00000
      105.700       0.00000
      105.800       0.00000
      105.900       0.00000
      106.000       0.00000
      106.100       0.00000
      106.200       0.00000
      106.300       0.00000
      106.400       0.00000
      106.500       0.00000
      106.600       0.00000
      106.700       0.00000
      106.800       0.00000
      106.900       0.00000
      107.000       0.00000
      107.100       0.00000
      107.200       0.00000
      107.300       0.00000
      107.400       0.00000
      107.500       0.00000
      107.600       0.00000
      107.700       0.00000
      107.800       0.00000
      107.900       0.00000
      108.000       0.00000
      108.100       0.00000
      108.200       0.00000
      108.300       0.00000
      108.400       0.00000
      108.500       0.00000
      108.600       0.00000
      108.700       0.00000
      108.800       0.00000
      108.900       0.00000
      109.000       0.00000
      109.100       0.00000
      109.200       0.00000
      109.300       0.00000
      109.400       0.00000
      109.500       0.00000
      109.600       0.00000
      109.700       0.00000
      109.800       0.00000
      109.900       0.00000
      110.000       0.00000
      110.100       0.00000
      110.200       0.00000
      110.300       0.00000
      110.400       0.00000
      110.500       0.00000
      110.600       0.00000
      110.700       0.00000
      110.800       0.00000
      110.900       0.00000
      111.000       0.00000
      111.100       0.00000
      111.200       0.00000
      111.300       0.00000
      111.400       0.00000
      111.500       0.00000
      111.600       0.00000
      111.700       0.00000
      111.800       0.00000
      111.900       0.00000
      112.000       0.00000
      112.100       0.00000
      112.200       0.00000
      112.300       0.00000
      112.400       0.00000
      112.500       0.00000
      112.600       0.00000
      112.700       0.00000
      112.800       0.00000
      112.900       0.00000
      113.000       0.00000
      113.100       0.00000
      113.200       0.00000
      113.300       0.00000
      113.400       0.00000
      113.500       0.00000
      113.600       0.00000
      113.700       0.00000
      113.800       0.00000
      113.900       0.00000
      114.000       0.00000
      114.100       0.00000
      114.200       0.00000
      114.300       0.00000
      114.400       0.00000
      114.500       0.00000
      114.600       0.00000
      114.700       0.00000
      114.800       0.00000
      114.900       0.00000
      115.000       0.00000
      115.100       0.00000
      115.200       0.00000
      115.300       0.00000
      115.400       0.00000
      115.500       0.00000
      115.600       0.00000
      115.700       0.00000
      115.800       0.00000
      115.900       0.00000
      116.000       0.00000
      116.100       0.00000
      116.200       0.00000
      116.300       0.00000
      116.400       0.00000
      116.500       0.00000
      116.600       0.00000
      116.700       0.00000
      116.800       0.00000
      116.900       0.00000
      117.000       0.00000
      117.100       0.00000
      117.200       0.00000
      117.300       0.00000
      117.400       0.00000
      117.500       0.00000
      117.600       0.00000
      117.700       0.00000
      117.800       0.00000
      117.900       0.00000
      118.000       0.00000
      118.100       0.00000
      118.200       0.00000
      118.300       0.00000
      118.400       0.00000
      118.500       0.00000
      118.600       0.00000
      118.700       0.00000
      118.800       0.00000
      118.900       0.00000
      119.000       0.00000
      119.100       0.00000
      119.200       0.00000
      119.300       0.00000
      119.400       0.00000
      119.500       0.00000
      119.600       0.00000
      119.700       0.00000
      119.800       0.00000
      119.900       0.00000
      120.000       0.00000
      120.100       0.00000
      120.200       0.00000
      120.300       0.00000
      120.400       0.00000
      120.500       0.00000
      120.600       0.00000
      120.700       0.00000
      120.800       0.00000
      120.900       0.00000
      121.000       0.00000
      121.100       0.00000
      121.200       0.00000
      121.300       0.00000
      121.400       0.00000
      121.500       0.00000
      121.600       0.00000
      121.700       0.00000
      121.800       0.00000
      121.900       0.00000
      122.000       0.00000
      122.100       0.00000
      122.200       0.00000
      122.300       0.00000
      122.400       0.00000
      122.500       0.00000
      122.600       0.00000
      122.700       0.00000
      122.800       0.00000
      122.900       0.00000
      123.000       0.00000
      123.100       0.00000
      123.200       0.00000
      123.300       0.00000
      123.400       0.00000
      123.500       0.00000
      123.600       0.00000
      123.700       0.00000
      123.800       0.00000
      123.900       0.00000
      124.000       0.00000
      124.100       0.00000
      124.200       0.00000
      124.300       0.00000
      124.400       0.00000
      124.500       0.00000
      124.600       0.00000
      124.700       0.00000
      124.800       0.00000
      124.900       0.00000
      125.000       0.00000
      125.100       0.00000
      125.200       0.00000
      125.300       0.00000
      125.400       0.00000
      125.500       0.00000
      125.600       0.00000
      125.700       0.00000
      125.800       0.00000
      125.900       0.00000
      126.000       0.00000
      126.100       0.00000
      126.200       0.00000
      126.300       0.00000
      126.400       0.00000
      126.500       0.00000
      126.600       0.00000
      126.700       0.00000
      126.800       0.00000
      126.900       0.00000
      127.000       0.00000
      127.100       0.00000
      127.200       0.00000
      127.300       0.00000
      127.400       0.00000
      127.500       0.00000
      127.600       0.00000
      127.700       0.00000
      127.800       0.00000
      127.900       0.00000
      128.000       0.00000
      128.100       0.00000
      128.200       0.00000
      128.300       0.00000
      128.400       0.00000
      128.500       0.00000
      128.600       0.00000
      128.700       0.00000
      128.800       0.00000
      128.900       0.00000
      129.000       0.00000
      129.100       0.00000
      129.200       0.00000
      129.300       0.00000
      129.400       0.00000
      129.500       0.00000
      129.600       0.00000
      129.700       0.00000
      129.800       0.00000
      129.900       0.00000
      130.000       0.00000
      130.100       0.00000
      130.200       0.00000
      130.300       0.00000
      130.400       0.00000
      130.500       0.00000
      130.600       0.00000
      130.700       0.00000
      130.800       0.00000
      130.900       0.00000
      131.000       0.00000
      131.100       0.00000
      131.200       0.00000
      131.300       0.00000
      131.400       0.00000
      131.500       0.00000
      131.600       0.00000
      131.700       0.00000
      131.800       0.00000
      131.900       0.00000
      132.000       0.00000
      132.100       0.00000
      132.200       0.00000
      132.300       0.00000
      132.400       0.00000
      132.500       0.00000
      132.600       0.00000
      132.700       0.00000
      132.800       0.00000
      132.900       0.00000
      133.000       0.00000
      133.100       0.00000
      133.200       0.00000
      133.300       0.00000
      133.400       0.00000
      133.500       0.00000
      133.600       0.00000
      133.700       0.00000
      133.800       0.00000
      133.900       0.00000
      134.000       0.00000
      134.100       0.00000
      134.200       0.00000
      134.300       0.00000
      134.400       0.00000
      134.500       0.00000
      134.600       0.00000
      134.700       0.00000
      134.800       0.00000
      134.900       0.00000
      135.000       0.00000
      135.100       0.00000
      135.200       0.00000
      135.300       0.00000
      135.400       0.00000
      135.500       0.00000
      135.600       0.00000
      135.700       0.00000
      135.800       0.00000
      135.900       0.00000
      136.000       0.00000
      136.100       0.00000
      136.200       0.00000
      136.300       0.00000
      136.400       0.00000
      136.500       0.00000
      136.600       0.00000
      136.700       0.00000
      136.800       0.00000
      136.900       0.00000
      137.000       0.00000
      137.100       0.00000
      137.200       0.00000
      137.300       0.00000
      137.400       0.00000
      137.500       0.00000
      137.600       0.00000
      137.700       0.00000
      137.800       0.00000
      137.900       0.00000
      138.000       0.00000
      138.100       0.00000
      138.200       0.00000
      138.300       0.00000
      138.400       0.00000
      138.500       0.00000
      138.600       0.00000
      138.700       0.00000
      138.800       0.00000
      138.900       0.00000
      139.000       0.00000
      139.100       0.00000
      139.200       0.00000
      139.300       0.00000
      139.400       0.00000
      139.500       0.00000
      139.600       0.00000
      139.700       0.00000
      139.800       0.00000
      139.900       0.00000
      140.000       0.00000
      140.100       0.00000
      140.200       0.00000
      140.300       0.00000
      140.400       0.00000
      140.500       0.00000
      140.600       0.00000
      140.700       0.00000
      140.800       0.00000
      140.900       0.00000
      141.000       0.00000
      141.100       0.00000
      141.200       0.00000
      141.300       0.00000
      141.400       0.00000
      141.500       0.00000
      141.600       0.00000
      141.700       0.00000
      141.800       0.00000
      141.900       0.00000
      142.000       0.00000
      142.100       0.00000
      142.200       0.00000
      142.300       0.00000
      142.400       0.00000
      142.500       0.00000
      142.600       0.00000
      142.700       0.00000
      142.800       0.00000
      142.900       0.00000
      143.000       0.00000
      143.100       0.00000
      143.200       0.00000
      143.300       0.00000
      143.400       0.00000
      143.500       0.00000
      143.600       0.00000
      143.700       0.00000
      143.800       0.00000
      143.900       0.00000
      144.000       0.00000
      144.100       0.00000
      144.200       0.00000
      144.300       0.00000
      144.400       0.00000
      144.500       0.00000
      144.600       0.00000
      144.700       0.00000
      144.800       0.00000
      144.900       0.00000
      145.000       0.00000
      145.100       0.00000
      145.200       0.00000
      145.300       0.00000
      145.400       0.00000
      145.500       0.00000
      145.600       0.00000
      145.700       0.00000
      145.800       0.00000
      145.900       0.00000
      146.000       0.00000
      146.100       0.00000
      146.200       0.00000
      146.300       0.00000
      146.400       0.00000
      146.500       0.00000
      146.600       0.00000
      146.700       0.00000
      146.800       0.00000
      146.900       0.00000
      147.000       0.00000
      147.100       0.00000
      147.200       0.00000
      147.300       0.00000
      147.400       0.00000
      147.500       0.00000
      147.600       0.00000
      147.700       0.00000
      147.800       0.00000
      147.900       0.00000
      148.000       0.00000
      148.100       0.00000
      148.200       0.00000
      148.300       0.00000
      148.400       0.00000
      148.500       0.00000
      148.600       0.00000
      148.700       0.00000
      148.800       0.00000
      148.900       0.00000
      149.000       0.00000
      149.100       0.00000
      149.200       0.00000
      149.300       0.00000
      149.400       0.00000
      149.500       0.00000
      149.600       0.00000
      149.700       0.00000
      149.800       0.00000
      149.900       0.00000
      150.000       0.00000
      150.100       0.00000
      150.200       0.00000
      150.300       0.00000
      150.400       0.00000
      150.500       0.00000
      150.600       0.00000
      150.700       0.00000
      150.800       0.00000
      150.900       0.00000
      151.000       0.00000
      151.100       0.00000
      151.200       0.00000
      151.300       0.00000
      151.400       0.00000
      151.500       0.00000
      151.600       0.00000
      151.700       0.00000
      151.800       0.00000
      151.900       0.00000
      152.000       0.00000
      152.100       0.00000
      152.200       0.00000
      152.300       0.00000
      152.400       0.00000
      152.500       0.00000
      152.600       0.00000
      152.700       0.00000
      152.800       0.00000
      152.900       0.00000
      153.000       0.00000
      153.100       0.00000
      153.200       0.00000
      153.300       0.00000
      153.400       0.00000
      153.500       0.00000
      153.600       0.00000
      153.700       0.00000
      153.800       0.00000
      153.900       0.00000
      154.000       0.00000
      154.100       0.00000
      154.200       0.00000
      154.300       0.00000
      154.400       0.00000
      154.500       0.00000
      154.600       0.00000
      154.700       0.00000
      154.800       0.00000
      154.900       0.00000
      155.000       0.00000
      155.100       0.00000
      155.200       0.00000
      155.300       0.00000
      155.400       0.00000
      155.500       0.00000
      155.600       0.00000
      155.700       0.00000
      155.800       0.00000
      155.900       0.00000
      156.000       0.00000
      156.100       0.00000
      156.200       0.00000
      156.300       0.00000
      156.400       0.00000
      156.500       0.00000
      156.600       0.00000
      156.700       0.00000
      156.800       0.00000
      156.900       0.00000
      157.000       0.00000
      157.100       0.00000
      157.200       0.00000
      157.300       0.00000
      157.400       0.00000
      157.500       0.00000
      157.600       0.00000
      157.700       0.00000
      157.800       0.00000
      157.900       0.00000
      158.000       0.00000
      158.100       0.00000
      158.200       0.00000
      158.300       0.00000
      158.400       0.00000
      158.500       0.00000
      158.600       0.00000
      158.700       0.00000
      158.800       0.00000
      158.900       0.00000
      159.000       0.00000
      159.100       0.00000
      159.200       0.00000
      159.300       0.00000
      159.400       0.00000
      159.500       0.00000
      159.600       0.00000
      159.700       0.00000
      159.800       0.00000
      159.900       0.00000
      160.000       0.00000
      160.100       0.00000
      160.200       0.00000
      160.300       0.00000
      160.400       0.00000
      160.500       0.00000
      160.600       0.00000
      160.700       0.00000
      160.800       0.00000
      160.900       0.00000
      161.000       0.00000
      161.100       0.00000
      161.200       0.00000
      161.300       0.00000
      161.400       0.00000
      161.500       0.00000
      161.600       0.00000
      161.700       0.00000
      161.800       0.00000
      161.900       0.00000
      162.000       0.00000
      162.100       0.00000
      162.200       0.00000
      162.300       0.00000
      162.400       0.00000
      162.500       0.00000
      162.600       0.00000
      162.700       0.00000
      162.800       0.00000
      162.900       0.00000
      163.000       0.00000
      163.100       0.00000
      163.200       0.00000
      163.300       0.00000
      163.400       0.00000
      163.500       0.00000
      163.600       0.00000
      163.700       0.00000
      163.800       0.00000
      163.900       0.00000
      164.000       0.00000
      164.100       0.00000
      164.200       0.00000
      164.300       0.00000
      164.400       0.00000
      164.500       0.00000
      164.600       0.00000
      164.700       0.00000
      164.800       0.00000
      164.900       0.00000
      165.000       0.00000
      165.100       0.00000
      165.200       0.00000
      165.300       0.00000
      165.400       0.00000
      165.500       0.00000
      165.600       0.00000
      165.700       0.00000
      165.800       0.00000
      165.900       0.00000
      166.000       0.00000
      166.100       0.00000
      166.200       0.00000
      166.300       0.00000
      166.400       0.00000
      166.500       0.00000
      166.600       0.00000
      166.700       0.00000
      166.800       0.00000
      166.900       0.00000
      167.000       0.00000
      167.100       0.00000
      167.200       0.00000
      167.300       0.00000
      167.400       0.00000
      167.500       0.00000
      167.600       0.00000
      167.700       0.00000
      167.800       0.00000
      167.900       0.00000
      168.000       0.00000
      168.100       0.00000
      168.200       0.00000
      168.300       0.00000
      168.400       0.00000
      168.500       0.00000
      168.600       0.00000
      168.700       0.00000
      168.800       0.00000
      168.900       0.00000
      169.000       0.00000
      169.100       0.00000
      169.200       0.00000
      169.300       0.00000
      169.400       0.00000
      169.500       0.00000
      169.600       0.00000
      169.700       0.00000
      169.800       0.00000
      169.900       0.00000
      170.000       0.00000
      170.100       0.00000
      170.200       0.00000
      170.300       0.00000
      170.400       0.00000
      170.500       0.00000
      170.600   8.37951e-40
      170.700   1.04271e-24
      170.800   1.39704e-20
      170.900   2.32179e-20
      171.000   2.37434e-20
      171.100   2.42786e-20
      171.200   2.48236e-20
      171.300   2.53789e-20
      171.400   2.59439e-20
      171.500   2.65188e-20
      171.600   2.71043e-20
      171.700   2.77008e-20
      171.800   2.83085e-20
      171.900   2.89270e-20
      172.000   2.95577e-20
      172.100   3.02015e-20
      172.200   3.08577e-20
      172.300   3.15259e-20
      172.400   3.22021e-20
      172.500   3.28906e-20
      172.600   3.35939e-20
      172.700   3.43114e-20
      172.800   3.50431e-20
      172.900   3.57912e-20
      173.000   3.65537e-20
      173.100   3.73318e-20
      173.200   3.81261e-20
      173.300   3.89370e-20
      173.400   3.97654e-20
      173.500   4.06104e-20
      173.600   4.14729e-20
      173.700   4.23530e-20
      173.800   4.32525e-20
      173.900   4.41688e-20
      174.000   4.51042e-20
      174.100   4.60604e-20
      174.200   4.70346e-20
      174.300   4.80275e-20
      174.400   4.90415e-20
      174.500   5.00750e-20
      174.600   5.11302e-20
      174.700   5.22060e-20
      174.800   5.33020e-20
      174.900   5.44199e-20
      175.000   5.55605e-20
      175.100   5.67213e-20
      175.200   5.79082e-20
      175.300   5.91163e-20
      175.400   6.03493e-20
      175.500   6.16054e-20
      175.600   6.28843e-20
      175.700   6.41884e-20
      175.800   6.55189e-20
      175.900   6.68735e-20
      176.000   6.82528e-20
      176.100   6.96589e-20
      176.200   7.10917e-20
      176.300   7.25529e-20
      176.400   7.40404e-20
      176.500   7.55556e-20
      176.600   7.71013e-20
      176.700   7.86749e-20
      176.800   8.02771e-20
      176.900   8.19091e-20
      177.000   8.35732e-20
      177.100   8.52685e-20
      177.200   8.69934e-20
      177.300   8.87499e-20
      177.400   9.05406e-20
      177.500   9.23637e-20
      177.600   9.42192e-20
      177.700   9.61082e-20
      177.800   9.80307e-20
      177.900   9.99900e-20
      178.000   1.01991e-19
      178.100   1.04027e-19
      178.200   1.06100e-19
      178.300   1.08212e-19
      178.400   1.10360e-19
      178.500   1.12546e-19
      178.600   1.14772e-19
      178.700   1.17041e-19
      178.800   1.19347e-19
      178.900   1.21693e-19
      179.000   1.24080e-19
      179.100   1.26511e-19
      179.200   1.28988e-19
      179.300   1.31505e-19
      179.400   1.34068e-19
      179.500   1.36677e-19
      179.600   1.39339e-19
      179.700   1.42044e-19
      179.800   1.44797e-19
      179.900   1.47599e-19
      180.000   1.50457e-19
      180.100   1.53361e-19
      180.200   1.56320e-19
      180.300   1.59330e-19
      180.400   1.62400e-19
      180.500   1.65525e-19
      180.600   1.68703e-19
      180.700   1.71939e-19
      180.800   1.75267e-19
      180.900   1.78713e-19
      181.000   1.82248e-19
      181.100   1.85845e-19
      181.200   1.89514e-19
      181.300   1.93256e-19
      181.400   1.97063e-19
      181.500   2.00940e-19
      181.600   2.04893e-19
      181.700   2.08922e-19
      181.800   2.13021e-19
      181.900   2.17198e-19
      182.000   2.21455e-19
      182.100   2.25787e-19
      182.200   2.30212e-19
      182.300   2.34711e-19
      182.400   2.39291e-19
      182.500   2.43957e-19
      182.600   2.48715e-19
      182.700   2.53554e-19
      182.800   2.58477e-19
      182.900   2.63494e-19
      183.000   2.68601e-19
      183.100   2.73798e-19
      183.200   2.79088e-19
      183.300   2.84474e-19
      183.400   2.89959e-19
      183.500   2.95538e-19
      183.600   3.01216e-19
      183.700   3.07183e-19
      183.800   3.14065e-19
      183.900   3.21591e-19
      184.000   3.29274e-19
      184.100   3.37145e-19
      184.200   3.45190e-19
      184.300   3.53425e-19
      184.400   3.61841e-19
      184.500   3.70438e-19
      184.600   3.79227e-19
      184.700   3.88218e-19
      184.800   3.97406e-19
      184.900   4.06793e-19
      185.000   4.16385e-19
      185.100   4.26196e-19
      185.200   4.36225e-19
      185.300   4.46463e-19
      185.400   4.56926e-19
      185.500   4.67613e-19
      185.600   4.78537e-19
      185.700   4.89711e-19
      185.800   5.01131e-19
      185.900   5.12792e-19
      186.000   5.24727e-19
      186.100   5.36905e-19
      186.200   5.49335e-19
      186.300   5.62030e-19
      186.400   5.75004e-19
      186.500   5.88256e-19
      186.600   6.01777e-19
      186.700   6.15571e-19
      186.800   6.29653e-19
      186.900   6.44038e-19
      187.000   6.58724e-19
      187.100   6.73694e-19
      187.200   6.88987e-19
      187.300   7.04625e-19
      187.400   7.20581e-19
      187.500   7.36858e-19
      187.600   7.53465e-19
      187.700   7.70411e-19
      187.800   7.87720e-19
      187.900   8.05381e-19
      188.000   8.23382e-19
      188.100   8.41746e-19
      188.200   8.60493e-19
      188.300   8.79629e-19
      188.400   8.99157e-19
      188.500   9.19072e-19
      188.600   9.39405e-19
      188.700   9.60193e-19
      188.800   9.81388e-19
      188.900   1.00300e-18
      189.000   1.02506e-18
      189.100   1.04759e-18
      189.200   1.07057e-18
      189.300   1.09400e-18
      189.400   1.11790e-18
      189.500   1.14230e-18
      189.600   1.16722e-18
      189.700   1.19262e-18
      189.800   1.21864e-18
      189.900   1.24525e-18
      190.000   1.27245e-18
      190.100   1.30017e-18
      190.200   1.32845e-18
      190.300   1.35731e-18
      190.400   1.38677e-18
      190.500   1.41684e-18
      190.600   1.44749e-18
      190.700   1.47877e-18
      190.800   1.51067e-18
      190.900   1.54322e-18
      191.000   1.57651e-18
      191.100   1.61046e-18
      191.200   1.64511e-18
      191.300   1.68044e-18
      191.400   1.71650e-18
      191.500   1.75328e-18
      191.600   1.79078e-18
      191.700   1.82902e-18
      191.800   1.86806e-18
      191.900   1.90784e-18
      192.000   1.94838e-18
      192.100   1.98979e-18
      192.200   2.03208e-18
      192.300   2.07518e-18
      192.400   2.11919e-18
      192.500   2.16404e-18
      192.600   2.20974e-18
      192.700   2.25634e-18
      192.800   2.30194e-18
      192.900   2.34350e-18
      193.000   2.38525e-18
      193.100   2.42774e-18
      193.200   2.47104e-18
      193.300   2.51501e-18
      193.400   2.55968e-18
      193.500   2.60510e-18
      193.600   2.65130e-18
      193.700   2.69827e-18
      193.800   2.74598e-18
      193.900   2.79442e-18
      194.000   2.84371e-18
      194.100   2.89394e-18
      194.200   2.94494e-18
      194.300   2.99679e-18
      194.400   3.04949e-18
      194.500   3.10309e-18
      194.600   3.15756e-18
      194.700   3.21285e-18
      194.800   3.26903e-18
      194.900   3.32614e-18
      195.000   3.38420e-18
      195.100   3.44338e-18
      195.200   3.50340e-18
      195.300   3.56436e-18
      195.400   3.62631e-18
      195.500   3.68927e-18
      195.600   3.75321e-18
      195.700   3.81810e-18
      195.800   3.88347e-18
      195.900   3.94583e-18
      196.000   3.87014e-18
      196.100   3.79411e-18
      196.200   3.71954e-18
      196.300   3.64639e-18
      196.400   3.57464e-18
      196.500   3.50424e-18
      196.600   3.43518e-18
      196.700   3.36744e-18
      196.800   3.30104e-18
      196.900   3.23600e-18
      197.000   3.17218e-18
      197.100   3.10957e-18
      197.200   3.04815e-18
      197.300   2.98789e-18
      197.400   2.92875e-18
      197.500   2.87072e-18
      197.600   2.81381e-18
      197.700   2.75810e-18
      197.800   2.70350e-18
      197.900   2.64990e-18
      198.000   2.59733e-18
      198.100   2.54575e-18
      198.200   2.49515e-18
      198.300   2.44552e-18
      198.400   2.39684e-18
      198.500   2.34919e-18
      198.600   2.30249e-18
      198.700   2.25669e-18
      198.800   2.21177e-18
      198.900   2.16773e-18
      199.000   2.12451e-18
      199.100   2.08213e-18
      199.200   2.04059e-18
      199.300   1.99996e-18
      199.400   1.96014e-18
      199.500   1.92110e-18
      199.600   1.88279e-18
      199.700   1.84524e-18
      199.800   1.80843e-18
      199.900   1.77233e-18
      200.000   1.73693e-18
      200.100   1.70239e-18
      200.200   1.66846e-18
      200.300   1.63521e-18
      200.400   1.60261e-18
      200.500   1.57065e-18
      200.600   1.53934e-18
      200.700   1.50864e-18
      200.800   1.47853e-18
      200.900   1.44904e-18
      201.000   1.42015e-18
      201.100   1.39185e-18
      201.200   1.36412e-18
      201.300   1.33692e-18
      201.400   1.31028e-18
      201.500   1.28416e-18
      201.600   1.25855e-18
      201.700   1.23346e-18
      201.800   1.20887e-18
      201.900   1.18476e-18
      202.000   1.16118e-18
      202.100   1.13805e-18
      202.200   1.11539e-18
      202.300   1.09325e-18
      202.400   1.07171e-18
      202.500   1.05064e-18
      202.600   1.02996e-18
      202.700   1.00972e-18
      202.800   9.89877e-19
      202.900   9.70438e-19
      203.000   9.51386e-19
      203.100   9.32722e-19
      203.200   9.14414e-19
      203.300   8.96469e-19
      203.400   8.78878e-19
      203.500   8.61633e-19
      203.600   8.44731e-19
      203.700   8.28169e-19
      203.800   8.11943e-19
      203.900   7.96058e-19
      204.000   7.80482e-19
      204.100   7.65214e-19
      204.200   7.50256e-19
      204.300   7.35591e-19
      204.400   7.21218e-19
      204.500   7.07130e-19
      204.600   6.93318e-19
      204.700   6.79781e-19
      204.800   6.66528e-19
      204.900   6.53544e-19
      205.000   6.40817e-19
      205.100   6.28341e-19
      205.200   6.16111e-19
      205.300   6.04125e-19
      205.400   5.92374e-19
      205.500   5.80856e-19
      205.600   5.68577e-19
      205.700   5.55661e-19
      205.800   5.42909e-19
      205.900   5.30462e-19
      206.000   5.18313e-19
      206.100   5.06438e-19
      206.200   4.94833e-19
      206.300   4.83497e-19
      206.400   4.72421e-19
      206.500   4.61591e-19
      206.600   4.51011e-19
      206.700   4.40674e-19
      206.800   4.30566e-19
      206.900   4.20689e-19
      207.000   4.11040e-19
      207.100   4.01617e-19
      207.200   3.92413e-19
      207.300   3.83414e-19
      207.400   3.74618e-19
      207.500   3.66020e-19
      207.600   3.57617e-19
      207.700   3.49403e-19
      207.800   3.41372e-19
      207.900   3.33522e-19
      208.000   3.25851e-19
      208.100   3.18352e-19
      208.200   3.11021e-19
      208.300   3.03858e-19
      208.400   2.96863e-19
      208.500   2.90026e-19
      208.600   2.83341e-19
      208.700   2.76807e-19
      208.800   2.70421e-19
      208.900   2.63418e-19
      209.000   2.55247e-19
      209.100   2.47004e-19
      209.200   2.39020e-19
      209.300   2.31289e-19
      209.400   2.23804e-19
      209.500   2.16557e-19
      209.600   2.09539e-19
      209.700   2.02750e-19
      209.800   1.96186e-19
      209.900   1.89827e-19
      210.000   1.83673e-19
      210.100   1.77715e-19
      210.200   1.71947e-19
      210.300   1.66362e-19
      210.400   1.60956e-19
      210.500   1.55722e-19
      210.600   1.50657e-19
      210.700   1.45753e-19
      210.800   1.41006e-19
      210.900   1.36411e-19
      211.000   1.31963e-19
      211.100   1.27660e-19
      211.200   1.23493e-19
      211.300   1.19468e-19
      211.400   1.15573e-19
      211.500   1.11802e-19
      211.600   1.08153e-19
      211.700   1.04622e-19
      211.800   1.01203e-19
      211.900   9.78936e-20
      212.000   9.46933e-20
      212.100   9.15951e-20
      212.200   8.85963e-20
      212.300   8.56948e-20
      212.400   8.28863e-20
      212.500   8.01693e-20
      212.600   7.75402e-20
      212.700   7.49962e-20
      212.800   7.25343e-20
      212.900   7.01528e-20
      213.000   6.78488e-20
      213.100   6.56222e-20
      213.200   6.34680e-20
      213.300   6.13832e-20
      213.400   5.93663e-20
      213.500   5.74148e-20
      213.600   5.55264e-20
      213.700   5.37003e-20
      213.800   5.19328e-20
      213.900   5.02238e-20
      214.000   4.85698e-20
      214.100   4.69698e-20
      214.200   4.54227e-20
      214.300   4.39256e-20
      214.400   4.24773e-20
      214.500   4.10765e-20
      214.600   3.97221e-20
      214.700   3.84115e-20
      214.800   3.71441e-20
      214.900   3.59186e-20
      215.000   3.47327e-20
      215.100   3.35864e-20
      215.200   3.24785e-20
      215.300   3.14075e-20
      215.400   3.03714e-20
      215.500   2.93694e-20
      215.600   2.84010e-20
      215.700   2.74638e-20
      215.800   2.65575e-20
      215.900   2.56815e-20
      216.000   2.48340e-20
      216.100   2.40144e-20
      216.200   2.32220e-20
      216.300   2.24557e-20
      216.400   2.17148e-20
      216.500   2.09981e-20
      216.600   2.03052e-20
      216.700   1.96353e-20
      216.800   1.89873e-20
      216.900   1.83608e-20
      217.000   1.77549e-20
      217.100   1.71690e-20
      217.200   1.66025e-20
      217.300   1.60547e-20
      217.400   1.55247e-20
      217.500   1.50126e-20
      217.600   1.45172e-20
      217.700   1.40379e-20
      217.800   1.35746e-20
      217.900   1.31267e-20
      218.000   1.26938e-20
      218.100   1.22751e-20
      218.200   1.18702e-20
      218.300   1.14787e-20
      218.400   1.11001e-20
      218.500   1.07337e-20
      218.600   1.03795e-20
      218.700   1.00369e-20
      218.800   9.70556e-21
      218.900   9.38522e-21
      219.000   9.07527e-21
      219.100   8.77542e-21
      219.200   8.48550e-21
      219.300   8.20504e-21
      219.400   7.93371e-21
      219.500   7.67131e-21
      219.600   7.41753e-21
      219.700   7.17210e-21
      219.800   6.93476e-21
      219.900   6.70514e-21
      220.000   6.48303e-21
      220.100   6.26823e-21
      220.200   6.06046e-21
      220.300   5.85952e-21
      220.400   5.66518e-21
      220.500   5.47727e-21
      220.600   5.29553e-21
      220.700   5.11969e-21
      220.800   4.94959e-21
      220.900   4.78519e-21
      221.000   4.62613e-21
      221.100   4.47226e-21
      221.200   4.32353e-21
      221.300   4.17967e-21
      221.400   4.04054e-21
      221.500   3.90601e-21
      221.600   3.77590e-21
      221.700   3.65006e-21
      221.800   3.52833e-21
      221.900   3.41065e-21
      222.000   3.29689e-21
      222.100   3.18681e-21
      222.200   3.08043e-21
      222.300   2.97751e-21
      222.400   2.87803e-21
      222.500   2.78179e-21
      222.600   2.68877e-21
      222.700   2.59881e-21
      222.800   2.51181e-21
      222.900   2.42771e-21
      223.000   2.34638e-21
      223.100   2.26774e-21
      223.200   2.19172e-21
      223.300   2.11821e-21
      223.400   2.04715e-21
      223.500   1.97840e-21
      223.600   1.91198e-21
      223.700   1.84775e-21
      223.800   1.78563e-21
      223.900   1.72563e-21
      224.000   1.66757e-21
      224.100   1.61146e-21
      224.200   1.55720e-21
      224.300   1.50476e-21
      224.400   1.45405e-21
      224.500   1.40504e-21
      224.600   1.35764e-21
      224.700   1.31185e-21
      224.800   1.26758e-21
      224.900   1.22477e-21
      225.000   1.18340e-21
      225.100   1.14339e-21
      225.200   1.10472e-21
      225.300   1.06737e-21
      225.400   1.03125e-21
      225.500   9.96323e-22
      225.600   9.62570e-22
      225.700   9.29961e-22
      225.800   8.98426e-22
      225.900   8.67954e-22
      226.000   8.38509e-22
      226.100   8.10045e-22
      226.200   7.82534e-22
      226.300   7.56010e-22
      226.400   7.30398e-22
      226.500   7.05622e-22
      226.600   6.81664e-22
      226.700   6.58512e-22
      226.800   6.36120e-22
      226.900   6.14481e-22
      227.000   5.93572e-22
      227.100   5.73361e-22
      227.200   5.53837e-22
      227.300   5.34972e-22
      227.400   5.16742e-22
      227.500   4.99128e-22
      227.600   4.82108e-22
      227.700   4.65665e-22
      227.800   4.49779e-22
      227.900   4.34432e-22
      228.000   4.19605e-22
      228.100   4.05280e-22
      228.200   3.91439e-22
      228.300   3.78069e-22
      228.400   3.65157e-22
      228.500   3.52679e-22
      228.600   3.40627e-22
      228.700   3.28984e-22
      228.800   3.17736e-22
      228.900   3.06877e-22
      229.000   2.96383e-22
      229.100   2.86249e-22
      229.200   2.76459e-22
      229.300   2.67003e-22
      229.400   2.57871e-22
      229.500   2.49050e-22
      229.600   2.40528e-22
      229.700   2.32300e-22
      229.800   2.24351e-22
      229.900   2.16674e-22
      230.000   2.09178e-22
      230.100   2.01366e-22
      230.200   1.93826e-22
      230.300   1.86571e-22
      230.400   1.79585e-22
      230.500   1.72861e-22
      230.600   1.66392e-22
      230.700   1.60163e-22
      230.800   1.54168e-22
      230.900   1.48397e-22
      231.000   1.42840e-22
      231.100   1.37491e-22
      231.200   1.32341e-22
      231.300   1.27385e-22
      231.400   1.22615e-22
      231.500   1.18020e-22
      231.600   1.13596e-22
      231.700   1.09339e-22
      231.800   1.05240e-22
      231.900   1.01295e-22
      232.000   9.74960e-23
      232.100   9.38386e-23
      232.200   9.03184e-23
      232.300   8.69300e-23
      232.400   8.36673e-23
      232.500   8.05257e-23
      232.600   7.75022e-23
      232.700   7.45915e-23
      232.800   7.17895e-23
      232.900   6.90918e-23
      233.000   6.64948e-23
      233.100   6.39954e-23
      233.200   6.15886e-23
      233.300   5.92724e-23
      233.400   5.70426e-23
      233.500   5.48978e-23
      233.600   5.28344e-23
      233.700   5.08470e-23
      233.800   4.86956e-23
      233.900   4.66037e-23
      234.000   4.45998e-23
      234.100   4.26816e-23
      234.200   4.08456e-23
      234.300   3.90875e-23
      234.400   3.74043e-23
      234.500   3.57929e-23
      234.600   3.42500e-23
      234.700   3.27732e-23
      234.800   3.13598e-23
      234.900   3.00063e-23
      235.000   2.87104e-23
      235.100   2.74700e-23
      235.200   2.62828e-23
      235.300   2.51462e-23
      235.400   2.40583e-23
      235.500   2.30169e-23
      235.600   2.20204e-23
      235.700   2.10666e-23
      235.800   2.01554e-23
      235.900   1.92832e-23
      236.000   1.84484e-23
      236.100   1.76492e-23
      236.200   1.68842e-23
      236.300   1.61520e-23
      236.400   1.54513e-23
      236.500   1.47806e-23
      236.600   1.41386e-23
      236.700   1.35242e-23
      236.800   1.29361e-23
      236.900   1.23733e-23
      237.000   1.18346e-23
      237.100   1.13190e-23
      237.200   1.08258e-23
      237.300   1.03537e-23
      237.400   9.90186e-24
      237.500   9.46943e-24
      237.600   9.05585e-24
      237.700   8.66084e-24
      237.800   8.28285e-24
      237.900   7.92111e-24
      238.000   7.57502e-24
      238.100   7.24372e-24
      238.200   6.92673e-24
      238.300   6.62342e-24
      238.400   6.33317e-24
      238.500   6.05540e-24
      238.600   5.78968e-24
      238.700   5.53549e-24
      238.800   5.29224e-24
      238.900   5.05951e-24
      239.000   4.83681e-24
      239.100   4.62379e-24
      239.200   4.42005e-24
      239.300   4.22541e-24
      239.400   4.03948e-24
      239.500   3.86159e-24
      239.600   3.69136e-24
      239.700   3.52861e-24
      239.800   3.37286e-24
      239.900   3.22387e-24
      240.000   3.08136e-24
      240.100   2.94501e-24
      240.200   2.81460e-24
      240.300   2.68987e-24
      240.400   2.57053e-24
      240.500   2.45647e-24
      240.600   2.34737e-24
      240.700   2.24302e-24
      240.800   2.14338e-24
      240.900   2.04825e-24
      241.000   1.95728e-24
      241.100   1.87028e-24
      241.200   1.78708e-24
      241.300   1.70751e-24
      241.400   1.63144e-24
      241.500   1.55870e-24
      241.600   1.48915e-24
      241.700   1.42265e-24
      241.800   1.35905e-24
      241.900   1.29825e-24
      242.000   1.24013e-24
      242.100   1.18458e-24
      242.200   1.13158e-24
      242.300   1.08100e-24
      242.400   1.03263e-24
      242.500   9.86393e-25
      242.600   9.42194e-25
      242.700   8.99936e-25
      242.800   8.59553e-25
      242.900   8.20951e-25
      243.000   7.84055e-25
      243.100   7.48791e-25
      243.200   7.15076e-25
      243.300   6.82862e-25
      243.400   6.52089e-25
      243.500   6.22731e-25
      243.600   5.94737e-25
      243.700   5.67970e-25
      243.800   5.42390e-25
      243.900   5.17955e-25
      244.000   4.94596e-25
      244.100   4.72276e-25
      244.200   4.50951e-25
      244.300   4.30568e-25
      244.400   4.11096e-25
      244.500   3.92492e-25
      244.600   3.74715e-25
      244.700   3.57759e-25
      244.800   3.41603e-25
      244.900   3.26168e-25
      245.000   3.11413e-25
      245.100   2.97319e-25
      245.200   2.83858e-25
      245.300   2.70997e-25
      245.400   2.58706e-25
      245.500   2.46970e-25
      245.600   2.35756e-25
      245.700   2.25041e-25
      245.800   2.14805e-25
      245.900   2.05063e-25
      246.000   1.95770e-25
      246.100   1.86889e-25
      246.200   1.78406e-25
      246.300   1.70300e-25
      246.400   1.62560e-25
      246.500   1.55166e-25
      246.600   1.48103e-25
      246.700   1.41357e-25
      246.800   1.34911e-25
      246.900   1.28756e-25
      247.000   1.22897e-25
      247.100   1.17308e-25
      247.200   1.11971e-25
      247.300   1.06873e-25
      247.400   1.02003e-25
      247.500   9.73515e-26
      247.600   9.29087e-26
      247.700   8.86656e-26
      247.800   8.46130e-26
      247.900   8.07425e-26
      248.000   7.70468e-26
      248.100   7.35372e-26
      248.200   7.01838e-26
      248.300   6.69804e-26
      248.400   6.39210e-26
      248.500   6.09984e-26
      248.600   5.82076e-26
      248.700   5.55428e-26
      248.800   5.29976e-26
      248.900   5.05673e-26
      249.000   4.82468e-26
      249.100   4.60405e-26
      249.200   4.39360e-26
      249.300   4.19251e-26
      249.400   4.00048e-26
      249.500   3.81713e-26
      249.600   3.64200e-26
      249.700   3.47476e-26
      249.800   3.31509e-26
      249.900   3.16260e-26
      250.000   3.01703e-26
      250.100   2.87849e-26
      250.200   2.74641e-26
      250.300   2.62041e-26
      250.400   2.50007e-26
      250.500   2.38521e-26
      250.600   2.27556e-26
      250.700   2.17087e-26
      250.800   2.07094e-26
      250.900   1.97556e-26
      251.000   1.88451e-26
      251.100   1.79759e-26
      251.200   1.71477e-26
      251.300   1.63588e-26
      251.400   1.56059e-26
      251.500   1.48869e-26
      251.600   1.42006e-26
      251.700   1.35460e-26
      251.800   1.29209e-26
      251.900   1.23243e-26
      252.000   1.17548e-26
      252.100   1.12115e-26
      252.200   1.06929e-26
      252.300   1.01987e-26
      252.400   9.72777e-27
      252.500   9.27860e-27
      252.600   8.84976e-27
      252.700   8.44055e-27
      252.800   8.05007e-27
      252.900   7.67741e-27
      253.000   7.32175e-27
      253.100   6.98240e-27
      253.200   6.65860e-27
      253.300   6.35092e-27
      253.400   6.05786e-27
      253.500   5.77855e-27
      253.600   5.51246e-27
      253.700   5.25841e-27
      253.800   5.01597e-27
      253.900   4.78461e-27
      254.000   4.56374e-27
      254.100   4.35290e-27
      254.200   4.15168e-27
      254.300   3.95967e-27
      254.400   3.77639e-27
      254.500   3.60147e-27
      254.600   3.43457e-27
      254.700   3.27532e-27
      254.800   3.12376e-27
      254.900   2.97913e-27
      255.000   2.84115e-27
      255.100   2.70939e-27
      255.200   2.58368e-27
      255.300   2.46376e-27
      255.400   2.34930e-27
      255.500   2.24010e-27
      255.600   2.13592e-27
      255.700   2.03651e-27
      255.800   1.94165e-27
      255.900   1.85113e-27
      256.000   1.76478e-27
      256.100   1.68250e-27
      256.200   1.60412e-27
      256.300   1.52935e-27
      256.400   1.45805e-27
      256.500   1.38997e-27
      256.600   1.32505e-27
      256.700   1.26313e-27
      256.800   1.20405e-27
      256.900   1.14769e-27
      257.000   1.09394e-27
      257.100   1.04267e-27
      257.200   9.93786e-28
      257.300   9.47144e-28
      257.400   9.08933e-28
      257.500   8.74495e-28
      257.600   8.41507e-28
      257.700   8.09765e-28
      257.800   7.79198e-28
      257.900   7.49778e-28
      258.000   7.21450e-28
      258.100   6.94175e-28
      258.200   6.67925e-28
      258.300   6.42662e-28
      258.400   6.18325e-28
      258.500   5.94897e-28
      258.600   5.72355e-28
      258.700   5.50653e-28
      258.800   5.29759e-28
      258.900   5.09661e-28
      259.000   4.90301e-28
      259.100   4.71674e-28
      259.200   4.53756e-28
      259.300   4.36537e-28
      259.400   4.19961e-28
      259.500   4.03999e-28
      259.600   3.88643e-28
      259.700   3.73864e-28
      259.800   3.59637e-28
      259.900   3.45940e-28
      260.000   3.32767e-28
      260.100   3.20088e-28
      260.200   3.07885e-28
      260.300   2.96142e-28
      260.400   2.84844e-28
      260.500   2.73974e-28
      260.600   2.63511e-28
      260.700   2.53443e-28
      260.800   2.43762e-28
      260.900   2.34440e-28
      261.000   2.25480e-28
      261.100   2.16866e-28
      261.200   2.08578e-28
      261.300   2.00602e-28
      261.400   1.92932e-28
      261.500   1.86359e-28
      261.600   1.82627e-28
      261.700   1.79424e-28
      261.800   1.76279e-28
      261.900   1.73186e-28
      262.000   1.70148e-28
      262.100   1.67162e-28
      262.200   1.64231e-28
      262.300   1.61349e-28
      262.400   1.58517e-28
      262.500   1.55736e-28
      262.600   1.53003e-28
      262.700   1.50318e-28
      262.800   1.47679e-28
      262.900   1.45084e-28
      263.000   1.42541e-28
      263.100   1.40039e-28
      263.200   1.37582e-28
      263.300   1.35169e-28
      263.400   1.32797e-28
      263.500   1.30467e-28
      263.600   1.28180e-28
      263.700   1.25931e-28
      263.800   1.23722e-28
      263.900   1.21553e-28
      264.000   1.19422e-28
      264.100   1.17328e-28
      264.200   1.15270e-28
      264.300   1.13250e-28
      264.400   1.11265e-28
      264.500   1.09315e-28
      264.600   1.07399e-28
      264.700   1.05517e-28
      264.800   1.03668e-28
      264.900   1.01853e-28
      265.000   1.00069e-28
      265.100   9.83159e-29
      265.200   9.65945e-29
      265.300   9.49033e-29
      265.400   9.32427e-29
      265.500   9.16113e-29
      265.600   9.00084e-29
      265.700   8.84336e-29
      265.800   8.68888e-29
      265.900   8.53710e-29
      266.000   8.38811e-29
      266.100   8.24181e-29
      266.200   8.09799e-29
      266.300   7.95674e-29
      266.400   7.81797e-29
      266.500   7.68167e-29
      266.600   7.54783e-29
      266.700   7.41625e-29
      266.800   7.28718e-29
      266.900   7.16029e-29
      267.000   7.03566e-29
      267.100   6.91327e-29
      267.200   6.79312e-29
      267.300   6.67503e-29
      267.400   6.55897e-29
      267.500   6.44501e-29
      267.600   6.33307e-29
      267.700   6.22310e-29
      267.800   6.11507e-29
      267.900   6.00898e-29
      268.000   5.90480e-29
      268.100   5.80246e-29
      268.200   5.70193e-29
      268.300   5.60321e-29
      268.400   5.50616e-29
      268.500   5.41087e-29
      268.600   5.31724e-29
      268.700   5.22535e-29
      268.800   5.13500e-29
      268.900   5.04629e-29
      269.000   4.95917e-29
      269.100   4.87354e-29
      269.200   4.78948e-29
      269.300   4.70688e-29
      269.400   4.62573e-29
      269.500   4.54597e-29
      269.600   4.46773e-29
      269.700   4.39076e-29
      269.800   4.31524e-29
      269.900   4.24097e-29
      270.000   4.16812e-29
      270.100   4.09648e-29
      270.200   4.02622e-29
      270.300   3.95713e-29
      270.400   3.88925e-29
      270.500   3.82258e-29
      270.600   3.75706e-29
      270.700   3.69272e-29
      270.800   3.62952e-29
      270.900   3.56739e-29
      271.000   3.50635e-29
      271.100   3.44636e-29
      271.200   3.38741e-29
      271.300   3.32955e-29
      271.400   3.27264e-29
      271.500   3.21679e-29
      271.600   3.16183e-29
      271.700   3.10787e-29
      271.800   3.05483e-29
      271.900   3.00273e-29
      272.000   2.95154e-29
      272.100   2.90122e-29
      272.200   2.85175e-29
      272.300   2.80315e-29
      272.400   2.75538e-29
      272.500   2.70846e-29
      272.600   2.66233e-29
      272.700   2.61700e-29
      272.800   2.57244e-29
      272.900   2.52865e-29
      273.000   2.48564e-29
      273.100   2.44335e-29
      273.200   2.40179e-29
      273.300   2.36095e-29
      273.400   2.32079e-29
      273.500   2.28132e-29
      273.600   2.24253e-29
      273.700   2.20439e-29
      273.800   2.16690e-29
      273.900   2.13008e-29
      274.000   2.09388e-29
      274.100   2.05830e-29
      274.200   2.02331e-29
      274.300   1.98892e-29
      274.400   1.95491e-29
      274.500   1.92103e-29
      274.600   1.88765e-29
      274.700   1.85485e-29
      274.800   1.82263e-29
      274.900   1.79094e-29
      275.000   1.75981e-29
      275.100   1.72922e-29
      275.200   1.69914e-29
      275.300   1.66959e-29
      275.400   1.64057e-29
      275.500   1.61204e-29
      275.600   1.58399e-29
      275.700   1.55643e-29
      275.800   1.52935e-29
      275.900   1.50275e-29
      276.000   1.47660e-29
      276.100   1.45089e-29
      276.200   1.42562e-29
      276.300   1.40079e-29
      276.400   1.37639e-29
      276.500   1.35241e-29
      276.600   1.32885e-29
      276.700   1.30568e-29
      276.800   1.28293e-29
      276.900   1.26055e-29
      277.000   1.23857e-29
      277.100   1.21695e-29
      277.200   1.19572e-29
      277.300   1.17485e-29
      277.400   1.15434e-29
      277.500   1.13416e-29
      277.600   1.11436e-29
      277.700   1.09488e-29
      277.800   1.07573e-29
      277.900   1.05692e-29
      278.000   1.03845e-29
      278.100   1.02028e-29
      278.200   1.00243e-29
      278.300   9.84880e-30
      278.400   9.67640e-30
      278.500   9.50682e-30
      278.600   9.34021e-30
      278.700   9.17656e-30
      278.800   9.01575e-30
      278.900   8.85735e-30
      279.000   8.70167e-30
      279.100   8.54869e-30
      279.200   8.39825e-30
      279.300   8.25055e-30
      279.400   8.10526e-30
      279.500   7.96253e-30
      279.600   7.82230e-30
      279.700   7.68453e-30
      279.800   7.54913e-30
      279.900   7.41602e-30
      280.000   7.28524e-30
      280.100   7.15668e-30
      280.200   7.03041e-30
      280.300   6.90626e-30
      280.400   6.78431e-30
      280.500   6.66457e-30
      280.600   6.54682e-30
      280.700   6.43108e-30
      280.800   6.31740e-30
      280.900   6.20566e-30
      281.000   6.09586e-30
      281.100   5.98796e-30
      281.200   5.88195e-30
      281.300   5.77782e-30
      281.400   5.67553e-30
      281.500   5.57495e-30
      281.600   5.47607e-30
      281.700   5.37898e-30
      281.800   5.28361e-30
      281.900   5.18988e-30
      282.000   5.09781e-30
      282.100   5.00730e-30
      282.200   4.91845e-30
      282.300   4.83109e-30
      282.400   4.74528e-30
      282.500   4.66093e-30
      282.600   4.57808e-30
      282.700   4.49665e-30
      282.800   4.41669e-30
      282.900   4.33818e-30
      283.000   4.26100e-30
      283.100   4.18519e-30
      283.200   4.11077e-30
      283.300   4.03759e-30
      283.400   3.96573e-30
      283.500   3.89518e-30
      283.600   3.82582e-30
      283.700   3.75767e-30
      283.800   3.69074e-30
      283.900   3.62502e-30
      284.000   3.56041e-30
      284.100   3.49692e-30
      284.200   3.43457e-30
      284.300   3.37336e-30
      284.400   3.31321e-30
      284.500   3.25414e-30
      284.600   3.19611e-30
      284.700   3.13911e-30
      284.800   3.08313e-30
      284.900   3.02813e-30
      285.000   2.97406e-30
      285.100   2.92098e-30
      285.200   2.86887e-30
      285.300   2.81766e-30
      285.400   2.76736e-30
      285.500   2.71794e-30
      285.600   2.66947e-30
      285.700   2.62180e-30
      285.800   2.57501e-30
      285.900   2.52904e-30
      286.000   2.48390e-30
      286.100   2.43962e-30
      286.200   2.39608e-30
      286.300   2.35336e-30
      286.400   2.31138e-30
      286.500   2.27014e-30
      286.600   2.22963e-30
      286.700   2.18985e-30
      286.800   2.15080e-30
      286.900   2.11244e-30
      287.000   2.07476e-30
      287.100   2.03775e-30
      287.200   2.00142e-30
      287.300   1.96573e-30
      287.400   1.93067e-30
      287.500   1.89626e-30
      287.600   1.86247e-30
      287.700   1.82927e-30
      287.800   1.79668e-30
      287.900   1.76467e-30
      288.000   1.73324e-30
      288.100   1.70237e-30
      288.200   1.67208e-30
      288.300   1.64233e-30
      288.400   1.61312e-30
      288.500   1.58444e-30
      288.600   1.55625e-30
      288.700   1.52859e-30
      288.800   1.50141e-30
      288.900   1.47475e-30
      289.000   1.44855e-30
      289.100   1.42282e-30
      289.200   1.39755e-30
      289.300   1.37275e-30
      289.400   1.34838e-30
      289.500   1.32445e-30
      289.600   1.30095e-30
      289.700   1.27790e-30
      289.800   1.25524e-30
      289.900   1.23297e-30
      290.000   1.21114e-30
      290.100   1.18967e-30
      290.200   1.16863e-30
      290.300   1.14795e-30
      290.400   1.12764e-30
      290.500   1.10772e-30
      290.600   1.08814e-30
      290.700   1.06891e-30
      290.800   1.05004e-30
      290.900   1.03150e-30
      291.000   1.01328e-30
      291.100   9.95389e-31
      291.200   9.77828e-31
      291.300   9.60578e-31
      291.400   9.43645e-31
      291.500   9.27005e-31
      291.600   9.10665e-31
      291.700   8.94624e-31
      291.800   8.78861e-31
      291.900   8.63402e-31
      292.000   8.48231e-31
      292.100   8.33322e-31
      292.200   8.18681e-31
      292.300   8.04293e-31
      292.400   7.90165e-31
      292.500   7.76286e-31
      292.600   7.62655e-31
      292.700   7.49269e-31
      292.800   7.36121e-31
      292.900   7.23207e-31
      293.000   7.10525e-31
      293.100   6.98068e-31
      293.200   6.85830e-31
      293.300   6.73805e-31
      293.400   6.62011e-31
      293.500   6.50423e-31
      293.600   6.39047e-31
      293.700   6.27866e-31
      293.800   6.16890e-31
      293.900   6.06107e-31
      294.000   5.95510e-31
      294.100   5.85105e-31
      294.200   5.74888e-31
      294.300   5.64853e-31
      294.400   5.54988e-31
      294.500   5.45299e-31
      294.600   5.35776e-31
      294.700   5.26428e-31
      294.800   5.17242e-31
      294.900   5.08218e-31
      295.000   4.99365e-31
      295.100   4.90670e-31
      295.200   4.82126e-31
      295.300   4.73724e-31
      295.400   4.65476e-31
      295.500   4.57375e-31
      295.600   4.49412e-31
      295.700   4.41590e-31
      295.800   4.33905e-31
      295.900   4.26350e-31
      296.000   4.18933e-31
      296.100   4.11640e-31
      296.200   4.04480e-31
      296.300   3.97446e-31
      296.400   3.90548e-31
      296.500   3.83757e-31
      296.600   3.77092e-31
      296.700   3.70541e-31
      296.800   3.64105e-31
      296.900   3.57780e-31
      297.000   3.51565e-31
      297.100   3.45455e-31
      297.200   3.39455e-31
      297.300   3.33558e-31
      297.400   3.27765e-31
      297.500   3.22068e-31
      297.600   3.16479e-31
      297.700   3.10986e-31
      297.800   3.05589e-31
      297.900   3.00289e-31
      298.000   2.95080e-31
      298.100   2.89958e-31
      298.200   2.84925e-31
      298.300   2.79982e-31
      298.400   2.75121e-31
      298.500   2.70344e-31
      298.600   2.65650e-31
      298.700   2.61036e-31
      298.800   2.56500e-31
      298.900   2.52049e-31
      299.000   2.47679e-31
      299.100   2.43382e-31
      299.200   2.39156e-31
      299.300   2.35005e-31
      299.400   2.30925e-31
      299.500   2.26915e-31
      299.600   2.22974e-31
      299.700   2.19099e-31
      299.800   2.15291e-31
      299.900   2.11551e-31
      300.000   2.07873e-31
      300.100   2.04260e-31
      300.192   2.00993e-31
      300.285   1.97739e-31
      300.377   1.94575e-31
      300.470   1.91429e-31
      300.562   1.88364e-31
      300.654   1.85348e-31
      300.747   1.82348e-31
      300.839   1.79428e-31
      300.932   1.76521e-31
      301.025   1.73662e-31
      301.117   1.70881e-31
      301.210   1.68110e-31
      301.303   1.65388e-31
      301.395   1.62738e-31
      301.488   1.60098e-31
      301.581   1.57503e-31
      301.674   1.54949e-31
      301.766   1.52461e-31
      301.859   1.49987e-31
      301.952   1.47553e-31
      302.045   1.45159e-31
      302.138   1.43015e-31
      302.231   1.41380e-31
      302.324   1.39784e-31
      302.417   1.38209e-31
      302.510   1.36648e-31
      302.603   1.35107e-31
      302.696   1.33579e-31
      302.789   1.32069e-31
      302.882   1.30575e-31
      302.976   1.29085e-31
      303.069   1.27625e-31
      303.162   1.26180e-31
      303.255   1.24750e-31
      303.349   1.23322e-31
      303.442   1.21924e-31
      303.535   1.20542e-31
      303.629   1.19159e-31
      303.722   1.17808e-31
      303.816   1.16457e-31
      303.909   1.15134e-31
      304.003   1.13811e-31
      304.096   1.12518e-31
      304.190   1.11225e-31
      304.283   1.09959e-31
      304.377   1.08694e-31
      304.471   1.07442e-31
      304.564   1.06217e-31
      304.658   1.04995e-31
      304.752   1.03784e-31
      304.846   1.02587e-31
      304.939   1.01416e-31
      305.033   1.00246e-31
      305.127   9.90874e-32
      305.221   9.79424e-32
      305.315   9.68117e-32
      305.409   9.56908e-32
      305.503   9.45838e-32
      305.597   9.34901e-32
      305.691   9.24070e-32
      305.785   9.13370e-32
      305.879   9.02777e-32
      305.973   8.92307e-32
      306.067   8.81951e-32
      306.161   8.71715e-32
      306.255   8.61594e-32
      306.350   8.51477e-32
      306.444   8.41575e-32
      306.538   8.31793e-32
      306.633   8.22020e-32
      306.727   8.12452e-32
      306.821   8.02995e-32
      306.916   7.93543e-32
      307.010   7.84491e-32
      307.105   7.76073e-32
      307.199   7.67928e-32
      307.294   7.59776e-32
      307.388   7.51800e-32
      307.483   7.43820e-32
      307.577   7.36004e-32
      307.672   7.28181e-32
      307.767   7.20441e-32
      307.861   7.12858e-32
      307.956   7.05265e-32
      308.051   6.97755e-32
      308.146   6.90332e-32
      308.240   6.83048e-32
      308.335   6.75764e-32
      308.430   6.68551e-32
      308.525   6.61422e-32
      308.620   6.54364e-32
      308.715   6.47378e-32
      308.810   6.40467e-32
      308.905   6.33623e-32
      309.000   6.26844e-32
      309.095   6.20141e-32
      309.190   6.13513e-32
      309.285   6.06951e-32
      309.380   6.00457e-32
      309.476   5.93966e-32
      309.571   5.87604e-32
      309.666   5.81310e-32
      309.761   5.75084e-32
      309.857   5.68859e-32
      309.952   5.62754e-32
      310.047   5.56723e-32
      310.143   5.50690e-32
      310.238   5.44783e-32
      310.334   5.38876e-32
      310.429   5.33093e-32
      310.525   5.27309e-32
      310.620   5.21650e-32
      310.716   5.15989e-32
      310.811   5.10455e-32
      310.907   5.04915e-32
      311.003   4.99433e-32
      311.098   4.94066e-32
      311.194   4.88701e-32
      311.290   4.83402e-32
      311.386   4.78155e-32
      311.481   4.73017e-32
      311.577   4.67879e-32
      311.673   4.62800e-32
      311.769   4.57774e-32
      311.865   4.52800e-32
      311.961   4.47894e-32
      312.057   4.43091e-32
      312.153   4.38358e-32
      312.249   4.33674e-32
      312.345   4.29044e-32
      312.441   4.24460e-32
      312.537   4.19927e-32
      312.633   4.15444e-32
      312.730   4.10959e-32
      312.826   4.06570e-32
      312.922   4.02227e-32
      313.018   3.97934e-32
      313.115   3.93642e-32
      313.211   3.89438e-32
      313.307   3.85283e-32
      313.404   3.81130e-32
      313.500   3.77063e-32
      313.597   3.73001e-32
      313.693   3.69023e-32
      313.790   3.65047e-32
      313.886   3.61156e-32
      313.983   3.57265e-32
      314.079   3.53457e-32
      314.176   3.49652e-32
      314.273   3.45888e-32
      314.369   3.42211e-32
      314.466   3.38531e-32
      314.563   3.34891e-32
      314.660   3.31290e-32
      314.756   3.27766e-32
      314.853   3.24243e-32
      314.950   3.20761e-32
      315.047   3.17319e-32
      315.144   3.13915e-32
      315.241   3.10547e-32
      315.338   3.07218e-32
      315.435   3.03923e-32
      315.532   3.00665e-32
      315.629   2.97443e-32
      315.726   2.94259e-32
      315.823   2.91107e-32
      315.921   2.87960e-32
      316.018   2.84881e-32
      316.115   2.81836e-32
      316.212   2.78823e-32
      316.310   2.75813e-32
      316.407   2.72867e-32
      316.504   2.69953e-32
      316.602   2.67044e-32
      316.699   2.64198e-32
      316.796   2.61378e-32
      316.894   2.58566e-32
      316.991   2.55816e-32
      317.089   2.53099e-32
      317.187   2.50428e-32
      317.284   2.47813e-32
      317.382   2.45199e-32
      317.479   2.42639e-32
      317.577   2.40082e-32
      317.675   2.37553e-32
      317.773   2.35051e-32
      317.870   2.32605e-32
      317.968   2.30158e-32
      318.066   2.27737e-32
      318.164   2.25344e-32
      318.262   2.22977e-32
      318.360   2.20637e-32
      318.458   2.18323e-32
      318.556   2.16036e-32
      318.654   2.13773e-32
      318.752   2.11532e-32
      318.850   2.09319e-32
      318.948   2.07129e-32
      319.046   2.04963e-32
      319.144   2.02820e-32
      319.242   2.00701e-32
      319.341   1.98585e-32
      319.439   1.96513e-32
      319.537   1.94465e-32
      319.635   1.92438e-32
      319.734   1.90412e-32
      319.832   1.88430e-32
      319.930   1.86468e-32
      320.029   1.84508e-32
      320.127   1.82591e-32
      320.226   1.80675e-32
      320.324   1.78798e-32
      320.423   1.76921e-32
      320.522   1.75069e-32
      320.620   1.73254e-32
      320.719   1.71439e-32
      320.818   1.69646e-32
      320.916   1.67890e-32
      321.015   1.66135e-32
      321.114   1.64398e-32
      321.213   1.62681e-32
      321.311   1.61001e-32
      321.410   1.59322e-32
      321.509   1.57659e-32
      321.608   1.56016e-32
      321.707   1.54390e-32
      321.806   1.52783e-32
      321.905   1.51193e-32
      322.004   1.49620e-32
      322.103   1.48064e-32
      322.202   1.46524e-32
      322.301   1.45002e-32
      322.401   1.43481e-32
      322.500   1.41992e-32
      322.599   1.40519e-32
      322.698   1.39061e-32
      322.798   1.37604e-32
      322.897   1.36179e-32
      322.996   1.34768e-32
      323.096   1.33358e-32
      323.195   1.31977e-32
      323.294   1.30610e-32
      323.394   1.29245e-32
      323.493   1.27908e-32
      323.593   1.26574e-32
      323.692   1.25266e-32
      323.792   1.23958e-32
      323.892   1.22664e-32
      323.991   1.21397e-32
      324.091   1.20132e-32
      324.191   1.18880e-32
      324.291   1.17641e-32
      324.390   1.16428e-32
      324.490   1.15216e-32
      324.590   1.14016e-32
      324.690   1.12828e-32
      324.790   1.11654e-32
      324.890   1.10493e-32
      324.990   1.09344e-32
      325.090   1.08207e-32
      325.190   1.07081e-32
      325.290   1.05968e-32
      325.390   1.04866e-32
      325.490   1.03776e-32
      325.590   1.02699e-32
      325.690   1.01630e-32
      325.790   1.00573e-32
      325.891   9.95184e-33
      325.991   9.84846e-33
      326.091   9.74611e-33
      326.192   9.64385e-33
      326.292   9.54372e-33
      326.392   9.44463e-33
      326.493   9.34559e-33
      326.593   9.24851e-33
      326.694   9.15155e-33
      326.794   9.05648e-33
      326.895   8.96148e-33
      326.995   8.86843e-33
      327.096   8.77540e-33
      327.197   8.68333e-33
      327.297   8.59315e-33
      327.398   8.50304e-33
      327.499   8.41387e-33
      327.599   8.32646e-33
      327.700   8.23909e-33
      327.801   8.15258e-33
      327.902   8.06708e-33
      328.003   7.98241e-33
      328.104   7.89863e-33
      328.205   7.81575e-33
      328.306   7.73371e-33
      328.407   7.65250e-33
      328.508   7.57207e-33
      328.609   7.49249e-33
      328.710   7.41370e-33
      328.811   7.33575e-33
      328.912   7.25867e-33
      329.013   7.18230e-33
      329.115   7.10610e-33
      329.216   7.03135e-33
      329.317   6.95727e-33
      329.419   6.88337e-33
      329.520   6.81088e-33
      329.621   6.73903e-33
      329.723   6.66733e-33
      329.824   6.59709e-33
      329.926   6.52685e-33
      330.027   6.45801e-33
      330.129   6.38918e-33
      330.230   6.32177e-33
      330.332   6.25434e-33
      330.434   6.18760e-33
      330.535   6.12224e-33
      330.637   6.05686e-33
      330.739   5.99215e-33
      330.840   5.92873e-33
      330.942   5.86535e-33
      331.044   5.80263e-33
      331.146   5.74051e-33
      331.248   5.67907e-33
      331.350   5.61829e-33
      331.452   5.55814e-33
      331.554   5.49992e-33
      331.656   5.44428e-33
      331.758   5.38921e-33
      331.860   5.33461e-33
      331.962   5.28059e-33
      332.064   5.22709e-33
      332.166   5.17417e-33
      332.268   5.12166e-33
      332.371   5.06921e-33
      332.473   5.01772e-33
      332.575   4.96669e-33
      332.677   4.91620e-33
      332.780   4.86571e-33
      332.882   4.81620e-33
      332.985   4.76669e-33
      333.087   4.71811e-33
      333.190   4.66957e-33
      333.292   4.62133e-33
      333.395   4.57144e-33
      333.497   4.52196e-33
      333.600   4.47254e-33
      333.702   4.42409e-33
      333.805   4.37566e-33
      333.908   4.32773e-33
      334.011   4.28033e-33
      334.113   4.23384e-33
      334.216   4.18739e-33
      334.319   4.14144e-33
      334.422   4.09591e-33
      334.525   4.05090e-33
      334.628   4.00633e-33
      334.731   3.96226e-33
      334.834   3.91866e-33
      334.937   3.87550e-33
      335.040   3.83278e-33
      335.143   3.79052e-33
      335.246   3.74868e-33
      335.349   3.70727e-33
      335.452   3.66632e-33
      335.555   3.62578e-33
      335.659   3.58531e-33
      335.762   3.54565e-33
      335.865   3.50644e-33
      335.969   3.46721e-33
      336.072   3.42873e-33
      336.175   3.39071e-33
      336.279   3.35273e-33
      336.382   3.31552e-33
      336.486   3.27831e-33
      336.589   3.24185e-33
      336.693   3.20549e-33
      336.796   3.16983e-33
      336.900   3.13421e-33
      337.004   3.09895e-33
      337.107   3.06442e-33
      337.211   3.02993e-33
      337.315   2.99586e-33
      337.419   2.96208e-33
      337.523   2.92866e-33
      337.626   2.89594e-33
      337.730   2.86331e-33
      337.834   2.83096e-33
      337.938   2.79902e-33
      338.042   2.76747e-33
      338.146   2.73657e-33
      338.250   2.70604e-33
      338.354   2.67585e-33
      338.458   2.64596e-33
      338.562   2.61641e-33
      338.667   2.58689e-33
      338.771   2.55795e-33
      338.875   2.52934e-33
      338.979   2.50104e-33
      339.084   2.47280e-33
      339.188   2.44509e-33
      339.292   2.41774e-33
      339.397   2.39037e-33
      339.501   2.36359e-33
      339.606   2.33684e-33
      339.710   2.31062e-33
      339.815   2.28447e-33
      339.919   2.25885e-33
      340.024   2.23325e-33
      340.128   2.20818e-33
      340.233   2.18315e-33
      340.338   2.15842e-33
      340.442   2.13416e-33
      340.547   2.10995e-33
      340.652   2.08602e-33
      340.757   2.06233e-33
      340.862   2.03892e-33
      340.966   2.01600e-33
      341.071   1.99307e-33
      341.176   1.97043e-33
      341.281   1.94805e-33
      341.386   1.92595e-33
      341.491   1.90404e-33
      341.596   1.88244e-33
      341.702   1.86085e-33
      341.807   1.83967e-33
      341.912   1.81877e-33
      342.017   1.79812e-33
      342.122   1.77767e-33
      342.228   1.75726e-33
      342.333   1.73729e-33
      342.438   1.71754e-33
      342.544   1.69784e-33
      342.649   1.67852e-33
      342.754   1.65946e-33
      342.860   1.64040e-33
      342.965   1.62174e-33
      343.071   1.60315e-33
      343.176   1.58493e-33
      343.282   1.56674e-33
      343.388   1.54877e-33
      343.493   1.53126e-33
      343.599   1.51454e-33
      343.705   1.49812e-33
      343.810   1.48198e-33
      343.916   1.46588e-33
      344.022   1.44998e-33
      344.128   1.43424e-33
      344.234   1.41866e-33
      344.340   1.40328e-33
      344.446   1.38803e-33
      344.552   1.37297e-33
      344.658   1.35810e-33
      344.764   1.34338e-33
      344.870   1.32882e-33
      344.976   1.31441e-33
      345.082   1.30017e-33
      345.188   1.28610e-33
      345.294   1.27217e-33
      345.401   1.25826e-33
      345.507   1.24465e-33
      345.613   1.23118e-33
      345.719   1.21787e-33
      345.826   1.20458e-33
      345.932   1.19156e-33
      346.039   1.17857e-33
      346.145   1.16583e-33
      346.252   1.15313e-33
      346.358   1.14070e-33
      346.465   1.12827e-33
      346.571   1.11610e-33
      346.678   1.10395e-33
      346.785   1.09194e-33
      346.891   1.08018e-33
      346.998   1.06844e-33
      347.105   1.05685e-33
      347.212   1.04537e-33
      347.319   1.03403e-33
      347.425   1.02290e-33
      347.532   1.01181e-33
      347.639   1.00085e-33
      347.746   9.90002e-34
      347.853   9.79295e-34
      347.960   9.68684e-34
      348.067   9.58219e-34
      348.174   9.47873e-34
      348.281   9.37612e-34
      348.389   9.27406e-34
      348.496   9.17375e-34
      348.603   9.07491e-34
      348.710   8.97695e-34
      348.818   8.87945e-34
      348.925   8.78370e-34
      349.032   8.68921e-34
      349.140   8.59467e-34
      349.247   8.50207e-34
      349.355   8.40987e-34
      349.462   8.31941e-34
      349.570   8.22904e-34
      349.677   8.14066e-34
      349.785   8.05237e-34
      349.892   7.96600e-34
      350.000   7.87981e-34
      350.100   7.80080e-34
      350.193   7.72819e-34
      350.287   7.65544e-34
      350.380   7.58410e-34
      350.473   7.51358e-34
      350.567   7.44290e-34
      350.660   7.37372e-34
      350.754   7.30443e-34
      350.847   7.23671e-34
      350.941   7.16879e-34
      351.034   7.10224e-34
      351.128   7.03572e-34
      351.221   6.97050e-34
      351.315   6.90534e-34
      351.409   6.84063e-34
      351.502   6.77737e-34
      351.596   6.71395e-34
      351.690   6.65122e-34
      351.783   6.58978e-34
      351.877   6.52838e-34
      351.971   6.46738e-34
      352.065   6.40710e-34
      352.159   6.34744e-34
      352.252   6.28893e-34
      352.346   6.23034e-34
      352.440   6.17233e-34
      352.534   6.11500e-34
      352.628   6.05820e-34
      352.722   6.00188e-34
      352.816   5.94612e-34
      352.910   5.89095e-34
      353.004   5.83629e-34
      353.098   5.78214e-34
      353.192   5.72854e-34
      353.287   5.67492e-34
      353.381   5.62239e-34
      353.475   5.57038e-34
      353.569   5.51878e-34
      353.663   5.46772e-34
      353.758   5.41672e-34
      353.852   5.36672e-34
      353.946   5.31718e-34
      354.041   5.26756e-34
      354.135   5.21896e-34
      354.229   5.17081e-34
      354.324   5.12272e-34
      354.418   5.07544e-34
      354.513   5.02819e-34
      354.607   4.98201e-34
      354.702   4.93553e-34
      354.796   4.88969e-34
      354.891   4.84370e-34
      354.985   4.79872e-34
      355.080   4.75364e-34
      355.175   4.70907e-34
      355.269   4.66530e-34
      355.364   4.62155e-34
      355.459   4.57821e-34
      355.553   4.53578e-34
      355.648   4.49327e-34
      355.743   4.45120e-34
      355.838   4.40949e-34
      355.933   4.36826e-34
      356.027   4.32785e-34
      356.122   4.28736e-34
      356.217   4.24726e-34
      356.312   4.20758e-34
      356.407   4.16827e-34
      356.502   4.12934e-34
      356.597   4.09072e-34
      356.692   4.05259e-34
      356.787   4.01477e-34
      356.882   3.97730e-34
      356.977   3.94021e-34
      357.073   3.90311e-34
      357.168   3.86668e-34
      357.263   3.83064e-34
      357.358   3.79496e-34
      357.453   3.75962e-34
      357.549   3.72425e-34
      357.644   3.68957e-34
      357.739   3.65523e-34
      357.835   3.62088e-34
      357.930   3.58720e-34
      358.025   3.55381e-34
      358.121   3.52040e-34
      358.216   3.48765e-34
      358.312   3.45487e-34
      358.407   3.42277e-34
      358.503   3.39061e-34
      358.598   3.35914e-34
      358.694   3.32760e-34
      358.790   3.29636e-34
      358.885   3.26572e-34
      358.981   3.23508e-34
      359.076   3.20502e-34
      359.172   3.17497e-34
      359.268   3.14515e-34
      359.364   3.11562e-34
      359.459   3.08672e-34
      359.555   3.05779e-34
      359.651   3.02909e-34
      359.747   3.00068e-34
      359.843   2.97254e-34
      359.939   2.94465e-34
      360.035   2.91704e-34
      360.131   2.88968e-34
      360.227   2.86257e-34
      360.323   2.83574e-34
      360.419   2.80916e-34
      360.515   2.78282e-34
      360.611   2.75673e-34
      360.707   2.73085e-34
      360.803   2.70525e-34
      360.899   2.67986e-34
      360.995   2.65476e-34
      361.092   2.62961e-34
      361.188   2.60494e-34
      361.284   2.58051e-34
      361.380   2.55631e-34
      361.477   2.53208e-34
      361.573   2.50833e-34
      361.669   2.48480e-34
      361.766   2.46120e-34
      361.862   2.43812e-34
      361.959   2.41501e-34
      362.055   2.39229e-34
      362.152   2.36961e-34
      362.248   2.34734e-34
      362.345   2.32504e-34
      362.441   2.30322e-34
      362.538   2.28136e-34
      362.635   2.25970e-34
      362.731   2.23843e-34
      362.828   2.21714e-34
      362.925   2.19607e-34
      363.021   2.17543e-34
      363.118   2.15474e-34
      363.215   2.13422e-34
      363.312   2.11391e-34
      363.409   2.09380e-34
      363.505   2.07407e-34
      363.602   2.05431e-34
      363.699   2.03476e-34
      363.796   2.01536e-34
      363.893   1.99614e-34
      363.990   1.97711e-34
      364.087   1.95824e-34
      364.184   1.93956e-34
      364.281   1.92105e-34
      364.378   1.90272e-34
      364.475   1.88455e-34
      364.573   1.86633e-34
      364.670   1.84848e-34
      364.767   1.83082e-34
      364.864   1.81331e-34
      364.961   1.79595e-34
      365.059   1.77858e-34
      365.156   1.76155e-34
      365.253   1.74467e-34
      365.351   1.72777e-34
      365.448   1.71120e-34
      365.545   1.69479e-34
      365.643   1.67835e-34
      365.740   1.66222e-34
      365.838   1.64609e-34
      365.935   1.63027e-34
      366.033   1.61445e-34
      366.130   1.59890e-34
      366.228   1.58336e-34
      366.326   1.56796e-34
      366.423   1.55285e-34
      366.521   1.53772e-34
      366.618   1.52288e-34
      366.716   1.50802e-34
      366.814   1.49331e-34
      366.912   1.47874e-34
      367.010   1.46431e-34
      367.107   1.45016e-34
      367.205   1.43598e-34
      367.303   1.42192e-34
      367.401   1.40801e-34
      367.499   1.39422e-34
      367.597   1.38056e-34
      367.695   1.36702e-34
      367.793   1.35362e-34
      367.891   1.34035e-34
      367.989   1.32719e-34
      368.087   1.31416e-34
      368.185   1.30123e-34
      368.283   1.28844e-34
      368.381   1.27576e-34
      368.480   1.26307e-34
      368.578   1.25062e-34
      368.676   1.23830e-34
      368.774   1.22610e-34
      368.873   1.21388e-34
      368.971   1.20190e-34
      369.069   1.19004e-34
      369.168   1.17815e-34
      369.266   1.16649e-34
      369.364   1.15495e-34
      369.463   1.14341e-34
      369.561   1.13209e-34
      369.660   1.12076e-34
      369.758   1.10964e-34
      369.857   1.09853e-34
      369.955   1.08762e-34
      370.054   1.07671e-34
      370.153   1.06589e-34
      370.251   1.05529e-34
      370.350   1.04470e-34
      370.449   1.03420e-34
      370.547   1.02390e-34
      370.646   1.01358e-34
      370.745   1.00338e-34
      370.844   9.93267e-35
      370.943   9.83254e-35
      371.041   9.73440e-35
      371.140   9.63609e-35
      371.239   9.53874e-35
      371.338   9.44245e-35
      371.437   9.34700e-35
      371.536   9.25243e-35
      371.635   9.15877e-35
      371.734   9.06610e-35
      371.833   8.97429e-35
      371.932   8.88333e-35
      372.032   8.79237e-35
      372.131   8.70309e-35
      372.230   8.61483e-35
      372.329   8.52745e-35
      372.428   8.44083e-35
      372.528   8.35424e-35
      372.627   8.26938e-35
      372.726   8.18533e-35
      372.826   8.10130e-35
      372.925   8.01889e-35
      373.024   7.93725e-35
      373.124   7.85555e-35
      373.223   7.77553e-35
      373.323   7.69552e-35
      373.422   7.61704e-35
      373.522   7.53851e-35
      373.621   7.46161e-35
      373.721   7.38467e-35
      373.820   7.30922e-35
      373.920   7.23375e-35
      374.020   7.15903e-35
      374.119   7.08580e-35
      374.219   7.01252e-35
      374.319   6.94006e-35
      374.419   6.86830e-35
      374.518   6.79792e-35
      374.618   6.72755e-35
      374.718   6.65779e-35
      374.818   6.58882e-35
      374.918   6.52055e-35
      375.018   6.45293e-35
      375.118   6.38604e-35
      375.218   6.31975e-35
      375.318   6.25417e-35
      375.418   6.18922e-35
      375.518   6.12498e-35
      375.618   6.06137e-35
      375.718   5.99833e-35
      375.818   5.93596e-35
      375.918   5.87423e-35
      376.019   5.81255e-35
      376.119   5.75210e-35
      376.219   5.69222e-35
      376.319   5.63296e-35
      376.420   5.57373e-35
      376.520   5.51565e-35
      376.620   5.45822e-35
      376.721   5.40076e-35
      376.821   5.34447e-35
      376.922   5.28819e-35
      377.022   5.23302e-35
      377.122   5.17848e-35
      377.223   5.12393e-35
      377.323   5.07047e-35
      377.424   5.01703e-35
      377.525   4.96417e-35
      377.625   4.91233e-35
      377.726   4.86053e-35
      377.827   4.80930e-35
      377.927   4.75906e-35
      378.028   4.70888e-35
      378.129   4.65921e-35
      378.230   4.62122e-35
      378.330   4.60100e-35
      378.431   4.58353e-35
      378.532   4.56616e-35
      378.633   4.54880e-35
      378.734   4.53153e-35
      378.835   4.51431e-35
      378.936   4.49715e-35
      379.037   4.48002e-35
      379.138   4.46290e-35
      379.239   4.44589e-35
      379.340   4.42899e-35
      379.441   4.41213e-35
      379.542   4.39528e-35
      379.643   4.37852e-35
      379.745   4.36163e-35
      379.846   4.34499e-35
      379.947   4.32834e-35
      380.048   4.31180e-35
      380.150   4.29516e-35
      380.251   4.27874e-35
      380.352   4.26238e-35
      380.454   4.24594e-35
      380.555   4.22967e-35
      380.656   4.21344e-35
      380.758   4.19716e-35
      380.859   4.18107e-35
      380.961   4.16490e-35
      381.062   4.14895e-35
      381.164   4.13291e-35
      381.266   4.11691e-35
      381.367   4.10114e-35
      381.469   4.08529e-35
      381.570   4.06966e-35
      381.672   4.05388e-35
      381.774   4.03821e-35
      381.876   4.02258e-35
      381.977   4.00719e-35
      382.079   3.99167e-35
      382.181   3.97623e-35
      382.283   3.96087e-35
      382.385   3.94555e-35
      382.487   3.93032e-35
      382.589   3.91512e-35
      382.691   3.89998e-35
      382.793   3.88492e-35
      382.895   3.86994e-35
      382.997   3.85502e-35
      383.099   3.84014e-35
      383.201   3.82531e-35
      383.303   3.81060e-35
      383.405   3.79588e-35
      383.507   3.78121e-35
      383.610   3.76652e-35
      383.712   3.75201e-35
      383.814   3.73757e-35
      383.916   3.72323e-35
      384.019   3.70876e-35
      384.121   3.69452e-35
      384.223   3.68029e-35
      384.326   3.66742e-35
      384.428   3.65818e-35
      384.531   3.64991e-35
      384.633   3.64177e-35
      384.736   3.63356e-35
      384.838   3.62542e-35
      384.941   3.61725e-35
      385.043   3.60918e-35
      385.146   3.60111e-35
      385.249   3.59301e-35
      385.351   3.58500e-35
      385.454   3.57698e-35
      385.557   3.56897e-35
      385.660   3.56101e-35
      385.762   3.55313e-35
      385.865   3.54521e-35
      385.968   3.53730e-35
      386.071   3.52943e-35
      386.174   3.52157e-35
      386.277   3.51373e-35
      386.380   3.50593e-35
      386.483   3.49814e-35
      386.586   3.49045e-35
      386.689   3.48273e-35
      386.792   3.47503e-35
      386.895   3.46735e-35
      386.998   3.45973e-35
      387.101   3.45210e-35
      387.204   3.44447e-35
      387.308   3.43687e-35
      387.411   3.42935e-35
      387.514   3.42184e-35
      387.617   3.41434e-35
      387.721   3.40681e-35
      387.824   3.39940e-35
      387.927   3.39200e-35
      388.031   3.38455e-35
      388.134   3.37719e-35
      388.238   3.36980e-35
      388.341   3.36250e-35
      388.445   3.35518e-35
      388.548   3.34791e-35
      388.652   3.34067e-35
      388.755   3.33348e-35
      388.859   3.32623e-35
      388.962   3.31908e-35
      389.066   3.31189e-35
      389.170   3.30473e-35
      389.274   3.29763e-35
      389.377   3.29063e-35
      389.481   3.28353e-35
      389.585   3.27648e-35
      389.689   3.26944e-35
      389.793   3.26246e-35
      389.897   3.25547e-35
      390.000   3.24861e-35
      390.104   3.24170e-35
      390.208   3.23479e-35
      390.312   3.22791e-35
      390.416   3.22103e-35
      390.520   3.21415e-35
      390.625   3.20725e-35
      390.729   3.20040e-35
      390.833   3.19360e-35
      390.937   3.18682e-35
      391.041   3.18007e-35
      391.145   3.17329e-35
      391.250   3.16654e-35
      391.354   3.15983e-35
      391.458   3.15315e-35
      391.563   3.14645e-35
      391.667   3.13984e-35
      391.771   3.13325e-35
      391.876   3.12663e-35
      391.980   3.12007e-35
      392.085   3.11348e-35
      392.189   3.10699e-35
      392.294   3.10046e-35
      392.398   3.09401e-35
      392.503   3.08752e-35
      392.607   3.08109e-35
      392.712   3.07468e-35
      392.817   3.06822e-35
      392.921   3.06191e-35
      393.026   3.05551e-35
      393.131   3.04916e-35
      393.236   3.04280e-35
      393.340   3.03658e-35
      393.445   3.03031e-35
      393.550   3.02402e-35
      393.655   3.01778e-35
      393.760   3.01155e-35
      393.865   3.00537e-35
      393.970   2.99917e-35
      394.075   2.99300e-35
      394.180   2.98690e-35
      394.285   2.98079e-35
      394.390   2.97466e-35
      394.495   2.96857e-35
      394.600   2.96253e-35
      394.706   2.95642e-35
      394.811   2.95043e-35
      394.916   2.94438e-35
      395.021   2.93840e-35
      395.126   2.93244e-35
      395.232   2.92643e-35
      395.337   2.92047e-35
      395.443   2.91452e-35
      395.548   2.90860e-35
      395.653   2.90269e-35
      395.759   2.89680e-35
      395.864   2.89097e-35
      395.970   2.88509e-35
      396.075   2.87928e-35
      396.181   2.87343e-35
      396.286   2.86761e-35
      396.392   2.86181e-35
      396.498   2.85603e-35
      396.603   2.85026e-35
      396.709   2.84447e-35
      396.815   2.83866e-35
      396.921   2.83292e-35
      397.026   2.82723e-35
      397.132   2.82154e-35
      397.238   2.81583e-35
      397.344   2.81014e-35
      397.450   2.80448e-35
      397.556   2.79880e-35
      397.662   2.79314e-35
      397.768   2.78750e-35
      397.874   2.78193e-35
      397.980   2.77626e-35
      398.086   2.77069e-35
      398.192   2.76507e-35
      398.298   2.75947e-35
      398.404   2.75396e-35
      398.510   2.74839e-35
      398.617   2.74278e-35
      398.723   2.73724e-35
      398.829   2.73172e-35
      398.935   2.72618e-35
      399.042   2.72067e-35
      399.148   2.71514e-35
      399.255   2.70960e-35
      399.361   2.70412e-35
      399.467   2.69864e-35
      399.574   2.69316e-35
      399.680   2.68768e-35
      399.787   2.68214e-35
      399.893       0.00000
      400.000       0.00000
