Filter Be-thin
observation_date 22-Sept-2013 22:40:45
wavelength effective area 
      1.00000   2.78438e-10
      1.10000   7.94898e-10
      1.20000   2.06654e-09
      1.30000   4.94177e-09
      1.40000   1.12138e-08
      1.50000   2.39248e-08
      1.60000   4.84357e-08
      1.70000   9.40365e-08
      1.80000   1.75080e-07
      1.90000   3.14687e-07
      2.00000   5.47105e-07
      2.10000   9.24125e-07
      2.20000   1.52384e-06
      2.30000   2.44964e-06
      2.40000   3.84586e-06
      2.50000   5.87753e-06
      2.60000   8.96959e-06
      2.70000   1.33725e-05
      2.80000   1.95552e-05
      2.90000   2.83019e-05
      3.00000   4.03209e-05
      3.10000   5.67055e-05
      3.20000   7.88761e-05
      3.30000   0.000108597
      3.40000   0.000147955
      3.50000   0.000199621
      3.60000   0.000268081
      3.70000   0.000356186
      3.80000   0.000471271
      3.90000   0.000620059
      4.00000   0.000810713
      4.10000    0.00105504
      4.20000    0.00136811
      4.30000    0.00176897
      4.40000    0.00228109
      4.50000    0.00293326
      4.60000    0.00375907
      4.70000    0.00481694
      4.80000    0.00616588
      4.90000    0.00779074
      5.00000     0.0101022
      5.10000     0.0129143
      5.20000     0.0165567
      5.30000     0.0210459
      5.40000     0.0267070
      5.50000     0.0339478
      5.60000     0.0418251
      5.70000     0.0542843
      5.80000     0.0635343
      5.90000     0.0968380
      6.00000      0.129935
      6.10000      0.165746
      6.20000      0.203132
      6.30000      0.238617
      6.40000      0.268849
      6.50000      0.290831
      6.60000      0.300348
      6.70000      0.308950
      6.80000      0.308587
      6.90000      0.403779
      7.00000      0.437893
      7.10000      0.461772
      7.20000      0.480286
      7.30000      0.494940
      7.40000      0.505599
      7.50000      0.513610
      7.60000      0.519096
      7.70000      0.520708
      7.80000      0.517486
      7.90000      0.514813
      8.00000      0.741176
      8.10000      0.807663
      8.20000      0.816910
      8.30000      0.822360
      8.40000      0.824366
      8.50000      0.824883
      8.60000      0.823676
      8.70000      0.821323
      8.80000      0.817569
      8.90000      0.812852
      9.00000      0.807126
      9.10000      0.800454
      9.20000      0.793019
      9.30000      0.784757
      9.40000      0.775807
      9.50000      0.766231
      9.60000      0.756004
      9.70000      0.745232
      9.80000      0.734015
      9.90000      0.722393
      10.0000      0.710421
      10.1000      0.698127
      10.2000      0.685543
      10.3000      0.672661
      10.4000      0.659519
      10.5000      0.646149
      10.6000      0.632586
      10.7000      0.618858
      10.8000      0.604991
      10.9000      0.591025
      11.0000      0.576971
      11.1000      0.562868
      11.2000      0.548730
      11.3000      0.534587
      11.4000      0.520442
      11.5000      0.506306
      11.6000      0.492203
      11.7000      0.478113
      11.8000      0.464087
      11.9000      0.450047
      12.0000      0.435562
      12.1000      0.422753
      12.2000      0.417426
      12.3000      0.407719
      12.4000      0.395112
      12.5000      0.382421
      12.6000      0.369815
      12.7000      0.357366
      12.8000      0.345099
      12.9000      0.333022
      13.0000      0.321160
      13.1000      0.309527
      13.2000      0.298150
      13.3000      0.287090
      13.4000      0.276331
      13.5000      0.265859
      13.6000      0.255687
      13.7000      0.245773
      13.8000      0.236112
      13.9000      0.226711
      14.0000      0.217567
      14.1000      0.208659
      14.2000      0.199978
      14.3000      0.191529
      14.4000      0.183315
      14.5000      0.175350
      14.6000      0.167641
      14.7000      0.160162
      14.8000      0.152913
      14.9000      0.145889
      15.0000      0.139090
      15.1000      0.132516
      15.2000      0.126206
      15.3000      0.120121
      15.4000      0.114250
      15.5000      0.108587
      15.6000      0.103134
      15.7000     0.0979057
      15.8000     0.0929093
      15.9000     0.0881052
      16.0000     0.0834872
      16.1000     0.0790512
      16.2000     0.0748373
      16.3000     0.0708071
      16.4000     0.0669382
      16.5000     0.0632253
      16.6000     0.0596905
      16.7000     0.0563344
      16.8000     0.0531171
      16.9000     0.0500342
      17.0000     0.0471109
      17.1000     0.0443571
      17.2000     0.0417332
      17.3000     0.0392335
      17.4000     0.0368916
      17.5000     0.0346693
      17.6000     0.0325611
      17.7000     0.0305954
      17.8000     0.0288137
      17.9000     0.0271139
      18.0000     0.0254838
      18.1000     0.0239634
      18.2000     0.0224933
      18.3000     0.0210664
      18.4000     0.0196951
      18.5000     0.0183817
      18.6000     0.0171107
      18.7000     0.0158941
      18.8000     0.0147561
      18.9000     0.0136724
      19.0000     0.0126677
      19.1000     0.0117309
      19.2000     0.0108400
      19.3000     0.0100215
      19.4000    0.00926438
      19.5000    0.00855114
      19.6000    0.00792191
      19.7000    0.00732746
      19.8000    0.00676405
      19.9000    0.00625564
      20.0000    0.00577068
      20.1000    0.00531967
      20.2000    0.00490558
      20.3000    0.00451062
      20.4000    0.00415289
      20.5000    0.00381682
      20.6000    0.00350016
      20.7000    0.00321570
      20.8000    0.00294392
      20.9000    0.00269701
      21.0000    0.00246756
      21.1000    0.00225152
      21.2000    0.00205868
      21.3000    0.00187415
      21.4000    0.00170891
      21.5000    0.00155432
      21.6000    0.00141045
      21.7000    0.00128128
      21.8000    0.00115751
      21.9000    0.00104862
      22.0000   0.000944531
      22.1000   0.000850948
      22.2000   0.000763657
      22.3000   0.000681884
      22.4000   0.000600020
      22.5000   0.000518476
      22.6000   0.000415998
      22.7000   0.000338950
      22.8000   0.000380153
      22.9000   0.000439400
      23.0000   0.000519362
      23.1000   0.000551876
      23.2000   0.000541014
      23.3000   0.000508055
      23.4000   0.000464248
      23.5000   0.000424785
      23.6000   0.000386527
      23.7000   0.000352449
      23.8000   0.000319031
      23.9000   0.000290389
      24.0000   0.000262421
      24.1000   0.000238152
      24.2000   0.000214775
      24.3000   0.000194474
      24.4000   0.000175127
      24.5000   0.000158201
      24.6000   0.000142230
      24.7000   0.000128234
      24.8000   0.000115114
      24.9000   0.000103589
      25.0000   9.28346e-05
      25.1000   8.34029e-05
      25.2000   7.46134e-05
      25.3000   6.69290e-05
      25.4000   5.97580e-05
      25.5000   5.35356e-05
      25.6000   4.77003e-05
      25.7000   4.26870e-05
      25.8000   3.79452e-05
      25.9000   3.39275e-05
      26.0000   3.00805e-05
      26.1000   2.68761e-05
      26.2000   2.37588e-05
      26.3000   2.12185e-05
      26.4000   1.86980e-05
      26.5000   1.66942e-05
      26.6000   1.47019e-05
      26.7000   1.30877e-05
      26.8000   1.15266e-05
      26.9000   1.02233e-05
      27.0000   9.00522e-06
      27.1000   7.95246e-06
      27.2000   7.00626e-06
      27.3000   6.16912e-06
      27.4000   5.46618e-06
      27.5000   4.80337e-06
      27.6000   4.24731e-06
      27.7000   3.70151e-06
      27.8000   3.27549e-06
      27.9000   2.85196e-06
      28.0000   2.51356e-06
      28.1000   2.19323e-06
      28.2000   1.92046e-06
      28.3000   1.67978e-06
      28.4000   1.46060e-06
      28.5000   1.28098e-06
      28.6000   1.10554e-06
      28.7000   9.72515e-07
      28.8000   8.40286e-07
      28.9000   7.34843e-07
      29.0000   6.37429e-07
      29.1000   5.52334e-07
      29.2000   4.81066e-07
      29.3000   4.12829e-07
      29.4000   3.61075e-07
      29.5000   3.09638e-07
      29.6000   2.69444e-07
      29.7000   2.32370e-07
      29.8000   1.99834e-07
      29.9000   1.73310e-07
      30.0000   1.47244e-07
      30.1000   1.28414e-07
      30.2000   1.09700e-07
      30.3000   9.57255e-08
      30.4000   8.44818e-08
      30.5000   7.35870e-08
      30.6000   6.37932e-08
      30.7000   5.40609e-08
      30.8000   4.66075e-08
      30.9000   3.98668e-08
      31.0000   3.38186e-08
      31.1000   2.92778e-08
      31.2000   2.47658e-08
      31.3000   2.13956e-08
      31.4000   1.82848e-08
      31.5000   1.54983e-08
      31.6000   1.33710e-08
      31.7000   1.12573e-08
      31.8000   9.68417e-09
      31.9000   8.25343e-09
      32.0000   6.95509e-09
      32.1000   6.02162e-09
      32.2000   5.09417e-09
      32.3000   4.37327e-09
      32.4000   3.74545e-09
      32.5000   3.14364e-09
      32.6000   2.72262e-09
      32.7000   2.30430e-09
      32.8000   1.95691e-09
      32.9000   1.67828e-09
      33.0000   1.40146e-09
      33.1000   1.20686e-09
      33.2000   1.02435e-09
      33.3000   8.57271e-10
      33.4000   7.37719e-10
      33.5000   6.18924e-10
      33.6000   5.23788e-10
      33.7000   4.46676e-10
      33.8000   3.70041e-10
      33.9000   3.17185e-10
      34.0000   2.67878e-10
      34.1000   2.21822e-10
      34.2000   1.90399e-10
      34.3000   1.59162e-10
      34.4000   1.32991e-10
      34.5000   1.13268e-10
      34.6000   9.36628e-11
      34.7000   7.90356e-11
      34.8000   6.67557e-11
      34.9000   5.45486e-11
      35.0000   4.65267e-11
      35.1000   3.89778e-11
      35.2000   3.17809e-11
      35.3000   2.71597e-11
      35.4000   2.25661e-11
      35.5000   1.85065e-11
      35.6000   1.57237e-11
      35.7000   1.29576e-11
      35.8000   1.06874e-11
      35.9000   9.02929e-12
      36.0000   7.38110e-12
      36.1000   6.12100e-12
      36.2000   5.14383e-12
      36.3000   4.17255e-12
      36.4000   3.47723e-12
      36.5000   2.90770e-12
      36.6000   2.34166e-12
      36.7000   1.95945e-12
      36.8000   1.63126e-12
      36.9000   1.30509e-12
      37.0000   1.09531e-12
      37.1000   9.08352e-13
      37.2000   7.22533e-13
      37.3000   6.07328e-13
      37.4000   5.02083e-13
      37.5000   3.97486e-13
      37.6000   3.34050e-13
      37.7000   2.75522e-13
      37.8000   2.17357e-13
      37.9000   1.82260e-13
      38.0000   1.50105e-13
      38.1000   1.18148e-13
      38.2000   9.86197e-14
      38.3000   8.11680e-14
      38.4000   6.38243e-14
      38.5000   5.29018e-14
      38.6000   4.35551e-14
      38.7000   3.42665e-14
      38.8000   2.81307e-14
      38.9000   2.31909e-14
      39.0000   1.82817e-14
      39.1000   1.48254e-14
      39.2000   1.22486e-14
      39.3000   9.68774e-15
      39.4000   7.73225e-15
      39.5000   6.39097e-15
      39.6000   5.05815e-15
      39.7000   3.95284e-15
      39.8000   3.27920e-15
      39.9000   2.60978e-15
      40.0000   1.99739e-15
      40.1000   1.66463e-15
      40.2000   1.33397e-15
      40.3000   1.00543e-15
      40.4000   8.36037e-16
      40.5000   6.75098e-16
      40.6000   5.15171e-16
      40.7000   4.15074e-16
      40.8000   3.37903e-16
      40.9000   2.61228e-16
      41.0000   2.03512e-16
      41.1000   1.67105e-16
      41.2000   1.30934e-16
      41.3000   9.84913e-17
      41.4000   8.15958e-17
      41.5000   6.48065e-17
      41.6000   4.81255e-17
      41.7000   3.93074e-17
      41.8000   3.16382e-17
      41.9000   2.40181e-17
      42.0000   1.86629e-17
      42.1000   1.52174e-17
      42.2000   1.17938e-17
      42.3000   8.72481e-18
      42.4000   7.20326e-18
      42.5000   5.69132e-18
      42.6000   4.18917e-18
      42.7000   3.35303e-18
      42.8000   2.69702e-18
      42.9000   2.04515e-18
      43.0000   1.53377e-18
      43.1000   1.25406e-18
      43.2000   9.76157e-19
      43.3000   7.00045e-19
      43.4000   7.00776e-19
      43.5000   7.98930e-19
      43.6000   9.26213e-19
      43.7000   9.69767e-19
      43.8000   8.44890e-19
      43.9000   6.55906e-19
      44.0000   4.67404e-19
      44.1000   3.84687e-19
      44.2000   3.06723e-19
      44.3000   2.28966e-19
      44.4000   1.71205e-19
      44.5000   1.39654e-19
      44.6000   1.08185e-19
      44.7000   7.67973e-20
      44.8000   6.19398e-20
      44.9000   4.94495e-20
      45.0000   3.69911e-20
      45.1000   2.67680e-20
      45.2000   2.19088e-20
      45.3000   1.70625e-20
      45.4000   1.22282e-20
      45.5000   9.42265e-21
      45.6000   7.57533e-21
      45.7000   5.73285e-21
      45.8000   3.93788e-21
      45.9000   3.24818e-21
      46.0000   2.56023e-21
      46.1000   1.87404e-21
      46.2000   1.34823e-21
      46.3000   1.09740e-21
      46.4000   8.47254e-22
      46.5000   5.97723e-22
      46.6000   4.54605e-22
      46.7000   3.64755e-22
      46.8000   2.75137e-22
      46.9000   1.85744e-22
      47.0000   1.50472e-22
      47.1000   1.18952e-22
      47.2000   8.75121e-23
      47.3000   5.97593e-23
      47.4000   4.89026e-23
      47.5000   3.80729e-23
      47.6000   2.72710e-23
      47.7000   1.92449e-23
      47.8000   1.55986e-23
      47.9000   1.19612e-23
      48.0000   8.33325e-24
      48.1000   6.08260e-24
      48.2000   4.88555e-24
      48.3000   3.69146e-24
      48.4000   2.50040e-24
      48.5000   1.88649e-24
      48.6000   1.50266e-24
      48.7000   1.11978e-24
      48.8000   7.37838e-25
      48.9000   5.73972e-25
      49.0000   4.53906e-25
      49.1000   3.34143e-25
      49.2000   2.14673e-25
      49.3000   1.74293e-25
      49.4000   1.40832e-25
      49.5000   1.07454e-25
      49.6000   7.41581e-26
      49.7000   6.67837e-26
      49.8000   6.00658e-26
      49.9000   5.33646e-26
      50.0000   4.66803e-26
      50.1000   4.09439e-26
      50.2000   3.30496e-26
      50.3000   2.67236e-26
      50.4000   2.31184e-26
      50.5000   2.08351e-26
      50.6000   1.86039e-26
      50.7000   1.43798e-26
      50.8000   1.19839e-26
      50.9000   6.56238e-27
      51.0000   4.39696e-27
      51.1000   3.55510e-27
      51.2000   3.56228e-27
      51.3000   3.19065e-27
      51.4000   1.96772e-27
      51.5000   1.18664e-27
      51.6000   8.36919e-28
      51.7000   5.64402e-28
      51.8000   4.26901e-28
      51.9000   3.55255e-28
      52.0000   2.81491e-28
      52.1000   1.94579e-28
      52.2000   1.48867e-28
      52.3000   9.80596e-29
      52.4000   6.39914e-29
      52.5000   5.05699e-29
      52.6000   4.49573e-29
      52.7000   3.83561e-29
      52.8000   2.60731e-29
      52.9000   1.49141e-29
      53.0000   9.97382e-30
      53.1000   6.57687e-30
      53.2000   4.41315e-30
      53.3000   2.92905e-30
      53.4000   1.91937e-30
      53.5000   1.09564e-30
      53.6000   5.53801e-31
      53.7000   3.23540e-31
      53.8000   2.41652e-31
      53.9000   1.65965e-31
      54.0000   1.11596e-31
      54.1000   7.26179e-32
      54.2000   5.14614e-32
      54.3000   3.09985e-32
      54.4000   1.31292e-32
      54.5000   7.16932e-33
      54.6000   5.13577e-33
      54.7000   3.89739e-33
      54.8000   2.73836e-33
      54.9000   1.85670e-33
      55.0000   1.35125e-33
      55.1000   9.77236e-34
      55.2000   7.01447e-34
      55.3000   6.48262e-34
      55.4000   5.77938e-34
      55.5000   4.15236e-34
      55.6000   2.66231e-34
      55.7000   1.91592e-34
      55.8000   1.30834e-34
      55.9000   9.17329e-35
      56.0000   6.71118e-35
      56.1000   4.63822e-35
      56.2000   4.29792e-35
      56.3000   3.50516e-35
      56.4000   2.53882e-35
      56.5000   1.74991e-35
      56.6000   1.20576e-35
      56.7000   8.78570e-36
      56.8000   6.44599e-36
      56.9000   4.56775e-36
      57.0000   3.05027e-36
      57.1000   2.03716e-36
      57.2000   1.40310e-36
      57.3000   9.93235e-37
      57.4000   7.09375e-37
      57.5000   5.03333e-37
      57.6000   3.27321e-37
      57.7000   2.27518e-37
      57.8000   2.06201e-37
      57.9000   1.54405e-37
      58.0000   1.10015e-37
      58.1000   7.25641e-38
      58.2000   4.17718e-38
      58.3000   2.74794e-38
      58.4000   2.07898e-38
      58.5000   1.65775e-38
      58.6000   1.13153e-38
      58.7000   7.64238e-39
      58.8000   5.13034e-39
      58.9000   3.45619e-39
      59.0000   2.51139e-39
      59.1000   1.86367e-39
      59.2000   1.37860e-39
      59.3000   1.01629e-39
      59.4000   7.46445e-40
      59.5000   5.25778e-40
      59.6000   3.47813e-40
      59.7000   2.66360e-40
      59.8000   1.85148e-40
      59.9000   1.10054e-40
      60.0000   8.10497e-41
      60.1000   5.97962e-41
      60.2000   4.39727e-41
      60.3000   3.22271e-41
      60.4000   2.35502e-41
      60.5000   1.73551e-41
      60.6000   1.29018e-41
      60.7000   1.01566e-41
      60.8000   8.38677e-42
      60.9000   6.90700e-42
      61.0000   5.70889e-42
      61.1000   4.72798e-42
      61.2000   3.93625e-42
      61.3000   3.26222e-42
      61.4000   2.70030e-42
      61.5000   2.24628e-42
      61.6000   1.78666e-42
      61.7000   1.40550e-42
      61.8000   1.10282e-42
      61.9000   8.75812e-43
      62.0000   6.71222e-43
      62.1000   4.82047e-43
      62.2000   3.41917e-43
      62.3000   2.49431e-43
      62.4000   2.04590e-43
      62.5000   1.75162e-43
      62.6000   1.52742e-43
      62.7000   1.30321e-43
      62.8000   1.14906e-43
      62.9000   8.26766e-44
      63.0000   5.74532e-44
      63.1000   4.20390e-44
      63.2000   3.50325e-44
      63.3000   2.52234e-44
      63.4000   2.24208e-44
      63.5000   1.54143e-44
      63.6000   1.26117e-44
      63.7000   9.80909e-45
      63.8000   9.80909e-45
      63.9000   7.00649e-45
      64.0000   2.80260e-45
      64.1000   2.80260e-45
      64.2000   2.80260e-45
      64.3000   2.80260e-45
      64.4000       0.00000
      64.5000       0.00000
      64.6000       0.00000
      64.7000       0.00000
      64.8000       0.00000
      64.9000       0.00000
      65.0000       0.00000
      65.1000       0.00000
      65.2000       0.00000
      65.3000       0.00000
      65.4000       0.00000
      65.5000       0.00000
      65.6000       0.00000
      65.7000       0.00000
      65.8000       0.00000
      65.9000       0.00000
      66.0000       0.00000
      66.1000       0.00000
      66.2000       0.00000
      66.3000       0.00000
      66.4000       0.00000
      66.5000       0.00000
      66.6000       0.00000
      66.7000       0.00000
      66.8000       0.00000
      66.9000       0.00000
      67.0000       0.00000
      67.1000       0.00000
      67.2000       0.00000
      67.3000       0.00000
      67.4000       0.00000
      67.5000       0.00000
      67.6000       0.00000
      67.7000       0.00000
      67.8000       0.00000
      67.9000       0.00000
      68.0000       0.00000
      68.1000       0.00000
      68.2000       0.00000
      68.3000       0.00000
      68.4000       0.00000
      68.5000       0.00000
      68.6000       0.00000
      68.7000       0.00000
      68.8000       0.00000
      68.9000       0.00000
      69.0000       0.00000
      69.1000       0.00000
      69.2000       0.00000
      69.3000       0.00000
      69.4000       0.00000
      69.5000       0.00000
      69.6000       0.00000
      69.7000       0.00000
      69.8000       0.00000
      69.9000       0.00000
      70.0000       0.00000
      70.1000       0.00000
      70.2000       0.00000
      70.3000       0.00000
      70.4000       0.00000
      70.5000       0.00000
      70.6000       0.00000
      70.7000       0.00000
      70.8000       0.00000
      70.9000       0.00000
      71.0000       0.00000
      71.1000       0.00000
      71.2000       0.00000
      71.3000       0.00000
      71.4000       0.00000
      71.5000       0.00000
      71.6000       0.00000
      71.7000       0.00000
      71.8000       0.00000
      71.9000       0.00000
      72.0000       0.00000
      72.1000       0.00000
      72.2000       0.00000
      72.3000       0.00000
      72.4000       0.00000
      72.5000       0.00000
      72.6000       0.00000
      72.7000       0.00000
      72.8000       0.00000
      72.9000       0.00000
      73.0000       0.00000
      73.1000       0.00000
      73.2000       0.00000
      73.3000       0.00000
      73.4000       0.00000
      73.5000       0.00000
      73.6000       0.00000
      73.7000       0.00000
      73.8000       0.00000
      73.9000       0.00000
      74.0000       0.00000
      74.1000       0.00000
      74.2000       0.00000
      74.3000       0.00000
      74.4000       0.00000
      74.5000       0.00000
      74.6000       0.00000
      74.7000       0.00000
      74.8000       0.00000
      74.9000       0.00000
      75.0000       0.00000
      75.1000       0.00000
      75.2000       0.00000
      75.3000       0.00000
      75.4000       0.00000
      75.5000       0.00000
      75.6000       0.00000
      75.7000       0.00000
      75.8000       0.00000
      75.9000       0.00000
      76.0000       0.00000
      76.1000       0.00000
      76.2000       0.00000
      76.3000       0.00000
      76.4000       0.00000
      76.5000       0.00000
      76.6000       0.00000
      76.7000       0.00000
      76.8000       0.00000
      76.9000       0.00000
      77.0000       0.00000
      77.1000       0.00000
      77.2000       0.00000
      77.3000       0.00000
      77.4000       0.00000
      77.5000       0.00000
      77.6000       0.00000
      77.7000       0.00000
      77.8000       0.00000
      77.9000       0.00000
      78.0000       0.00000
      78.1000       0.00000
      78.2000       0.00000
      78.3000       0.00000
      78.4000       0.00000
      78.5000       0.00000
      78.6000       0.00000
      78.7000       0.00000
      78.8000       0.00000
      78.9000       0.00000
      79.0000       0.00000
      79.1000       0.00000
      79.2000       0.00000
      79.3000       0.00000
      79.4000       0.00000
      79.5000       0.00000
      79.6000       0.00000
      79.7000       0.00000
      79.8000       0.00000
      79.9000       0.00000
      80.0000       0.00000
      80.1000       0.00000
      80.2000       0.00000
      80.3000       0.00000
      80.4000       0.00000
      80.5000       0.00000
      80.6000       0.00000
      80.7000       0.00000
      80.8000       0.00000
      80.9000       0.00000
      81.0000       0.00000
      81.1000       0.00000
      81.2000       0.00000
      81.3000       0.00000
      81.4000       0.00000
      81.5000       0.00000
      81.6000       0.00000
      81.7000       0.00000
      81.8000       0.00000
      81.9000       0.00000
      82.0000       0.00000
      82.1000       0.00000
      82.2000       0.00000
      82.3000       0.00000
      82.4000       0.00000
      82.5000       0.00000
      82.6000       0.00000
      82.7000       0.00000
      82.8000       0.00000
      82.9000       0.00000
      83.0000       0.00000
      83.1000       0.00000
      83.2000       0.00000
      83.3000       0.00000
      83.4000       0.00000
      83.5000       0.00000
      83.6000       0.00000
      83.7000       0.00000
      83.8000       0.00000
      83.9000       0.00000
      84.0000       0.00000
      84.1000       0.00000
      84.2000       0.00000
      84.3000       0.00000
      84.4000       0.00000
      84.5000       0.00000
      84.6000       0.00000
      84.7000       0.00000
      84.8000       0.00000
      84.9000       0.00000
      85.0000       0.00000
      85.1000       0.00000
      85.2000       0.00000
      85.3000       0.00000
      85.4000       0.00000
      85.5000       0.00000
      85.6000       0.00000
      85.7000       0.00000
      85.8000       0.00000
      85.9000       0.00000
      86.0000       0.00000
      86.1000       0.00000
      86.2000       0.00000
      86.3000       0.00000
      86.4000       0.00000
      86.5000       0.00000
      86.6000       0.00000
      86.7000       0.00000
      86.8000       0.00000
      86.9000       0.00000
      87.0000       0.00000
      87.1000       0.00000
      87.2000       0.00000
      87.3000       0.00000
      87.4000       0.00000
      87.5000       0.00000
      87.6000       0.00000
      87.7000       0.00000
      87.8000       0.00000
      87.9000       0.00000
      88.0000       0.00000
      88.1000       0.00000
      88.2000       0.00000
      88.3000       0.00000
      88.4000       0.00000
      88.5000       0.00000
      88.6000       0.00000
      88.7000       0.00000
      88.8000       0.00000
      88.9000       0.00000
      89.0000       0.00000
      89.1000       0.00000
      89.2000       0.00000
      89.3000       0.00000
      89.4000       0.00000
      89.5000       0.00000
      89.6000       0.00000
      89.7000       0.00000
      89.8000       0.00000
      89.9000       0.00000
      90.0000       0.00000
      90.1000       0.00000
      90.2000       0.00000
      90.3000       0.00000
      90.4000       0.00000
      90.5000       0.00000
      90.6000       0.00000
      90.7000       0.00000
      90.8000       0.00000
      90.9000       0.00000
      91.0000       0.00000
      91.1000       0.00000
      91.2000       0.00000
      91.3000       0.00000
      91.4000       0.00000
      91.5000       0.00000
      91.6000       0.00000
      91.7000       0.00000
      91.8000       0.00000
      91.9000       0.00000
      92.0000       0.00000
      92.1000       0.00000
      92.2000       0.00000
      92.3000       0.00000
      92.4000       0.00000
      92.5000       0.00000
      92.6000       0.00000
      92.7000       0.00000
      92.8000       0.00000
      92.9000       0.00000
      93.0000       0.00000
      93.1000       0.00000
      93.2000       0.00000
      93.3000       0.00000
      93.4000       0.00000
      93.5000       0.00000
      93.6000       0.00000
      93.7000       0.00000
      93.8000       0.00000
      93.9000       0.00000
      94.0000       0.00000
      94.1000       0.00000
      94.2000       0.00000
      94.3000       0.00000
      94.4000       0.00000
      94.5000       0.00000
      94.6000       0.00000
      94.7000       0.00000
      94.8000       0.00000
      94.9000       0.00000
      95.0000       0.00000
      95.1000       0.00000
      95.2000       0.00000
      95.3000       0.00000
      95.4000       0.00000
      95.5000       0.00000
      95.6000       0.00000
      95.7000       0.00000
      95.8000       0.00000
      95.9000       0.00000
      96.0000       0.00000
      96.1000       0.00000
      96.2000       0.00000
      96.3000       0.00000
      96.4000       0.00000
      96.5000       0.00000
      96.6000       0.00000
      96.7000       0.00000
      96.8000       0.00000
      96.9000       0.00000
      97.0000       0.00000
      97.1000       0.00000
      97.2000       0.00000
      97.3000       0.00000
      97.4000       0.00000
      97.5000       0.00000
      97.6000       0.00000
      97.7000       0.00000
      97.8000       0.00000
      97.9000       0.00000
      98.0000       0.00000
      98.1000       0.00000
      98.2000       0.00000
      98.3000       0.00000
      98.4000       0.00000
      98.5000       0.00000
      98.6000       0.00000
      98.7000       0.00000
      98.8000       0.00000
      98.9000       0.00000
      99.0000       0.00000
      99.1000       0.00000
      99.2000       0.00000
      99.3000       0.00000
      99.4000       0.00000
      99.5000       0.00000
      99.6000       0.00000
      99.7000       0.00000
      99.8000       0.00000
      99.9000       0.00000
      100.000       0.00000
      100.100       0.00000
      100.200       0.00000
      100.300       0.00000
      100.400       0.00000
      100.500       0.00000
      100.600       0.00000
      100.700       0.00000
      100.800       0.00000
      100.900       0.00000
      101.000       0.00000
      101.100       0.00000
      101.200       0.00000
      101.300       0.00000
      101.400       0.00000
      101.500       0.00000
      101.600       0.00000
      101.700       0.00000
      101.800       0.00000
      101.900       0.00000
      102.000       0.00000
      102.100       0.00000
      102.200       0.00000
      102.300       0.00000
      102.400       0.00000
      102.500       0.00000
      102.600       0.00000
      102.700       0.00000
      102.800       0.00000
      102.900       0.00000
      103.000       0.00000
      103.100       0.00000
      103.200       0.00000
      103.300       0.00000
      103.400       0.00000
      103.500       0.00000
      103.600       0.00000
      103.700       0.00000
      103.800       0.00000
      103.900       0.00000
      104.000       0.00000
      104.100       0.00000
      104.200       0.00000
      104.300       0.00000
      104.400       0.00000
      104.500       0.00000
      104.600       0.00000
      104.700       0.00000
      104.800       0.00000
      104.900       0.00000
      105.000       0.00000
      105.100       0.00000
      105.200       0.00000
      105.300       0.00000
      105.400       0.00000
      105.500       0.00000
      105.600       0.00000
      105.700       0.00000
      105.800       0.00000
      105.900       0.00000
      106.000       0.00000
      106.100       0.00000
      106.200       0.00000
      106.300       0.00000
      106.400       0.00000
      106.500       0.00000
      106.600       0.00000
      106.700       0.00000
      106.800       0.00000
      106.900       0.00000
      107.000       0.00000
      107.100       0.00000
      107.200       0.00000
      107.300       0.00000
      107.400       0.00000
      107.500       0.00000
      107.600       0.00000
      107.700       0.00000
      107.800       0.00000
      107.900       0.00000
      108.000       0.00000
      108.100       0.00000
      108.200       0.00000
      108.300       0.00000
      108.400       0.00000
      108.500       0.00000
      108.600       0.00000
      108.700       0.00000
      108.800       0.00000
      108.900       0.00000
      109.000       0.00000
      109.100       0.00000
      109.200       0.00000
      109.300       0.00000
      109.400       0.00000
      109.500       0.00000
      109.600       0.00000
      109.700       0.00000
      109.800       0.00000
      109.900       0.00000
      110.000       0.00000
      110.100       0.00000
      110.200       0.00000
      110.300       0.00000
      110.400       0.00000
      110.500       0.00000
      110.600   1.10380e-41
      110.700   2.84581e-29
      110.800   7.83754e-20
      110.900   2.79627e-15
      111.000   9.70503e-13
      111.100   3.49454e-11
      111.200   1.12769e-10
      111.300   2.14412e-10
      111.400   3.38068e-10
      111.500   3.76303e-10
      111.600   4.19483e-10
      111.700   5.20401e-10
      111.800   6.54954e-10
      111.900   7.24450e-10
      112.000   8.55493e-10
      112.100   1.06389e-09
      112.200   1.24706e-09
      112.300   1.36991e-09
      112.400   1.48815e-09
      112.500   1.65121e-09
      112.600   1.87656e-09
      112.700   2.10557e-09
      112.800   2.21955e-09
      112.900   2.43763e-09
      113.000   2.67386e-09
      113.100   2.85805e-09
      113.200   3.00966e-09
      113.300   3.03084e-09
      113.400   3.28698e-09
      113.500   3.55366e-09
      113.600   3.59299e-09
      113.700   3.84586e-09
      113.800   4.03024e-09
      113.900   4.19179e-09
      114.000   4.29108e-09
      114.100   4.35519e-09
      114.200   4.76281e-09
      114.300   5.02956e-09
      114.400   4.97449e-09
      114.500   4.81596e-09
      114.600   4.81390e-09
      114.700   4.84343e-09
      114.800   4.92039e-09
      114.900   5.10796e-09
      115.000   5.28879e-09
      115.100   5.40269e-09
      115.200   5.43302e-09
      115.300   5.46853e-09
      115.400   5.49930e-09
      115.500   5.53260e-09
      115.600   5.56391e-09
      115.700   5.59212e-09
      115.800   5.62468e-09
      115.900   5.65507e-09
      116.000   5.68276e-09
      116.100   5.69917e-09
      116.200   5.71305e-09
      116.300   5.72573e-09
      116.400   5.72857e-09
      116.500   5.68881e-09
      116.600   5.64797e-09
      116.700   5.60844e-09
      116.800   5.56792e-09
      116.900   5.52253e-09
      117.000   5.48321e-09
      117.100   5.46057e-09
      117.200   5.44954e-09
      117.300   5.42720e-09
      117.400   5.40416e-09
      117.500   5.37190e-09
      117.600   5.31393e-09
      117.700   5.24871e-09
      117.800   5.18089e-09
      117.900   5.11221e-09
      118.000   5.04126e-09
      118.100   4.96829e-09
      118.200   4.89866e-09
      118.300   4.83094e-09
      118.400   4.75282e-09
      118.500   4.67678e-09
      118.600   4.60694e-09
      118.700   4.53630e-09
      118.800   4.46428e-09
      118.900   4.39495e-09
      119.000   4.32089e-09
      119.100   4.24148e-09
      119.200   4.18182e-09
      119.300   4.14961e-09
      119.400   4.12596e-09
      119.500   4.09651e-09
      119.600   4.05339e-09
      119.700   4.00331e-09
      119.800   3.94535e-09
      119.900   3.87696e-09
      120.000   3.81291e-09
      120.100   3.75241e-09
      120.200   3.70604e-09
      120.300   3.66782e-09
      120.400   3.62985e-09
      120.500   3.58149e-09
      120.600   3.52552e-09
      120.700   3.46759e-09
      120.800   3.41203e-09
      120.900   3.37080e-09
      121.000   3.35123e-09
      121.100   3.32993e-09
      121.200   3.30412e-09
      121.300   3.27125e-09
      121.400   3.23293e-09
      121.500   3.19027e-09
      121.600   3.11836e-09
      121.700   3.05066e-09
      121.800   2.97832e-09
      121.900   2.90643e-09
      122.000   2.83192e-09
      122.100   2.76152e-09
      122.200   2.69280e-09
      122.300   2.63834e-09
      122.400   2.59881e-09
      122.500   2.56277e-09
      122.600   2.52542e-09
      122.700   2.48842e-09
      122.800   2.44883e-09
      122.900   2.41153e-09
      123.000   2.39035e-09
      123.100   2.39660e-09
      123.200   2.40900e-09
      123.300   2.44929e-09
      123.400   2.50098e-09
      123.500   2.56896e-09
      123.600   2.62635e-09
      123.700   2.64718e-09
      123.800   2.64650e-09
      123.900   2.65332e-09
      124.000   2.67218e-09
      124.100   2.73172e-09
      124.200   2.88247e-09
      124.300   3.11601e-09
      124.400   3.33866e-09
      124.500   3.39172e-09
      124.600   3.36393e-09
      124.700   3.31591e-09
      124.800   3.26944e-09
      124.900   3.22352e-09
      125.000   3.17809e-09
      125.100   3.13218e-09
      125.200   3.08678e-09
      125.300   3.04198e-09
      125.400   2.99781e-09
      125.500   2.95426e-09
      125.600   2.89886e-09
      125.700   2.84157e-09
      125.800   2.79265e-09
      125.900   2.77410e-09
      126.000   2.75775e-09
      126.100   2.74149e-09
      126.200   2.72532e-09
      126.300   2.70924e-09
      126.400   2.69324e-09
      126.500   2.67733e-09
      126.600   2.66152e-09
      126.700   2.64579e-09
      126.800   2.63016e-09
      126.900   2.61461e-09
      127.000   2.59907e-09
      127.100   2.57811e-09
      127.200   2.55103e-09
      127.300   2.52213e-09
      127.400   2.49354e-09
      127.500   2.46525e-09
      127.600   2.43727e-09
      127.700   2.40959e-09
      127.800   2.38220e-09
      127.900   2.35509e-09
      128.000   2.32828e-09
      128.100   2.30175e-09
      128.200   2.27550e-09
      128.300   2.24952e-09
      128.400   2.22383e-09
      128.500   2.19841e-09
      128.600   2.17326e-09
      128.700   2.14839e-09
      128.800   2.12378e-09
      128.900   2.09944e-09
      129.000   2.07537e-09
      129.100   2.05153e-09
      129.200   2.02781e-09
      129.300   2.00435e-09
      129.400   1.98116e-09
      129.500   1.95822e-09
      129.600   1.93555e-09
      129.700   1.91313e-09
      129.800   1.89096e-09
      129.900   1.86904e-09
      130.000   1.84738e-09
      130.100   1.82596e-09
      130.200   1.80478e-09
      130.300   1.78385e-09
      130.400   1.76316e-09
      130.500   1.74269e-09
      130.600   1.72239e-09
      130.700   1.70229e-09
      130.800   1.68241e-09
      130.900   1.66278e-09
      131.000   1.64335e-09
      131.100   1.62416e-09
      131.200   1.60516e-09
      131.300   1.58635e-09
      131.400   1.56775e-09
      131.500   1.54935e-09
      131.600   1.53116e-09
      131.700   1.51317e-09
      131.800   1.49538e-09
      131.900   1.47778e-09
      132.000   1.46038e-09
      132.100   1.44317e-09
      132.200   1.42615e-09
      132.300   1.40931e-09
      132.400   1.39267e-09
      132.500   1.37621e-09
      132.600   1.35994e-09
      132.700   1.34291e-09
      132.800   1.32576e-09
      132.900   1.30877e-09
      133.000   1.29199e-09
      133.100   1.27541e-09
      133.200   1.25903e-09
      133.300   1.24285e-09
      133.400   1.22686e-09
      133.500   1.21106e-09
      133.600   1.19546e-09
      133.700   1.18005e-09
      133.800   1.16484e-09
      133.900   1.14983e-09
      134.000   1.13502e-09
      134.100   1.12038e-09
      134.200   1.10594e-09
      134.300   1.09167e-09
      134.400   1.07759e-09
      134.500   1.06368e-09
      134.600   1.04995e-09
      134.700   1.03639e-09
      134.800   1.02301e-09
      134.900   1.00980e-09
      135.000   9.96757e-10
      135.100   9.83887e-10
      135.200   9.71179e-10
      135.300   9.58633e-10
      135.400   9.46240e-10
      135.500   9.33972e-10
      135.600   9.21836e-10
      135.700   9.09849e-10
      135.800   8.98009e-10
      135.900   8.86318e-10
      136.000   8.74769e-10
      136.100   8.63361e-10
      136.200   8.52109e-10
      136.300   8.40991e-10
      136.400   8.30014e-10
      136.500   8.19173e-10
      136.600   8.08462e-10
      136.700   7.97885e-10
      136.800   7.87439e-10
      136.900   7.77125e-10
      137.000   7.66946e-10
      137.100   7.56909e-10
      137.200   7.47001e-10
      137.300   7.37228e-10
      137.400   7.27578e-10
      137.500   7.18045e-10
      137.600   7.08629e-10
      137.700   6.99319e-10
      137.800   6.90120e-10
      137.900   6.81035e-10
      138.000   6.72068e-10
      138.100   6.63214e-10
      138.200   6.54486e-10
      138.300   6.45867e-10
      138.400   6.37363e-10
      138.500   6.28966e-10
      138.600   6.20676e-10
      138.700   6.12494e-10
      138.800   6.04416e-10
      138.900   5.96441e-10
      139.000   5.88569e-10
      139.100   5.80806e-10
      139.200   5.73183e-10
      139.300   5.65697e-10
      139.400   5.58318e-10
      139.500   5.51031e-10
      139.600   5.43834e-10
      139.700   5.36728e-10
      139.800   5.29712e-10
      139.900   5.22782e-10
      140.000   5.15943e-10
      140.100   5.09190e-10
      140.200   5.02523e-10
      140.300   4.95938e-10
      140.400   4.89435e-10
      140.500   4.83011e-10
      140.600   4.76665e-10
      140.700   4.70399e-10
      140.800   4.64220e-10
      140.900   4.58119e-10
      141.000   4.52091e-10
      141.100   4.46138e-10
      141.200   4.40260e-10
      141.300   4.34454e-10
      141.400   4.28737e-10
      141.500   4.23179e-10
      141.600   4.17749e-10
      141.700   4.12387e-10
      141.800   4.07091e-10
      141.900   4.01860e-10
      142.000   3.96691e-10
      142.100   3.91741e-10
      142.200   3.87297e-10
      142.300   3.83283e-10
      142.400   3.79313e-10
      142.500   3.75378e-10
      142.600   3.71480e-10
      142.700   3.67618e-10
      142.800   3.63793e-10
      142.900   3.60004e-10
      143.000   3.56252e-10
      143.100   3.52536e-10
      143.200   3.48860e-10
      143.300   3.45217e-10
      143.400   3.41610e-10
      143.500   3.38038e-10
      143.600   3.34500e-10
      143.700   3.31023e-10
      143.800   3.27947e-10
      143.900   3.24966e-10
      144.000   3.22014e-10
      144.100   3.19087e-10
      144.200   3.16183e-10
      144.300   3.13303e-10
      144.400   3.10480e-10
      144.500   3.08143e-10
      144.600   3.05967e-10
      144.700   3.03818e-10
      144.800   3.01679e-10
      144.900   2.99549e-10
      145.000   2.97429e-10
      145.100   2.95320e-10
      145.200   2.93221e-10
      145.300   2.91132e-10
      145.400   2.89053e-10
      145.500   2.86983e-10
      145.600   2.84922e-10
      145.700   2.82870e-10
      145.800   2.80829e-10
      145.900   2.78798e-10
      146.000   2.76775e-10
      146.100   2.74732e-10
      146.200   2.72678e-10
      146.300   2.70635e-10
      146.400   2.68600e-10
      146.500   2.66579e-10
      146.600   2.64568e-10
      146.700   2.62567e-10
      146.800   2.60561e-10
      146.900   2.58543e-10
      147.000   2.56536e-10
      147.100   2.54541e-10
      147.200   2.52558e-10
      147.300   2.50587e-10
      147.400   2.48628e-10
      147.500   2.46681e-10
      147.600   2.44744e-10
      147.700   2.42821e-10
      147.800   2.40910e-10
      147.900   2.39010e-10
      148.000   2.37122e-10
      148.100   2.35246e-10
      148.200   2.33382e-10
      148.300   2.31531e-10
      148.400   2.30039e-10
      148.500   2.28825e-10
      148.600   2.27709e-10
      148.700   2.26595e-10
      148.800   2.25483e-10
      148.900   2.24376e-10
      149.000   2.23272e-10
      149.100   2.22171e-10
      149.200   2.21071e-10
      149.300   2.19974e-10
      149.400   2.18880e-10
      149.500   2.17789e-10
      149.600   2.16700e-10
      149.700   2.15614e-10
      149.800   2.14531e-10
      149.900   2.13451e-10
      150.000   2.12374e-10
      150.100   2.11300e-10
      150.200   2.10226e-10
      150.300   2.09157e-10
      150.400   2.08090e-10
      150.500   2.07025e-10
      150.600   2.05963e-10
      150.700   2.04904e-10
      150.800   2.03847e-10
      150.900   2.02793e-10
      151.000   2.01740e-10
      151.100   2.00691e-10
      151.200   1.99644e-10
      151.300   1.98600e-10
      151.400   1.97558e-10
      151.500   1.96520e-10
      151.600   1.95485e-10
      151.700   1.94457e-10
      151.800   1.93432e-10
      151.900   1.92409e-10
      152.000   1.91461e-10
      152.100   1.91261e-10
      152.200   1.91154e-10
      152.300   1.91042e-10
      152.400   1.90928e-10
      152.500   1.90813e-10
      152.600   1.90696e-10
      152.700   1.89827e-10
      152.800   1.88691e-10
      152.900   1.87557e-10
      153.000   1.86427e-10
      153.100   1.85302e-10
      153.200   1.84181e-10
      153.300   1.83305e-10
      153.400   1.82662e-10
      153.500   1.82045e-10
      153.600   1.81429e-10
      153.700   1.80815e-10
      153.800   1.80199e-10
      153.900   1.79584e-10
      154.000   1.78992e-10
      154.100   1.78447e-10
      154.200   1.77917e-10
      154.300   1.77387e-10
      154.400   1.76857e-10
      154.500   1.76326e-10
      154.600   1.75796e-10
      154.700   1.75266e-10
      154.800   1.74735e-10
      154.900   1.74204e-10
      155.000   1.73672e-10
      155.100   1.73142e-10
      155.200   1.72609e-10
      155.300   1.72076e-10
      155.400   1.71543e-10
      155.500   1.71010e-10
      155.600   1.70475e-10
      155.700   1.69940e-10
      155.800   1.69405e-10
      155.900   1.68869e-10
      156.000   1.68333e-10
      156.100   1.67795e-10
      156.200   1.67257e-10
      156.300   1.66718e-10
      156.400   1.66179e-10
      156.500   1.65632e-10
      156.600   1.65047e-10
      156.700   1.64461e-10
      156.800   1.63875e-10
      156.900   1.63288e-10
      157.000   1.62702e-10
      157.100   1.62061e-10
      157.200   1.61050e-10
      157.300   1.59642e-10
      157.400   1.58246e-10
      157.500   1.56857e-10
      157.600   1.55480e-10
      157.700   1.54111e-10
      157.800   1.52753e-10
      157.900   1.52237e-10
      158.000   1.51796e-10
      158.100   1.51355e-10
      158.200   1.50913e-10
      158.300   1.50470e-10
      158.400   1.50028e-10
      158.500   1.49585e-10
      158.600   1.49141e-10
      158.700   1.48696e-10
      158.800   1.48253e-10
      158.900   1.47808e-10
      159.000   1.47363e-10
      159.100   1.46892e-10
      159.200   1.46124e-10
      159.300   1.44872e-10
      159.400   1.43629e-10
      159.500   1.42395e-10
      159.600   1.41170e-10
      159.700   1.39954e-10
      159.800   1.38746e-10
      159.900   1.38138e-10
      160.000   1.37936e-10
      160.100   1.37746e-10
      160.200   1.37555e-10
      160.300   1.37362e-10
      160.400   1.37170e-10
      160.500   1.36907e-10
      160.600   1.36256e-10
      160.700   1.35319e-10
      160.800   1.34387e-10
      160.900   1.33459e-10
      161.000   1.32536e-10
      161.100   1.31618e-10
      161.200   1.30705e-10
      161.300   1.29797e-10
      161.400   1.28893e-10
      161.500   1.27995e-10
      161.600   1.27100e-10
      161.700   1.26209e-10
      161.800   1.25322e-10
      161.900   1.24457e-10
      162.000   1.23742e-10
      162.100   1.23117e-10
      162.200   1.22494e-10
      162.300   1.21873e-10
      162.400   1.21253e-10
      162.500   1.20634e-10
      162.600   1.20018e-10
      162.700   1.19402e-10
      162.800   1.18788e-10
      162.900   1.18176e-10
      163.000   1.17566e-10
      163.100   1.16957e-10
      163.200   1.16349e-10
      163.300   1.15743e-10
      163.400   1.15139e-10
      163.500   1.14537e-10
      163.600   1.13936e-10
      163.700   1.13337e-10
      163.800   1.12740e-10
      163.900   1.12145e-10
      164.000   1.11552e-10
      164.100   1.10829e-10
      164.200   1.09755e-10
      164.300   1.08696e-10
      164.400   1.07646e-10
      164.500   1.06605e-10
      164.600   1.05574e-10
      164.700   1.04550e-10
      164.800   1.03658e-10
      164.900   1.03040e-10
      165.000   1.02533e-10
      165.100   1.02028e-10
      165.200   1.01524e-10
      165.300   1.01021e-10
      165.400   1.00521e-10
      165.500   1.00023e-10
      165.600   9.91845e-11
      165.700   9.82047e-11
      165.800   9.72224e-11
      165.900   9.62491e-11
      166.000   9.52856e-11
      166.100   9.43306e-11
      166.200   9.33846e-11
      166.300   9.24474e-11
      166.400   9.15186e-11
      166.500   9.05980e-11
      166.600   8.96860e-11
      166.700   8.87824e-11
      166.800   8.78860e-11
      166.900   8.69982e-11
      167.000   8.61200e-11
      167.100   8.52483e-11
      167.200   8.43845e-11
      167.300   8.35287e-11
      167.400   8.26809e-11
      167.500   8.18404e-11
      167.600   8.10077e-11
      167.700   8.01829e-11
      167.800   7.93654e-11
      167.900   7.85553e-11
      168.000   7.77525e-11
      168.100   7.69570e-11
      168.200   7.61687e-11
      168.300   7.53875e-11
      168.400   7.46136e-11
      168.500   7.38533e-11
      168.600   7.32603e-11
      168.700   7.27563e-11
      168.800   7.22551e-11
      168.900   7.17568e-11
      169.000   7.12613e-11
      169.100   7.07679e-11
      169.200   7.02776e-11
      169.300   6.97899e-11
      169.400   6.93047e-11
      169.500   6.88182e-11
      169.600   6.83180e-11
      169.700   6.78026e-11
      169.800   6.72848e-11
      169.900   6.67695e-11
      170.000   6.62568e-11
      170.100   6.55225e-11
      170.200   6.44671e-11
      170.300   8.39680e-11
      170.400   1.80272e-10
      170.500   3.41405e-10
      170.600   5.02173e-10
      170.700   6.30125e-10
      170.800   6.88708e-10
      170.900   6.91566e-10
      171.000   6.82058e-10
      171.100   6.72920e-10
      171.200   6.63863e-10
      171.300   6.54884e-10
      171.400   6.45988e-10
      171.500   6.37173e-10
      171.600   6.28440e-10
      171.700   6.19799e-10
      171.800   6.11250e-10
      171.900   6.02799e-10
      172.000   5.94453e-10
      172.100   5.86214e-10
      172.200   5.78088e-10
      172.300   5.70054e-10
      172.400   5.62020e-10
      172.500   5.54080e-10
      172.600   5.46257e-10
      172.700   5.38553e-10
      172.800   5.30961e-10
      172.900   5.23482e-10
      173.000   5.16121e-10
      173.100   5.08871e-10
      173.200   5.01729e-10
      173.300   4.94698e-10
      173.400   4.87770e-10
      173.500   4.80950e-10
      173.600   4.74234e-10
      173.700   4.67618e-10
      173.800   4.61103e-10
      173.900   4.54687e-10
      174.000   4.48364e-10
      174.100   4.42135e-10
      174.200   4.35998e-10
      174.300   4.29948e-10
      174.400   4.23986e-10
      174.500   4.18108e-10
      174.600   4.12310e-10
      174.700   4.06596e-10
      174.800   4.00963e-10
      174.900   3.95404e-10
      175.000   3.89919e-10
      175.100   3.84507e-10
      175.200   3.79184e-10
      175.300   3.73928e-10
      175.400   3.68742e-10
      175.500   3.63629e-10
      175.600   3.58582e-10
      175.700   3.53604e-10
      175.800   3.48692e-10
      175.900   3.43846e-10
      176.000   3.39064e-10
      176.100   3.34349e-10
      176.200   3.29697e-10
      176.300   3.25107e-10
      176.400   3.20580e-10
      176.500   3.16103e-10
      176.600   3.09907e-10
      176.700   3.02993e-10
      176.800   2.96228e-10
      176.900   2.89611e-10
      177.000   2.83137e-10
      177.100   2.76802e-10
      177.200   2.70607e-10
      177.300   2.64546e-10
      177.400   2.58614e-10
      177.500   2.52809e-10
      177.600   2.47132e-10
      177.700   2.41579e-10
      177.800   2.36146e-10
      177.900   2.30827e-10
      178.000   2.25640e-10
      178.100   2.20566e-10
      178.200   2.15601e-10
      178.300   2.10743e-10
      178.400   2.05993e-10
      178.500   2.01345e-10
      178.600   1.96886e-10
      178.700   1.93001e-10
      178.800   1.89942e-10
      178.900   1.86929e-10
      179.000   1.83961e-10
      179.100   1.81037e-10
      179.200   1.78159e-10
      179.300   1.75326e-10
      179.400   1.72535e-10
      179.500   1.69788e-10
      179.600   1.67085e-10
      179.700   1.64424e-10
      179.800   1.61805e-10
      179.900   1.59227e-10
      180.000   1.56690e-10
      180.100   1.54193e-10
      180.200   1.51737e-10
      180.300   1.49321e-10
      180.400   1.46943e-10
      180.500   1.44604e-10
      180.600   1.42303e-10
      180.700   1.40039e-10
      180.800   1.37813e-10
      180.900   1.35622e-10
      181.000   1.33467e-10
      181.100   1.31346e-10
      181.200   1.29261e-10
      181.300   1.27210e-10
      181.400   1.25192e-10
      181.500   1.23208e-10
      181.600   1.21255e-10
      181.700   1.19334e-10
      181.800   1.17444e-10
      181.900   1.15584e-10
      182.000   1.13756e-10
      182.100   1.11956e-10
      182.200   1.10198e-10
      182.300   1.08591e-10
      182.400   1.07015e-10
      182.500   1.05462e-10
      182.600   1.03932e-10
      182.700   1.02424e-10
      182.800   1.00938e-10
      182.900   9.94733e-11
      183.000   9.80300e-11
      183.100   9.66077e-11
      183.200   9.52057e-11
      183.300   9.38234e-11
      183.400   9.24611e-11
      183.500   9.11186e-11
      183.600   8.97951e-11
      183.700   8.84906e-11
      183.800   8.72060e-11
      183.900   8.59402e-11
      184.000   8.46925e-11
      184.100   8.34632e-11
      184.200   8.22515e-11
      184.300   8.10574e-11
      184.400   7.98808e-11
      184.500   7.87212e-11
      184.600   7.75778e-11
      184.700   7.64510e-11
      184.800   7.53406e-11
      184.900   7.42460e-11
      185.000   7.31670e-11
      185.100   7.21146e-11
      185.200   7.11321e-11
      185.300   7.02349e-11
      185.400   6.93487e-11
      185.500   6.84732e-11
      185.600   6.76085e-11
      185.700   6.67544e-11
      185.800   6.59115e-11
      185.900   6.50788e-11
      186.000   6.42564e-11
      186.100   6.34438e-11
      186.200   6.26409e-11
      186.300   6.18474e-11
      186.400   6.10638e-11
      186.500   6.02896e-11
      186.600   5.95244e-11
      186.700   5.87678e-11
      186.800   5.80202e-11
      186.900   5.72816e-11
      187.000   5.65516e-11
      187.100   5.58297e-11
      187.200   5.51169e-11
      187.300   5.44128e-11
      187.400   5.37168e-11
      187.500   5.30291e-11
      187.600   5.23495e-11
      187.700   5.16780e-11
      187.800   5.10146e-11
      187.900   5.03589e-11
      188.000   4.97113e-11
      188.100   4.90427e-11
      188.200   4.82816e-11
      188.300   4.74050e-11
      188.400   4.65439e-11
      188.500   4.56979e-11
      188.600   4.48673e-11
      188.700   4.40517e-11
      188.800   4.32508e-11
      188.900   4.24642e-11
      189.000   4.16915e-11
      189.100   4.09323e-11
      189.200   4.01867e-11
      189.300   3.94545e-11
      189.400   3.87356e-11
      189.500   3.80330e-11
      189.600   3.73924e-11
      189.700   3.69532e-11
      189.800   3.65225e-11
      189.900   3.60972e-11
      190.000   3.56772e-11
      190.100   3.52622e-11
      190.200   3.48522e-11
      190.300   3.44472e-11
      190.400   3.40467e-11
      190.500   3.36512e-11
      190.600   3.32605e-11
      190.700   3.28743e-11
      190.800   3.24928e-11
      190.900   3.21158e-11
      191.000   3.17436e-11
      191.100   3.13759e-11
      191.200   3.10124e-11
      191.300   3.06533e-11
      191.400   3.02985e-11
      191.500   2.99478e-11
      191.600   2.96013e-11
      191.700   2.92588e-11
      191.800   2.89202e-11
      191.900   2.85856e-11
      192.000   2.82551e-11
      192.100   2.79284e-11
      192.200   2.76060e-11
      192.300   2.72871e-11
      192.400   2.69719e-11
      192.500   2.66420e-11
      192.600   2.62560e-11
      192.700   2.58277e-11
      192.800   2.54063e-11
      192.900   2.49914e-11
      193.000   2.45833e-11
      193.100   2.41821e-11
      193.200   2.37876e-11
      193.300   2.33996e-11
      193.400   2.30181e-11
      193.500   2.26427e-11
      193.600   2.22733e-11
      193.700   2.19099e-11
      193.800   2.15526e-11
      193.900   2.12011e-11
      194.000   2.08614e-11
      194.100   2.06469e-11
      194.200   2.04753e-11
      194.300   2.03082e-11
      194.400   2.01424e-11
      194.500   1.99782e-11
      194.600   1.98154e-11
      194.700   1.96539e-11
      194.800   1.94939e-11
      194.900   1.93351e-11
      195.000   1.91777e-11
      195.100   1.90218e-11
      195.200   1.88672e-11
      195.300   1.87137e-11
      195.400   1.85615e-11
      195.500   1.84083e-11
      195.600   1.81993e-11
      195.700   1.78973e-11
      195.800   1.76001e-11
      195.900   1.73077e-11
      196.000   1.70170e-11
      196.100   1.67309e-11
      196.200   1.64494e-11
      196.300   1.61725e-11
      196.400   1.59000e-11
      196.500   1.56318e-11
      196.600   1.53679e-11
      196.700   1.51083e-11
      196.800   1.48529e-11
      196.900   1.46019e-11
      197.000   1.43550e-11
      197.100   1.41119e-11
      197.200   1.38728e-11
      197.300   1.36374e-11
      197.400   1.34057e-11
      197.500   1.31777e-11
      197.600   1.29534e-11
      197.700   1.27331e-11
      197.800   1.25164e-11
      197.900   1.23031e-11
      198.000   1.20932e-11
      198.100   1.18868e-11
      198.200   1.16836e-11
      198.300   1.14837e-11
      198.400   1.12871e-11
      198.500   1.10940e-11
      198.600   1.09041e-11
      198.700   1.07335e-11
      198.800   1.05883e-11
      198.900   1.04561e-11
      199.000   1.03254e-11
      199.100   1.01963e-11
      199.200   1.00688e-11
      199.300   9.94295e-12
      199.400   9.81867e-12
      199.500   9.69590e-12
      199.600   9.57458e-12
      199.700   9.45475e-12
      199.800   9.33641e-12
      199.900   9.21949e-12
      200.000   9.10397e-12
      200.100   8.99047e-12
      200.200   8.87795e-12
      200.300   8.76690e-12
      200.400   8.65718e-12
      200.500   8.54879e-12
      200.600   8.44182e-12
      200.700   8.33617e-12
      200.800   8.23177e-12
      200.900   8.12876e-12
      201.000   8.02701e-12
      201.100   7.92661e-12
      201.200   7.82745e-12
      201.300   7.72952e-12
      201.400   7.63285e-12
      201.500   7.53737e-12
      201.600   7.44306e-12
      201.700   7.34997e-12
      201.800   7.25802e-12
      201.900   7.16507e-12
      202.000   7.03863e-12
      202.100   6.89792e-12
      202.200   6.76005e-12
      202.300   6.62554e-12
      202.400   6.49478e-12
      202.500   6.36692e-12
      202.600   6.24151e-12
      202.700   6.11860e-12
      202.800   5.99813e-12
      202.900   5.88009e-12
      203.000   5.76439e-12
      203.100   5.65102e-12
      203.200   5.53980e-12
      203.300   5.43074e-12
      203.400   5.32382e-12
      203.500   5.21902e-12
      203.600   5.11970e-12
      203.700   5.03188e-12
      203.800   4.94685e-12
      203.900   4.86334e-12
      204.000   4.78124e-12
      204.100   4.70054e-12
      204.200   4.62126e-12
      204.300   4.54331e-12
      204.400   4.46670e-12
      204.500   4.39141e-12
      204.600   4.31740e-12
      204.700   4.24466e-12
      204.800   4.17323e-12
      204.900   4.10304e-12
      205.000   4.03406e-12
      205.100   3.96627e-12
      205.200   3.89961e-12
      205.300   3.83412e-12
      205.400   3.76974e-12
      205.500   3.70644e-12
      205.600   3.64423e-12
      205.700   3.58250e-12
      205.800   3.52168e-12
      205.900   3.46192e-12
      206.000   3.40323e-12
      206.100   3.34552e-12
      206.200   3.28877e-12
      206.300   3.23300e-12
      206.400   3.17818e-12
      206.500   3.12426e-12
      206.600   3.07126e-12
      206.700   3.01916e-12
      206.800   2.96791e-12
      206.900   2.91751e-12
      207.000   2.86797e-12
      207.100   2.81927e-12
      207.200   2.77142e-12
      207.300   2.72433e-12
      207.400   2.67802e-12
      207.500   2.63248e-12
      207.600   2.58770e-12
      207.700   2.54364e-12
      207.800   2.50030e-12
      207.900   2.45768e-12
      208.000   2.41576e-12
      208.100   2.37454e-12
      208.200   2.33399e-12
      208.300   2.29411e-12
      208.400   2.25490e-12
      208.500   2.21635e-12
      208.600   2.17842e-12
      208.700   2.14111e-12
      208.800   2.10441e-12
      208.900   2.06710e-12
      209.000   2.02521e-12
      209.100   1.98067e-12
      209.200   1.93708e-12
      209.300   1.89440e-12
      209.400   1.85265e-12
      209.500   1.81178e-12
      209.600   1.77178e-12
      209.700   1.73265e-12
      209.800   1.69441e-12
      209.900   1.65695e-12
      210.000   1.62032e-12
      210.100   1.58446e-12
      210.200   1.54938e-12
      210.300   1.51505e-12
      210.400   1.48146e-12
      210.500   1.44860e-12
      210.600   1.41644e-12
      210.700   1.38498e-12
      210.800   1.35420e-12
      210.900   1.32408e-12
      211.000   1.29461e-12
      211.100   1.26579e-12
      211.200   1.23759e-12
      211.300   1.21003e-12
      211.400   1.18308e-12
      211.500   1.15671e-12
      211.600   1.13091e-12
      211.700   1.10568e-12
      211.800   1.08098e-12
      211.900   1.05683e-12
      212.000   1.03322e-12
      212.100   1.01011e-12
      212.200   9.87504e-13
      212.300   9.64504e-13
      212.400   9.39428e-13
      212.500   9.13967e-13
      212.600   8.89181e-13
      212.700   8.65051e-13
      212.800   8.41559e-13
      212.900   8.18699e-13
      213.000   7.96440e-13
      213.100   7.74797e-13
      213.200   7.53727e-13
      213.300   7.33220e-13
      213.400   7.13254e-13
      213.500   6.93822e-13
      213.600   6.74905e-13
      213.700   6.56498e-13
      213.800   6.38577e-13
      213.900   6.21146e-13
      214.000   6.04176e-13
      214.100   5.87932e-13
      214.200   5.75371e-13
      214.300   5.65212e-13
      214.400   5.55231e-13
      214.500   5.45425e-13
      214.600   5.35793e-13
      214.700   5.26332e-13
      214.800   5.17038e-13
      214.900   5.07910e-13
      215.000   4.98941e-13
      215.100   4.90132e-13
      215.200   4.81484e-13
      215.300   4.72993e-13
      215.400   4.64652e-13
      215.500   4.56458e-13
      215.600   4.48417e-13
      215.700   4.40513e-13
      215.800   4.32749e-13
      215.900   4.25129e-13
      216.000   4.16995e-13
      216.100   4.07468e-13
      216.200   3.97577e-13
      216.300   3.87927e-13
      216.400   3.78511e-13
      216.500   3.69320e-13
      216.600   3.60355e-13
      216.700   3.51609e-13
      216.800   3.43073e-13
      216.900   3.34746e-13
      217.000   3.26622e-13
      217.100   3.18691e-13
      217.200   3.10955e-13
      217.300   3.03407e-13
      217.400   2.96041e-13
      217.500   2.88857e-13
      217.600   2.81843e-13
      217.700   2.74997e-13
      217.800   2.68320e-13
      217.900   2.61782e-13
      218.000   2.54772e-13
      218.100   2.47947e-13
      218.200   2.41303e-13
      218.300   2.34839e-13
      218.400   2.28553e-13
      218.500   2.22430e-13
      218.600   2.16472e-13
      218.700   2.10670e-13
      218.800   2.05021e-13
      218.900   1.99524e-13
      219.000   1.94170e-13
      219.100   1.88956e-13
      219.200   1.83882e-13
      219.300   1.78943e-13
      219.400   1.74132e-13
      219.500   1.69450e-13
      219.600   1.64890e-13
      219.700   1.60451e-13
      219.800   1.56131e-13
      219.900   1.51924e-13
      220.000   1.47828e-13
      220.100   1.43839e-13
      220.200   1.39957e-13
      220.300   1.36177e-13
      220.400   1.32497e-13
      220.500   1.28915e-13
      220.600   1.25429e-13
      220.700   1.22033e-13
      220.800   1.18726e-13
      220.900   1.15510e-13
      221.000   1.12377e-13
      221.100   1.09327e-13
      221.200   1.06359e-13
      221.300   1.03470e-13
      221.400   1.00657e-13
      221.500   9.79193e-14
      221.600   9.52542e-14
      221.700   9.26597e-14
      221.800   9.03009e-14
      221.900   8.84405e-14
      222.000   8.67404e-14
      222.100   8.50714e-14
      222.200   8.34343e-14
      222.300   8.18275e-14
      222.400   8.02513e-14
      222.500   7.87044e-14
      222.600   7.71871e-14
      222.700   7.56980e-14
      222.800   7.42366e-14
      222.900   7.28030e-14
      223.000   7.13962e-14
      223.100   7.00157e-14
      223.200   6.86616e-14
      223.300   6.73327e-14
      223.400   6.60292e-14
      223.500   6.47499e-14
      223.600   6.34953e-14
      223.700   6.22641e-14
      223.800   6.10339e-14
      223.900   5.96738e-14
      224.000   5.83207e-14
      224.100   5.69977e-14
      224.200   5.57039e-14
      224.300   5.44391e-14
      224.400   5.32017e-14
      224.500   5.19924e-14
      224.600   5.08094e-14
      224.700   4.96533e-14
      224.800   4.85224e-14
      224.900   4.74165e-14
      225.000   4.63354e-14
      225.100   4.52781e-14
      225.200   4.42442e-14
      225.300   4.32341e-14
      225.400   4.22457e-14
      225.500   4.12794e-14
      225.600   4.03347e-14
      225.700   3.94114e-14
      225.800   3.85083e-14
      225.900   3.78371e-14
      226.000   3.72634e-14
      226.100   3.67070e-14
      226.200   3.61588e-14
      226.300   3.56210e-14
      226.400   3.50925e-14
      226.500   3.45709e-14
      226.600   3.40560e-14
      226.700   3.35481e-14
      226.800   3.30473e-14
      226.900   3.25537e-14
      227.000   3.20670e-14
      227.100   3.15874e-14
      227.200   3.11150e-14
      227.300   3.06496e-14
      227.400   3.01909e-14
      227.500   2.97390e-14
      227.600   2.92938e-14
      227.700   2.88553e-14
      227.800   2.84233e-14
      227.900   2.79629e-14
      228.000   2.74200e-14
      228.100   2.68363e-14
      228.200   2.62649e-14
      228.300   2.57056e-14
      228.400   2.51583e-14
      228.500   2.46223e-14
      228.600   2.40979e-14
      228.700   2.35846e-14
      228.800   2.30820e-14
      228.900   2.25904e-14
      229.000   2.21092e-14
      229.100   2.16381e-14
      229.200   2.11771e-14
      229.300   2.07260e-14
      229.400   2.02844e-14
      229.500   1.98523e-14
      229.600   1.94294e-14
      229.700   1.90156e-14
      229.800   1.86106e-14
      229.900   1.82142e-14
      230.000   1.78220e-14
      230.100   1.74056e-14
      230.200   1.69791e-14
      230.300   1.65633e-14
      230.400   1.61575e-14
      230.500   1.57618e-14
      230.600   1.53759e-14
      230.700   1.49993e-14
      230.800   1.46320e-14
      230.900   1.42737e-14
      231.000   1.39241e-14
      231.100   1.35831e-14
      231.200   1.32504e-14
      231.300   1.29259e-14
      231.400   1.26095e-14
      231.500   1.23006e-14
      231.600   1.19992e-14
      231.700   1.17052e-14
      231.800   1.14185e-14
      231.900   1.11387e-14
      232.000   1.08657e-14
      232.100   1.05994e-14
      232.200   1.03740e-14
      232.300   1.02018e-14
      232.400   1.00452e-14
      232.500   9.89111e-15
      232.600   9.73942e-15
      232.700   9.59009e-15
      232.800   9.44309e-15
      232.900   9.29828e-15
      233.000   9.15557e-15
      233.100   9.01511e-15
      233.200   8.87684e-15
      233.300   8.74071e-15
      233.400   8.60672e-15
      233.500   8.47477e-15
      233.600   8.34492e-15
      233.700   8.21706e-15
      233.800   8.08784e-15
      233.900   7.96019e-15
      234.000   7.83455e-15
      234.100   7.71088e-15
      234.200   7.58923e-15
      234.300   7.46947e-15
      234.400   7.35159e-15
      234.500   7.23557e-15
      234.600   7.12137e-15
      234.700   7.00901e-15
      234.800   6.89844e-15
      234.900   6.78957e-15
      235.000   6.68241e-15
      235.100   6.57694e-15
      235.200   6.47315e-15
      235.300   6.37100e-15
      235.400   6.27041e-15
      235.500   6.17145e-15
      235.600   6.07406e-15
      235.700   5.97815e-15
      235.800   5.88382e-15
      235.900   5.79097e-15
      236.000   5.69961e-15
      236.100   5.60964e-15
      236.200   5.52109e-15
      236.300   5.43391e-15
      236.400   5.34814e-15
      236.500   5.26369e-15
      236.600   5.18419e-15
      236.700   5.11389e-15
      236.800   5.04957e-15
      236.900   4.98603e-15
      237.000   4.92328e-15
      237.100   4.86131e-15
      237.200   4.80010e-15
      237.300   4.73965e-15
      237.400   4.67995e-15
      237.500   4.62098e-15
      237.600   4.56266e-15
      237.700   4.50511e-15
      237.800   4.44828e-15
      237.900   4.39211e-15
      238.000   4.33666e-15
      238.100   4.28187e-15
      238.200   4.22775e-15
      238.300   4.17429e-15
      238.400   4.12147e-15
      238.500   4.06929e-15
      238.600   4.01775e-15
      238.700   3.96685e-15
      238.800   3.91655e-15
      238.900   3.86988e-15
      239.000   3.83428e-15
      239.100   3.80018e-15
      239.200   3.76638e-15
      239.300   3.73285e-15
      239.400   3.69958e-15
      239.500   3.66659e-15
      239.600   3.63385e-15
      239.700   3.60138e-15
      239.800   3.56918e-15
      239.900   3.53723e-15
      240.000   3.50553e-15
      240.100   3.47408e-15
      240.200   3.44289e-15
      240.300   3.41195e-15
      240.400   3.38125e-15
      240.500   3.35080e-15
      240.600   3.32062e-15
      240.700   3.29064e-15
      240.800   3.26091e-15
      240.900   3.23144e-15
      241.000   3.20220e-15
      241.100   3.17320e-15
      241.200   3.14444e-15
      241.300   3.11590e-15
      241.400   3.08761e-15
      241.500   3.05955e-15
      241.600   3.03172e-15
      241.700   3.00412e-15
      241.800   2.97674e-15
      241.900   2.94959e-15
      242.000   2.92268e-15
      242.100   2.89600e-15
      242.200   2.86954e-15
      242.300   2.84333e-15
      242.400   2.81733e-15
      242.500   2.79156e-15
      242.600   2.76601e-15
      242.700   2.74067e-15
      242.800   2.71557e-15
      242.900   2.69068e-15
      243.000   2.66601e-15
      243.100   2.64155e-15
      243.200   2.61731e-15
      243.300   2.59328e-15
      243.400   2.56948e-15
      243.500   2.54589e-15
      243.600   2.52252e-15
      243.700   2.49936e-15
      243.800   2.47641e-15
      243.900   2.45367e-15
      244.000   2.43113e-15
      244.100   2.40880e-15
      244.200   2.38669e-15
      244.300   2.36476e-15
      244.400   2.34304e-15
      244.500   2.32153e-15
      244.600   2.30021e-15
      244.700   2.27910e-15
      244.800   2.25820e-15
      244.900   2.23748e-15
      245.000   2.21695e-15
      245.100   2.19662e-15
      245.200   2.17649e-15
      245.300   2.15654e-15
      245.400   2.13678e-15
      245.500   2.11720e-15
      245.600   2.09782e-15
      245.700   2.07861e-15
      245.800   2.05958e-15
      245.900   2.04075e-15
      246.000   2.02210e-15
      246.100   2.00362e-15
      246.200   1.98532e-15
      246.300   1.96720e-15
      246.400   1.94925e-15
      246.500   1.93147e-15
      246.600   1.91385e-15
      246.700   1.89641e-15
      246.800   1.87914e-15
      246.900   1.86203e-15
      247.000   1.84508e-15
      247.100   1.82830e-15
      247.200   1.81169e-15
      247.300   1.79523e-15
      247.400   1.77893e-15
      247.500   1.76279e-15
      247.600   1.74680e-15
      247.700   1.73096e-15
      247.800   1.71527e-15
      247.900   1.69973e-15
      248.000   1.68435e-15
      248.100   1.66913e-15
      248.200   1.65405e-15
      248.300   1.63911e-15
      248.400   1.62431e-15
      248.500   1.60577e-15
      248.600   1.58100e-15
      248.700   1.55249e-15
      248.800   1.52450e-15
      248.900   1.49702e-15
      249.000   1.47002e-15
      249.100   1.44356e-15
      249.200   1.41759e-15
      249.300   1.39208e-15
      249.400   1.36702e-15
      249.500   1.34242e-15
      249.600   1.31826e-15
      249.700   1.29454e-15
      249.800   1.27124e-15
      249.900   1.24836e-15
      250.000   1.22589e-15
      250.100   1.20386e-15
      250.200   1.18222e-15
      250.300   1.16099e-15
      250.400   1.14014e-15
      250.500   1.11966e-15
      250.600   1.09956e-15
      250.700   1.07981e-15
      250.800   1.06042e-15
      250.900   1.04138e-15
      251.000   1.02268e-15
      251.100   1.00432e-15
      251.200   9.86293e-16
      251.300   9.68609e-16
      251.400   9.51246e-16
      251.500   9.34189e-16
      251.600   9.11026e-16
      251.700   8.76145e-16
      251.800   8.40807e-16
      251.900   8.06860e-16
      252.000   7.74246e-16
      252.100   7.42938e-16
      252.200   7.12854e-16
      252.300   6.83998e-16
      252.400   6.56319e-16
      252.500   6.29749e-16
      252.600   6.05574e-16
      252.700   5.90327e-16
      252.800   5.83653e-16
      252.900   5.77059e-16
      253.000   5.70538e-16
      253.100   5.64091e-16
      253.200   5.57720e-16
      253.300   5.51549e-16
      253.400   5.45502e-16
      253.500   5.39529e-16
      253.600   5.33623e-16
      253.700   5.27686e-16
      253.800   5.21361e-16
      253.900   5.15024e-16
      254.000   5.08762e-16
      254.100   5.02574e-16
      254.200   4.96460e-16
      254.300   4.90420e-16
      254.400   4.84453e-16
      254.500   4.78558e-16
      254.600   4.72731e-16
      254.700   4.66977e-16
      254.800   4.61294e-16
      254.900   4.55678e-16
      255.000   4.50129e-16
      255.100   4.44641e-16
      255.200   4.39222e-16
      255.300   4.33866e-16
      255.400   4.28574e-16
      255.500   4.23343e-16
      255.600   4.18175e-16
      255.700   4.13068e-16
      255.800   4.08019e-16
      255.900   4.03031e-16
      256.000   3.98099e-16
      256.100   3.93229e-16
      256.200   3.88415e-16
      256.300   3.83657e-16
      256.400   3.78960e-16
      256.500   3.74313e-16
      256.600   3.69721e-16
      256.700   3.65183e-16
      256.800   3.60699e-16
      256.900   3.55450e-16
      257.000   3.48965e-16
      257.100   3.42190e-16
      257.200   3.35545e-16
      257.300   3.29024e-16
      257.400   3.22674e-16
      257.500   3.16459e-16
      257.600   3.10369e-16
      257.700   3.04393e-16
      257.800   2.98526e-16
      257.900   2.92772e-16
      258.000   2.87126e-16
      258.100   2.81584e-16
      258.200   2.76147e-16
      258.300   2.70814e-16
      258.400   2.65577e-16
      258.500   2.60439e-16
      258.600   2.55400e-16
      258.700   2.50454e-16
      258.800   2.45601e-16
      258.900   2.40842e-16
      259.000   2.36170e-16
      259.100   2.31588e-16
      259.200   2.27092e-16
      259.300   2.22685e-16
      259.400   2.18360e-16
      259.500   2.14117e-16
      259.600   2.09955e-16
      259.700   2.05873e-16
      259.800   2.01867e-16
      259.900   1.97935e-16
      260.000   1.94080e-16
      260.100   1.90052e-16
      260.200   1.85802e-16
      260.300   1.81589e-16
      260.400   1.77470e-16
      260.500   1.73444e-16
      260.600   1.69504e-16
      260.700   1.65653e-16
      260.800   1.61891e-16
      260.900   1.58209e-16
      261.000   1.54612e-16
      261.100   1.51096e-16
      261.200   1.47640e-16
      261.300   1.44261e-16
      261.400   1.40958e-16
      261.500   1.37733e-16
      261.600   1.34591e-16
      261.700   1.31522e-16
      261.800   1.28522e-16
      261.900   1.25588e-16
      262.000   1.22721e-16
      262.100   1.19917e-16
      262.200   1.17178e-16
      262.300   1.14500e-16
      262.400   1.11882e-16
      262.500   1.09323e-16
      262.600   1.06821e-16
      262.700   1.04376e-16
      262.800   1.01987e-16
      262.900   9.96497e-17
      263.000   9.73679e-17
      263.100   9.51368e-17
      263.200   9.29575e-17
      263.300   9.08275e-17
      263.400   8.87453e-17
      263.500   8.67112e-17
      263.600   8.47230e-17
      263.700   8.27798e-17
      263.800   8.08802e-17
      263.900   7.90252e-17
      264.000   7.72115e-17
      264.100   7.54384e-17
      264.200   7.37055e-17
      264.300   7.20135e-17
      264.400   7.03595e-17
      264.500   6.87427e-17
      264.600   6.71625e-17
      264.700   6.56190e-17
      264.800   6.41099e-17
      264.900   6.26361e-17
      265.000   6.11959e-17
      265.100   5.97878e-17
      265.200   5.84123e-17
      265.300   5.70682e-17
      265.400   5.57386e-17
      265.500   5.44332e-17
      265.600   5.31588e-17
      265.700   5.19129e-17
      265.800   5.06980e-17
      265.900   4.95108e-17
      266.000   4.83521e-17
      266.100   4.72202e-17
      266.200   4.61149e-17
      266.300   4.50349e-17
      266.400   4.39806e-17
      266.500   4.29503e-17
      266.600   4.19444e-17
      266.700   4.09619e-17
      266.800   4.00029e-17
      266.900   3.90658e-17
      267.000   3.81505e-17
      267.100   3.72566e-17
      267.200   3.63842e-17
      267.300   3.55319e-17
      267.400   3.46993e-17
      267.500   3.38862e-17
      267.600   3.30923e-17
      267.700   3.23170e-17
      267.800   3.15595e-17
      267.900   3.08200e-17
      268.000   3.00979e-17
      268.100   2.93927e-17
      268.200   2.87041e-17
      268.300   2.80318e-17
      268.400   2.73748e-17
      268.500   2.67334e-17
      268.600   2.61068e-17
      268.700   2.54953e-17
      268.800   2.48979e-17
      268.900   2.43146e-17
      269.000   2.37451e-17
      269.100   2.31888e-17
      269.200   2.26456e-17
      269.300   2.21152e-17
      269.400   2.15969e-17
      269.500   2.10910e-17
      269.600   2.05969e-17
      269.700   2.00475e-17
      269.800   1.94964e-17
      269.900   1.89599e-17
      270.000   1.84382e-17
      270.100   1.79308e-17
      270.200   1.74379e-17
      270.300   1.69582e-17
      270.400   1.64917e-17
      270.500   1.60380e-17
      270.600   1.55966e-17
      270.700   1.51673e-17
      270.800   1.47500e-17
      270.900   1.43438e-17
      271.000   1.39490e-17
      271.100   1.35648e-17
      271.200   1.31911e-17
      271.300   1.28277e-17
      271.400   1.24742e-17
      271.500   1.21305e-17
      271.600   1.17960e-17
      271.700   1.14708e-17
      271.800   1.11545e-17
      271.900   1.08469e-17
      272.000   1.05477e-17
      272.100   1.02566e-17
      272.200   9.97360e-18
      272.300   9.69821e-18
      272.400   9.43036e-18
      272.500   9.16996e-18
      272.600   8.91656e-18
      272.700   8.67011e-18
      272.800   8.44044e-18
      272.900   8.24604e-18
      273.000   8.06943e-18
      273.100   7.89651e-18
      273.200   7.72726e-18
      273.300   7.56171e-18
      273.400   7.39961e-18
      273.500   7.24098e-18
      273.600   7.08572e-18
      273.700   6.93374e-18
      273.800   6.78500e-18
      273.900   6.61776e-18
      274.000   6.41205e-18
      274.100   6.21214e-18
      274.200   6.01839e-18
      274.300   5.83061e-18
      274.400   5.64786e-18
      274.500   5.46915e-18
      274.600   5.29565e-18
      274.700   5.12762e-18
      274.800   4.96477e-18
      274.900   4.80699e-18
      275.000   4.65418e-18
      275.100   4.50615e-18
      275.200   4.36276e-18
      275.300   4.22383e-18
      275.400   4.08929e-18
      275.500   3.95898e-18
      275.600   3.83268e-18
      275.700   3.71041e-18
      275.800   3.59200e-18
      275.900   3.47726e-18
      276.000   3.37348e-18
      276.100   3.29222e-18
      276.200   3.21671e-18
      276.300   3.14290e-18
      276.400   3.07076e-18
      276.500   3.00023e-18
      276.600   2.93132e-18
      276.700   2.86394e-18
      276.800   2.79811e-18
      276.900   2.73374e-18
      277.000   2.67084e-18
      277.100   2.60934e-18
      277.200   2.54925e-18
      277.300   2.49051e-18
      277.400   2.43310e-18
      277.500   2.37696e-18
      277.600   2.32213e-18
      277.700   2.26851e-18
      277.800   2.21611e-18
      277.900   2.16491e-18
      278.000   2.11487e-18
      278.100   2.06488e-18
      278.200   2.00351e-18
      278.300   1.94094e-18
      278.400   1.88028e-18
      278.500   1.82145e-18
      278.600   1.76442e-18
      278.700   1.70918e-18
      278.800   1.65564e-18
      278.900   1.60369e-18
      279.000   1.55332e-18
      279.100   1.50451e-18
      279.200   1.45932e-18
      279.300   1.41998e-18
      279.400   1.38210e-18
      279.500   1.34524e-18
      279.600   1.30933e-18
      279.700   1.27438e-18
      279.800   1.24034e-18
      279.900   1.20717e-18
      280.000   1.17488e-18
      280.100   1.14343e-18
      280.200   1.11283e-18
      280.300   1.08301e-18
      280.400   1.05398e-18
      280.500   1.02572e-18
      280.600   9.98204e-19
      280.700   9.71408e-19
      280.800   9.45321e-19
      280.900   9.19916e-19
      281.000   8.95182e-19
      281.100   8.71100e-19
      281.200   8.47651e-19
      281.300   8.26064e-19
      281.400   8.07340e-19
      281.500   7.90179e-19
      281.600   7.73372e-19
      281.700   7.56917e-19
      281.800   7.40815e-19
      281.900   7.25039e-19
      282.000   7.09592e-19
      282.100   6.94468e-19
      282.200   6.79673e-19
      282.300   6.65176e-19
      282.400   6.50983e-19
      282.500   6.37084e-19
      282.600   6.23481e-19
      282.700   6.10158e-19
      282.800   5.97114e-19
      282.900   5.84354e-19
      283.000   5.71855e-19
      283.100   5.59626e-19
      283.200   5.47653e-19
      283.300   5.35934e-19
      283.400   5.24462e-19
      283.500   5.11857e-19
      283.600   4.99233e-19
      283.700   4.86895e-19
      283.800   4.74861e-19
      283.900   4.63124e-19
      284.000   4.51668e-19
      284.100   4.40489e-19
      284.200   4.29583e-19
      284.300   4.18946e-19
      284.400   4.08566e-19
      284.500   3.98441e-19
      284.600   3.88564e-19
      284.700   3.78931e-19
      284.800   3.69531e-19
      284.900   3.60362e-19
      285.000   3.51413e-19
      285.100   3.42683e-19
      285.200   3.34173e-19
      285.300   3.25869e-19
      285.400   3.17766e-19
      285.500   3.09865e-19
      285.600   3.02160e-19
      285.700   2.94641e-19
      285.800   2.87312e-19
      285.900   2.80162e-19
      286.000   2.73193e-19
      286.100   2.66398e-19
      286.200   2.59764e-19
      286.300   2.53297e-19
      286.400   2.46991e-19
      286.500   2.40838e-19
      286.600   2.34581e-19
      286.700   2.27810e-19
      286.800   2.20927e-19
      286.900   2.14250e-19
      287.000   2.07772e-19
      287.100   2.01487e-19
      287.200   1.95392e-19
      287.300   1.89478e-19
      287.400   1.83741e-19
      287.500   1.78176e-19
      287.600   1.72777e-19
      287.700   1.67540e-19
      287.800   1.62461e-19
      287.900   1.57534e-19
      288.000   1.52757e-19
      288.100   1.48122e-19
      288.200   1.43633e-19
      288.300   1.39279e-19
      288.400   1.35054e-19
      288.500   1.30958e-19
      288.600   1.26982e-19
      288.700   1.23171e-19
      288.800   1.20154e-19
      288.900   1.17540e-19
      289.000   1.14983e-19
      289.100   1.12480e-19
      289.200   1.10032e-19
      289.300   1.07638e-19
      289.400   1.05296e-19
      289.500   1.03005e-19
      289.600   1.00763e-19
      289.700   9.85717e-20
      289.800   9.64267e-20
      289.900   9.43277e-20
      290.000   9.22756e-20
      290.100   9.02686e-20
      290.200   8.83067e-20
      290.300   8.63872e-20
      290.400   8.45100e-20
      290.500   8.26741e-20
      290.600   8.08771e-20
      290.700   7.91196e-20
      290.800   7.74014e-20
      290.900   7.57197e-20
      291.000   7.40737e-20
      291.100   7.24639e-20
      291.200   7.08900e-20
      291.300   6.93496e-20
      291.400   6.78433e-20
      291.500   6.63695e-20
      291.600   6.49272e-20
      291.700   6.35170e-20
      291.800   6.21378e-20
      291.900   6.07901e-20
      292.000   5.90441e-20
      292.100   5.72816e-20
      292.200   5.55675e-20
      292.300   5.39032e-20
      292.400   5.22889e-20
      292.500   5.07218e-20
      292.600   4.92014e-20
      292.700   4.77267e-20
      292.800   4.62958e-20
      292.900   4.49076e-20
      293.000   4.35605e-20
      293.100   4.22532e-20
      293.200   4.09846e-20
      293.300   3.97542e-20
      293.400   3.85612e-20
      293.500   3.74047e-20
      293.600   3.62828e-20
      293.700   3.51941e-20
      293.800   3.41379e-20
      293.900   3.31133e-20
      294.000   3.21298e-20
      294.100   3.12662e-20
      294.200   3.04939e-20
      294.300   2.97405e-20
      294.400   2.90052e-20
      294.500   2.82884e-20
      294.600   2.75889e-20
      294.700   2.69068e-20
      294.800   2.62413e-20
      294.900   2.55928e-20
      295.000   2.49605e-20
      295.100   2.43440e-20
      295.200   2.37425e-20
      295.300   2.31558e-20
      295.400   2.25835e-20
      295.500   2.20255e-20
      295.600   2.14809e-20
      295.700   2.09497e-20
      295.800   2.04316e-20
      295.900   1.99258e-20
      296.000   1.94327e-20
      296.100   1.89515e-20
      296.200   1.84824e-20
      296.300   1.80250e-20
      296.400   1.75796e-20
      296.500   1.71446e-20
      296.600   1.67204e-20
      296.700   1.63066e-20
      296.800   1.59031e-20
      296.900   1.55093e-20
      297.000   1.51251e-20
      297.100   1.47504e-20
      297.200   1.43848e-20
      297.300   1.40282e-20
      297.400   1.36803e-20
      297.500   1.33409e-20
      297.600   1.30100e-20
      297.700   1.26875e-20
      297.800   1.23731e-20
      297.900   1.20663e-20
      298.000   1.17670e-20
      298.100   1.14751e-20
      298.200   1.11903e-20
      298.300   1.08893e-20
      298.400   1.05606e-20
      298.500   1.02295e-20
      298.600   9.90849e-21
      298.700   9.59749e-21
      298.800   9.29592e-21
      298.900   9.00457e-21
      299.000   8.72226e-21
      299.100   8.44859e-21
      299.200   8.18322e-21
      299.300   7.92612e-21
      299.400   7.67690e-21
      299.500   7.43538e-21
      299.600   7.20133e-21
      299.700   6.97453e-21
      299.800   6.75455e-21
      299.900   6.54161e-21
      300.000   6.33518e-21
      300.100   6.13528e-21
      300.192   5.95701e-21
      300.285   5.78189e-21
      300.377   5.61372e-21
      300.470   5.44868e-21
      300.562   5.29011e-21
      300.654   5.13605e-21
      300.747   4.98479e-21
      300.839   4.83954e-21
      300.932   4.69685e-21
      301.025   4.55834e-21
      301.117   4.42536e-21
      301.210   4.29476e-21
      301.303   4.16794e-21
      301.395   4.04627e-21
      301.488   3.93494e-21
      301.581   3.85386e-21
      301.674   3.77518e-21
      301.766   3.69893e-21
      301.859   3.62334e-21
      301.952   3.54934e-21
      302.045   3.47680e-21
      302.138   3.40575e-21
      302.231   3.33622e-21
      302.324   3.26808e-21
      302.417   3.20131e-21
      302.510   3.13583e-21
      302.603   3.07178e-21
      302.696   3.00893e-21
      302.789   2.94736e-21
      302.882   2.88701e-21
      302.976   2.82730e-21
      303.069   2.76937e-21
      303.162   2.71264e-21
      303.255   2.65703e-21
      303.349   2.60195e-21
      303.442   2.54854e-21
      303.535   2.49626e-21
      303.629   2.44447e-21
      303.722   2.39428e-21
      303.816   2.34456e-21
      303.909   2.29638e-21
      304.003   2.24866e-21
      304.096   2.20240e-21
      304.190   2.15658e-21
      304.283   2.11218e-21
      304.377   2.06824e-21
      304.471   2.02516e-21
      304.564   1.98341e-21
      304.658   1.94018e-21
      304.752   1.88568e-21
      304.846   1.83144e-21
      304.939   1.77929e-21
      305.033   1.72805e-21
      305.127   1.67826e-21
      305.221   1.62989e-21
      305.315   1.58290e-21
      305.409   1.53722e-21
      305.503   1.49286e-21
      305.597   1.44975e-21
      305.691   1.40786e-21
      305.785   1.37909e-21
      305.879   1.35413e-21
      305.973   1.32985e-21
      306.067   1.30598e-21
      306.161   1.28255e-21
      306.255   1.25952e-21
      306.350   1.23665e-21
      306.444   1.21443e-21
      306.538   1.19259e-21
      306.633   1.17093e-21
      306.727   1.14986e-21
      306.821   1.12915e-21
      306.916   1.10862e-21
      307.010   1.08865e-21
      307.105   1.06884e-21
      307.199   1.04958e-21
      307.294   1.03046e-21
      307.388   1.01188e-21
      307.483   9.93441e-22
      307.577   9.75519e-22
      307.672   9.57729e-22
      307.767   9.40258e-22
      307.861   9.20671e-22
      307.956   8.96973e-22
      308.051   8.73114e-22
      308.146   8.49888e-22
      308.240   8.27506e-22
      308.335   8.05471e-22
      308.430   7.84004e-22
      308.525   7.63107e-22
      308.620   7.42767e-22
      308.715   7.22960e-22
      308.810   7.03673e-22
      308.905   6.84890e-22
      309.000   6.66606e-22
      309.095   6.48798e-22
      309.190   6.31470e-22
      309.285   6.14591e-22
      309.380   5.98159e-22
      309.476   5.81999e-22
      309.571   5.66424e-22
      309.666   5.51260e-22
      309.761   5.36501e-22
      309.857   5.21984e-22
      309.952   5.08067e-22
      310.047   4.95199e-22
      310.143   4.82695e-22
      310.238   4.70627e-22
      310.334   4.58738e-22
      310.429   4.47259e-22
      310.525   4.35952e-22
      310.620   4.25044e-22
      310.716   4.14290e-22
      310.811   4.03715e-22
      310.907   3.93238e-22
      311.003   3.83027e-22
      311.098   3.73177e-22
      311.194   3.63480e-22
      311.290   3.54034e-22
      311.386   3.44832e-22
      311.481   3.35958e-22
      311.577   3.27223e-22
      311.673   3.18709e-22
      311.769   3.10415e-22
      311.865   3.02338e-22
      311.961   2.94477e-22
      312.057   2.86857e-22
      312.153   2.79449e-22
      312.249   2.72230e-22
      312.345   2.65198e-22
      312.441   2.58342e-22
      312.537   2.51666e-22
      312.633   2.45161e-22
      312.730   2.38753e-22
      312.826   2.32580e-22
      312.922   2.26564e-22
      313.018   2.20703e-22
      313.115   2.14934e-22
      313.211   2.09370e-22
      313.307   2.03951e-22
      313.404   1.98618e-22
      313.500   1.93474e-22
      313.597   1.88415e-22
      313.693   1.83537e-22
      313.790   1.78734e-22
      313.886   1.74478e-22
      313.983   1.71342e-22
      314.079   1.68670e-22
      314.176   1.66014e-22
      314.273   1.63398e-22
      314.369   1.60853e-22
      314.466   1.58321e-22
      314.563   1.55828e-22
      314.660   1.53376e-22
      314.756   1.50986e-22
      314.853   1.48609e-22
      314.950   1.46271e-22
      315.047   1.43970e-22
      315.144   1.41706e-22
      315.241   1.39478e-22
      315.338   1.37284e-22
      315.435   1.35126e-22
      315.532   1.33002e-22
      315.629   1.30913e-22
      315.726   1.28856e-22
      315.823   1.26831e-22
      315.921   1.24819e-22
      316.018   1.22859e-22
      316.115   1.20931e-22
      316.212   1.19032e-22
      316.310   1.16825e-22
      316.407   1.14268e-22
      316.504   1.11640e-22
      316.602   1.09046e-22
      316.699   1.06538e-22
      316.796   1.04089e-22
      316.894   1.01672e-22
      316.991   9.93371e-23
      317.089   9.70469e-23
      317.187   9.48158e-23
      317.284   9.26586e-23
      317.382   9.05290e-23
      317.479   8.84689e-23
      317.577   8.64363e-23
      317.675   8.44507e-23
      317.773   8.25104e-23
      317.870   8.06344e-23
      317.968   7.87809e-23
      318.066   7.69709e-23
      318.164   7.52028e-23
      318.262   7.34756e-23
      318.360   7.17876e-23
      318.458   7.01394e-23
      318.556   6.85296e-23
      318.654   6.69564e-23
      318.752   6.50908e-23
      318.850   6.28886e-23
      318.948   6.06438e-23
      319.046   5.84784e-23
      319.144   5.63894e-23
      319.242   5.43754e-23
      319.341   5.24131e-23
      319.439   5.05399e-23
      319.537   4.87336e-23
      319.635   4.69910e-23
      319.734   4.52937e-23
      319.832   4.36733e-23
      319.930   4.21102e-23
      320.029   4.05881e-23
      320.127   3.91351e-23
      320.226   3.77195e-23
      320.324   3.63678e-23
      320.423   3.50511e-23
      320.522   3.37828e-23
      320.620   3.25719e-23
      320.719   3.13920e-23
      320.818   3.02548e-23
      320.916   2.91693e-23
      321.015   2.81116e-23
      321.114   2.70921e-23
      321.213   2.61094e-23
      321.311   2.51717e-23
      321.410   2.42586e-23
      321.509   2.33778e-23
      321.608   2.25293e-23
      321.707   2.17110e-23
      321.806   2.09221e-23
      321.905   2.01620e-23
      322.004   1.94288e-23
      322.103   1.87226e-23
      322.202   1.80416e-23
      322.301   1.73853e-23
      322.401   1.67464e-23
      322.500   1.61368e-23
      322.599   1.55494e-23
      322.698   1.49831e-23
      322.798   1.44319e-23
      322.897   1.39058e-23
      322.996   1.33990e-23
      323.096   1.29053e-23
      323.195   1.24345e-23
      323.294   1.19808e-23
      323.394   1.15393e-23
      323.493   1.11179e-23
      323.593   1.07079e-23
      323.692   1.03167e-23
      323.792   9.93593e-24
      323.892   9.56911e-24
      323.991   9.21903e-24
      324.091   8.87851e-24
      324.191   8.55031e-24
      324.291   8.23419e-24
      324.390   7.93279e-24
      324.490   7.63916e-24
      324.590   7.35656e-24
      324.690   7.08429e-24
      324.790   6.82192e-24
      324.890   6.56926e-24
      324.990   6.32575e-24
      325.090   6.09116e-24
      325.190   5.86530e-24
      325.290   5.64780e-24
      325.390   5.43806e-24
      325.490   5.23623e-24
      325.590   5.04183e-24
      325.690   4.85442e-24
      325.790   4.67400e-24
      325.891   4.49850e-24
      325.991   4.33116e-24
      326.091   4.16995e-24
      326.192   4.01319e-24
      326.292   3.86371e-24
      326.392   3.71980e-24
      326.493   3.57979e-24
      326.593   3.44627e-24
      326.694   3.31652e-24
      326.794   3.19275e-24
      326.895   3.07237e-24
      326.995   2.95759e-24
      327.096   2.84604e-24
      327.197   2.73861e-24
      327.297   2.63616e-24
      327.398   2.53657e-24
      327.499   2.44071e-24
      327.599   2.34929e-24
      327.700   2.26039e-24
      327.801   2.17484e-24
      327.902   2.09252e-24
      328.003   2.01323e-24
      328.104   1.93693e-24
      328.205   1.86347e-24
      328.306   1.79278e-24
      328.407   1.72475e-24
      328.508   1.65924e-24
      328.609   1.59620e-24
      328.710   1.53554e-24
      328.811   1.47715e-24
      328.912   1.42095e-24
      329.013   1.36687e-24
      329.115   1.31433e-24
      329.216   1.26424e-24
      329.317   1.21605e-24
      329.419   1.16925e-24
      329.520   1.12462e-24
      329.621   1.08168e-24
      329.723   1.03995e-24
      329.824   1.00024e-24
      329.926   9.61629e-25
      330.027   9.24839e-25
      330.129   8.89097e-25
      330.230   8.55070e-25
      330.332   8.21990e-25
      330.434   7.90183e-25
      330.535   7.59872e-25
      330.637   7.30430e-25
      330.739   7.02130e-25
      330.840   6.75161e-25
      330.942   6.48961e-25
      331.044   6.23768e-25
      331.146   5.99538e-25
      331.248   5.76239e-25
      331.350   5.53838e-25
      331.452   5.32294e-25
      331.554   5.11707e-25
      331.656   4.92079e-25
      331.758   4.73200e-25
      331.860   4.55027e-25
      331.962   4.37547e-25
      332.064   4.20727e-25
      332.166   4.04553e-25
      332.268   3.88982e-25
      332.371   3.73870e-25
      332.473   3.59465e-25
      332.575   3.45603e-25
      332.677   3.32278e-25
      332.780   3.19339e-25
      332.882   3.07012e-25
      332.985   2.95043e-25
      333.087   2.83636e-25
      333.190   2.72564e-25
      333.292   2.61984e-25
      333.395   2.51619e-25
      333.497   2.41725e-25
      333.600   2.32124e-25
      333.702   2.22985e-25
      333.805   2.14122e-25
      333.908   2.05597e-25
      334.011   1.97414e-25
      334.113   1.89624e-25
      334.216   1.82065e-25
      334.319   1.74805e-25
      334.422   1.67828e-25
      334.525   1.61127e-25
      334.628   1.54689e-25
      334.731   1.48508e-25
      334.834   1.42570e-25
      334.937   1.36863e-25
      335.040   1.31381e-25
      335.143   1.26120e-25
      335.246   1.21064e-25
      335.349   1.16208e-25
      335.452   1.11545e-25
      335.555   1.07067e-25
      335.659   1.02724e-25
      335.762   9.85943e-26
      335.865   9.46303e-26
      335.969   9.07858e-26
      336.072   8.71280e-26
      336.175   8.36193e-26
      336.279   8.02175e-26
      336.382   7.69826e-26
      336.486   7.38458e-26
      336.589   7.08636e-26
      336.693   6.79750e-26
      336.796   6.52283e-26
      336.900   6.25650e-26
      337.004   6.00080e-26
      337.107   5.75799e-26
      337.211   5.52249e-26
      337.315   5.29665e-26
      337.419   5.07982e-26
      337.523   4.87174e-26
      337.626   4.67397e-26
      337.730   4.48239e-26
      337.834   4.29850e-26
      337.938   4.12213e-26
      338.042   3.95295e-26
      338.146   3.79109e-26
      338.250   3.63591e-26
      338.354   3.48697e-26
      338.458   3.34401e-26
      338.562   3.20685e-26
      338.667   3.07407e-26
      338.771   2.94785e-26
      338.875   2.82678e-26
      338.979   2.71058e-26
      339.084   2.59815e-26
      339.188   2.49128e-26
      339.292   2.38878e-26
      339.397   2.28948e-26
      339.501   2.19519e-26
      339.606   2.10383e-26
      339.710   2.01708e-26
      339.815   1.93307e-26
      339.919   1.85331e-26
      340.024   1.77603e-26
      340.128   1.70269e-26
      340.233   1.63162e-26
      340.338   1.56355e-26
      340.442   1.49885e-26
      340.547   1.43623e-26
      340.652   1.37619e-26
      340.757   1.31864e-26
      340.862   1.26346e-26
      340.966   1.21108e-26
      341.071   1.16037e-26
      341.176   1.11175e-26
      341.281   1.06515e-26
      341.386   1.02050e-26
      341.491   9.77676e-27
      341.596   9.36657e-27
      341.702   8.96968e-27
      341.807   8.59288e-27
      341.912   8.23179e-27
      342.017   7.88567e-27
      342.122   7.55390e-27
      342.228   7.23330e-27
      342.333   6.92876e-27
      342.438   6.63694e-27
      342.544   6.35484e-27
      342.649   6.08693e-27
      342.754   5.83042e-27
      342.860   5.58219e-27
      342.965   5.34647e-27
      343.071   5.11889e-27
      343.176   4.90269e-27
      343.282   4.69359e-27
      343.388   4.49343e-27
      343.493   4.30374e-27
      343.599   4.12265e-27
      343.705   3.94933e-27
      343.810   3.78472e-27
      343.916   3.62552e-27
      344.022   3.47294e-27
      344.128   3.32675e-27
      344.234   3.18659e-27
      344.340   3.05236e-27
      344.446   2.92367e-27
      344.552   2.80036e-27
      344.658   2.68225e-27
      344.764   2.56913e-27
      344.870   2.46064e-27
      344.976   2.35679e-27
      345.082   2.25721e-27
      345.188   2.16187e-27
      345.294   2.07046e-27
      345.401   1.98211e-27
      345.507   1.89826e-27
      345.613   1.81798e-27
      345.719   1.74101e-27
      345.826   1.66663e-27
      345.932   1.59603e-27
      346.039   1.52779e-27
      346.145   1.46303e-27
      346.252   1.40045e-27
      346.358   1.34105e-27
      346.465   1.28367e-27
      346.571   1.22918e-27
      346.678   1.17652e-27
      346.785   1.12609e-27
      346.891   1.07827e-27
      346.998   1.03206e-27
      347.105   9.87799e-28
      347.212   9.45413e-28
      347.319   9.04833e-28
      347.425   8.66324e-28
      347.532   8.29116e-28
      347.639   7.93513e-28
      347.746   7.59413e-28
      347.853   7.26750e-28
      347.960   6.95503e-28
      348.067   6.65598e-28
      348.174   6.36974e-28
      348.281   6.09561e-28
      348.389   5.83086e-28
      348.496   5.57968e-28
      348.603   5.33949e-28
      348.710   5.10945e-28
      348.818   4.88726e-28
      348.925   4.67654e-28
      349.032   4.47491e-28
      349.140   4.28005e-28
      349.247   4.09532e-28
      349.355   3.91704e-28
      349.462   3.74789e-28
      349.570   3.58442e-28
      349.677   3.42959e-28
      349.785   3.27996e-28
      349.892   3.13818e-28
      350.000   3.00125e-28
      350.100   2.87975e-28
      350.193   2.77119e-28
      350.287   2.66548e-28
      350.380   2.56498e-28
      350.473   2.46818e-28
      350.567   2.37397e-28
      350.660   2.28434e-28
      350.754   2.19715e-28
      350.847   2.11419e-28
      350.941   2.03347e-28
      351.034   1.95664e-28
      351.128   1.88189e-28
      351.221   1.81078e-28
      351.315   1.74155e-28
      351.409   1.67494e-28
      351.502   1.61160e-28
      351.596   1.54997e-28
      351.690   1.49064e-28
      351.783   1.43424e-28
      351.877   1.37936e-28
      351.971   1.32655e-28
      352.065   1.27574e-28
      352.159   1.22687e-28
      352.252   1.18037e-28
      352.346   1.13512e-28
      352.440   1.09163e-28
      352.534   1.04981e-28
      352.628   1.00954e-28
      352.722   9.70798e-29
      352.816   9.33563e-29
      352.910   8.97755e-29
      353.004   8.63306e-29
      353.098   8.30153e-29
      353.192   7.98269e-29
      353.287   7.67283e-29
      353.381   7.37788e-29
      353.475   7.09451e-29
      353.569   6.82166e-29
      353.663   6.55950e-29
      353.758   6.30464e-29
      353.852   6.06215e-29
      353.946   5.82890e-29
      354.041   5.60220e-29
      354.135   5.38652e-29
      354.229   5.17908e-29
      354.324   4.97749e-29
      354.418   4.78577e-29
      354.513   4.59937e-29
      354.607   4.42219e-29
      354.702   4.24971e-29
      354.796   4.08528e-29
      354.891   3.92547e-29
      354.985   3.77355e-29
      355.080   3.62593e-29
      355.175   3.48394e-29
      355.269   3.34897e-29
      355.364   3.21777e-29
      355.459   3.09175e-29
      355.553   2.97181e-29
      355.648   2.85536e-29
      355.743   2.74348e-29
      355.838   2.63579e-29
      355.933   2.53245e-29
      356.027   2.43412e-29
      356.122   2.33853e-29
      356.217   2.24671e-29
      356.312   2.15853e-29
      356.407   2.07372e-29
      356.502   1.99225e-29
      356.597   1.91391e-29
      356.692   1.83868e-29
      356.787   1.76637e-29
      356.882   1.69684e-29
      356.977   1.63010e-29
      357.073   1.56527e-29
      357.168   1.50360e-29
      357.263   1.44439e-29
      357.358   1.38747e-29
      357.453   1.33280e-29
      357.549   1.27971e-29
      357.644   1.22924e-29
      357.739   1.18078e-29
      357.835   1.13368e-29
      357.930   1.08893e-29
      358.025   1.04593e-29
      358.121   1.00420e-29
      358.216   9.64522e-30
      358.312   9.25993e-30
      358.407   8.89395e-30
      358.503   8.53856e-30
      358.598   8.20096e-30
      358.694   7.87310e-30
      358.790   7.55803e-30
      358.885   7.25870e-30
      358.981   6.96811e-30
      359.076   6.69215e-30
      359.172   6.42425e-30
      359.268   6.16668e-30
      359.364   5.91946e-30
      359.459   5.68478e-30
      359.555   5.45675e-30
      359.651   5.23781e-30
      359.747   5.02762e-30
      359.843   4.82576e-30
      359.939   4.63195e-30
      360.035   4.44588e-30
      360.131   4.26729e-30
      360.227   4.09558e-30
      360.323   3.93091e-30
      360.419   3.77066e-30
      360.515   3.59724e-30
      360.611   3.42641e-30
      360.707   3.26348e-30
      360.803   3.10853e-30
      360.899   2.96066e-30
      360.995   2.81986e-30
      361.092   2.68427e-30
      361.188   2.55642e-30
      361.284   2.43462e-30
      361.380   2.31858e-30
      361.477   2.20684e-30
      361.573   2.10150e-30
      361.669   2.00120e-30
      361.766   1.90460e-30
      361.862   1.81361e-30
      361.959   1.72603e-30
      362.055   1.64338e-30
      362.152   1.56396e-30
      362.248   1.48907e-30
      362.345   1.41695e-30
      362.441   1.34905e-30
      362.538   1.28370e-30
      362.635   1.22148e-30
      362.731   1.16282e-30
      362.828   1.10639e-30
      362.925   1.05268e-30
      363.021   1.00204e-30
      363.118   9.53364e-31
      363.215   9.06989e-31
      363.312   8.62846e-31
      363.409   8.20857e-31
      363.505   7.81282e-31
      363.602   7.43189e-31
      363.699   7.06956e-31
      363.796   6.72469e-31
      363.893   6.39644e-31
      363.990   6.08407e-31
      364.087   5.78680e-31
      364.184   5.50390e-31
      364.281   5.23461e-31
      364.378   4.97844e-31
      364.475   4.73463e-31
      364.573   4.50024e-31
      364.670   4.27964e-31
      364.767   4.06975e-31
      364.864   3.86998e-31
      364.961   3.67995e-31
      365.059   3.49730e-31
      365.156   3.32545e-31
      365.253   3.16187e-31
      365.351   3.00468e-31
      365.448   2.85670e-31
      365.545   2.71597e-31
      365.643   2.58071e-31
      365.740   2.45338e-31
      365.838   2.33108e-31
      365.935   2.21602e-31
      366.033   2.10543e-31
      366.130   2.00133e-31
      366.228   1.90124e-31
      366.326   1.79501e-31
      366.423   1.69015e-31
      366.521   1.59035e-31
      366.618   1.49726e-31
      366.716   1.40872e-31
      366.814   1.32539e-31
      366.912   1.24695e-31
      367.010   1.17302e-31
      367.107   1.10416e-31
      367.205   1.03862e-31
      367.303   9.76940e-32
      367.401   9.18896e-32
      367.499   8.64237e-32
      367.597   8.12809e-32
      367.695   7.64418e-32
      367.793   7.18884e-32
      367.891   6.76027e-32
      367.989   6.35661e-32
      368.087   5.97708e-32
      368.185   5.62000e-32
      368.283   5.28385e-32
      368.381   4.96749e-32
      368.480   4.66715e-32
      368.578   4.38738e-32
      368.676   4.12434e-32
      368.774   3.87688e-32
      368.873   3.64175e-32
      368.971   3.42291e-32
      369.069   3.21705e-32
      369.168   3.02142e-32
      369.266   2.83948e-32
      369.364   2.66834e-32
      369.463   2.50578e-32
      369.561   2.35456e-32
      369.660   2.21095e-32
      369.758   2.07733e-32
      369.857   1.95046e-32
      369.955   1.83242e-32
      370.054   1.72032e-32
      370.153   1.61501e-32
      370.251   1.51707e-32
      370.350   1.42408e-32
      370.449   1.33676e-32
      370.547   1.25552e-32
      370.646   1.17835e-32
      370.745   1.10594e-32
      370.844   1.03791e-32
      370.943   9.74022e-33
      371.041   9.14625e-33
      371.140   8.58232e-33
      371.239   8.05268e-33
      371.338   7.55564e-33
      371.437   7.08900e-33
      371.536   6.65091e-33
      371.635   6.23930e-33
      371.734   5.85310e-33
      371.833   5.49059e-33
      371.932   5.15023e-33
      372.032   4.82756e-33
      372.131   4.52781e-33
      372.230   4.24663e-33
      372.329   3.98262e-33
      372.428   3.73484e-33
      372.528   3.50012e-33
      372.627   3.28215e-33
      372.726   3.07759e-33
      372.826   2.88376e-33
      372.925   2.70371e-33
      373.024   2.53478e-33
      373.124   2.37474e-33
      373.223   2.22627e-33
      373.323   2.08558e-33
      373.422   1.95492e-33
      373.522   1.83117e-33
      373.621   1.71637e-33
      373.721   1.60757e-33
      373.820   1.50662e-33
      373.920   1.41101e-33
      374.020   1.32134e-33
      374.119   1.23822e-33
      374.219   1.15944e-33
      374.319   1.08566e-33
      374.419   1.01657e-33
      374.518   9.52398e-34
      374.618   8.91667e-34
      374.718   8.34723e-34
      374.818   7.81451e-34
      374.918   7.31545e-34
      375.018   6.84754e-34
      375.118   6.40953e-34
      375.218   5.99899e-34
      375.318   5.61466e-34
      375.418   5.25450e-34
      375.518   4.91751e-34
      375.618   4.60188e-34
      375.718   4.30618e-34
      375.818   4.02939e-34
      375.918   3.77019e-34
      376.019   3.52522e-34
      376.119   3.29808e-34
      376.219   3.08554e-34
      376.319   2.88644e-34
      376.420   2.69839e-34
      376.520   2.52414e-34
      376.620   2.36106e-34
      376.721   2.20686e-34
      376.821   2.06407e-34
      376.922   1.92913e-34
      377.022   1.80410e-34
      377.122   1.68716e-34
      377.223   1.57665e-34
      377.323   1.47431e-34
      377.424   1.37757e-34
      377.525   1.28718e-34
      377.625   1.20346e-34
      377.726   1.12439e-34
      377.827   1.05046e-34
      377.927   9.81983e-35
      378.028   9.17351e-35
      378.129   8.56901e-35
      378.230   8.00403e-35
      378.330   7.48120e-35
      378.431   6.98756e-35
      378.532   6.52648e-35
      378.633   6.09517e-35
      378.734   5.69211e-35
      378.835   5.31564e-35
      378.936   4.96383e-35
      379.037   4.63510e-35
      379.138   4.32790e-35
      379.239   4.04081e-35
      379.340   3.77280e-35
      379.441   3.52228e-35
      379.542   3.28822e-35
      379.643   3.06965e-35
      379.745   2.86353e-35
      379.846   2.67287e-35
      379.947   2.49481e-35
      380.048   2.32859e-35
      380.150   2.17179e-35
      380.251   2.02684e-35
      380.352   1.89154e-35
      380.454   1.76400e-35
      380.555   1.64606e-35
      380.656   1.53593e-35
      380.758   1.43213e-35
      380.859   1.33622e-35
      380.961   1.24586e-35
      381.062   1.16233e-35
      381.164   1.08359e-35
      381.266   1.01015e-35
      381.367   9.42280e-36
      381.469   8.78347e-36
      381.570   8.19286e-36
      381.672   7.63641e-36
      381.774   7.11715e-36
      381.876   6.63312e-36
      381.977   6.18591e-36
      382.079   5.76468e-36
      382.181   5.37186e-36
      382.283   5.00581e-36
      382.385   4.66431e-36
      382.487   4.34573e-36
      382.589   4.04901e-36
      382.691   3.77235e-36
      382.793   3.51445e-36
      382.895   3.27399e-36
      382.997   3.04981e-36
      383.099   2.84088e-36
      383.201   2.64620e-36
      383.303   2.46467e-36
      383.405   2.29553e-36
      383.507   2.13794e-36
      383.610   1.98972e-36
      383.712   1.85290e-36
      383.814   1.72552e-36
      383.916   1.60679e-36
      384.019   1.49511e-36
      384.121   1.39208e-36
      384.223   1.29613e-36
      384.326   1.20591e-36
      384.428   1.12268e-36
      384.531   1.04444e-36
      384.633   9.72276e-37
      384.736   9.04419e-37
      384.838   8.41842e-37
      384.941   7.83029e-37
      385.043   7.28793e-37
      385.146   6.77827e-37
      385.249   6.30396e-37
      385.351   5.86657e-37
      385.454   5.45546e-37
      385.557   5.07316e-37
      385.660   4.71725e-37
      385.762   4.38934e-37
      385.865   4.08116e-37
      385.968   3.79436e-37
      386.071   3.52753e-37
      386.174   3.27938e-37
      386.277   3.04865e-37
      386.380   2.83399e-37
      386.483   2.63430e-37
      386.586   2.44866e-37
      386.689   2.27594e-37
      386.792   2.11529e-37
      386.895   1.96593e-37
      386.998   1.82704e-37
      387.101   1.69792e-37
      387.204   1.57777e-37
      387.308   1.46507e-37
      387.411   1.36131e-37
      387.514   1.26486e-37
      387.617   1.17520e-37
      387.721   1.09110e-37
      387.824   1.01367e-37
      387.927   9.41646e-38
      388.031   8.74132e-38
      388.134   8.11989e-38
      388.238   7.53739e-38
      388.341   7.00073e-38
      388.445   6.49758e-38
      388.548   6.03451e-38
      388.652   5.60045e-38
      388.755   5.20104e-38
      388.859   4.82653e-38
      388.962   4.48189e-38
      389.066   4.15864e-38
      389.170   3.85880e-38
      389.274   3.58022e-38
      389.377   3.32396e-38
      389.481   3.08369e-38
      389.585   2.86081e-38
      389.689   2.65386e-38
      389.793   2.46169e-38
      389.897   2.28349e-38
      390.000   2.11945e-38
      390.104   1.96584e-38
      390.208   1.82320e-38
      390.312   1.69086e-38
      390.416   1.56810e-38
      390.520   1.45412e-38
      390.625   1.34734e-38
      390.729   1.24935e-38
      390.833   1.15837e-38
      390.937   1.07397e-38
      391.041   9.95706e-39
      391.145   9.23113e-39
      391.250   8.55118e-39
      391.354   7.92713e-39
      391.458   7.34810e-39
      391.563   6.80609e-39
      391.667   6.30840e-39
      391.771   5.84691e-39
      391.876   5.41485e-39
      391.980   5.01813e-39
      392.085   4.64702e-39
      392.189   4.30623e-39
      392.294   3.98730e-39
      392.398   3.69459e-39
      392.503   3.42072e-39
      392.607   3.16933e-39
      392.712   2.93416e-39
      392.817   2.71622e-39
      392.921   2.51629e-39
      393.026   2.32921e-39
      393.131   2.15600e-39
      393.236   1.99549e-39
      393.340   1.84822e-39
      393.445   1.71055e-39
      393.550   1.58305e-39
      393.655   1.46493e-39
      393.760   1.35563e-39
      393.865   1.25438e-39
      393.970   1.16071e-39
      394.075   1.07390e-39
      394.180   9.93595e-40
      394.285   9.19215e-40
      394.390   8.50403e-40
      394.495   7.86660e-40
      394.600   7.27687e-40
      394.706   6.72609e-40
      394.811   6.22139e-40
      394.916   5.75393e-40
      395.021   5.32153e-40
      395.126   4.92158e-40
      395.232   4.54793e-40
      395.337   4.20552e-40
      395.443   3.88597e-40
      395.548   3.59311e-40
      395.653   3.32228e-40
      395.759   3.06924e-40
      395.864   2.83760e-40
      395.970   2.62131e-40
      396.075   2.42318e-40
      396.181   2.23829e-40
      396.286   2.06884e-40
      396.392   1.91091e-40
      396.498   1.76480e-40
      396.603   1.63100e-40
      396.709   1.50620e-40
      396.815   1.39090e-40
      396.921   1.28428e-40
      397.026   1.18673e-40
      397.132   1.09565e-40
      397.238   1.01158e-40
      397.344   9.33825e-41
      397.450   8.62163e-41
      397.556   7.95839e-41
      397.662   7.34617e-41
      397.768   6.78060e-41
      397.874   6.25834e-41
      397.980   5.77587e-41
      398.086   5.33012e-41
      398.192   4.91926e-41
      398.298   4.53909e-41
      398.404   4.18834e-41
      398.510   3.86464e-41
      398.617   3.56308e-41
      398.723   3.28731e-41
      398.829   3.03269e-41
      398.935   2.79755e-41
      399.042   2.57867e-41
      399.148   2.37870e-41
      399.255   2.19233e-41
      399.361   2.02207e-41
      399.467   1.86485e-41
      399.574   1.71855e-41
      399.680   1.58473e-41
      399.787   1.46015e-41
      399.893       0.00000
      400.000       0.00000
