Filter Al-med
observation_date 2006-09-22 22:40:45
wavelength effective area
      1.00000   2.66387e-10
      1.10000   7.49534e-10
      1.20000   1.91516e-09
      1.30000   4.48771e-09
      1.40000   9.94664e-09
      1.50000   2.06569e-08
      1.60000   4.05615e-08
      1.70000   7.60835e-08
      1.80000   1.36321e-07
      1.90000   2.34808e-07
      2.00000   3.89537e-07
      2.10000   6.25009e-07
      2.20000   9.74291e-07
      2.30000   1.47349e-06
      2.40000   2.16564e-06
      2.50000   3.08260e-06
      2.60000   4.35803e-06
      2.70000   5.98659e-06
      2.80000   8.02436e-06
      2.90000   1.05789e-05
      3.00000   1.36538e-05
      3.10000   1.72943e-05
      3.20000   2.15353e-05
      3.30000   2.63803e-05
      3.40000   3.17852e-05
      3.50000   3.76996e-05
      3.60000   4.41918e-05
      3.70000   5.09667e-05
      3.80000   5.81190e-05
      3.90000   6.54772e-05
      4.00000   7.28450e-05
      4.10000   8.01306e-05
      4.20000   8.72378e-05
      4.30000   9.40495e-05
      4.40000   0.000100435
      4.50000   0.000106245
      4.60000   0.000111297
      4.70000   0.000115757
      4.80000   0.000119370
      4.90000   0.000120850
      5.00000   0.000124475
      5.10000   0.000125787
      5.20000   0.000126375
      5.30000   0.000125262
      5.40000   0.000122951
      5.50000   0.000120128
      5.60000   0.000113080
      5.70000   0.000111421
      5.80000   9.80037e-05
      5.90000   0.000111838
      6.00000   0.000111723
      6.10000   0.000105464
      6.20000   9.58416e-05
      6.30000   8.28132e-05
      6.40000   6.80626e-05
      6.50000   5.33231e-05
      6.60000   3.95906e-05
      6.70000   2.88464e-05
      6.80000   2.04169e-05
      6.90000   1.87669e-05
      7.00000   1.42413e-05
      7.10000   1.04438e-05
      7.20000   7.51520e-06
      7.30000   5.35970e-06
      7.40000   3.79540e-06
      7.50000   2.64419e-06
      7.60000   1.80977e-06
      7.70000   1.23432e-06
      7.80000   8.23524e-07
      7.90000   5.44211e-07
      8.00000      0.300427
      8.10000      0.316878
      8.20000      0.309871
      8.30000      0.301383
      8.40000      0.292333
      8.50000      0.283000
      8.60000      0.273345
      8.70000      0.263522
      8.80000      0.253504
      8.90000      0.243396
      9.00000      0.233254
      9.10000      0.223123
      9.20000      0.213044
      9.30000      0.203100
      9.40000      0.193285
      9.50000      0.183625
      9.60000      0.174204
      9.70000      0.164991
      9.80000      0.155974
      9.90000      0.147210
      10.0000      0.138701
      10.1000      0.130447
      10.2000      0.122463
      10.3000      0.114804
      10.4000      0.107478
      10.5000      0.100458
      10.6000     0.0937480
      10.7000     0.0873479
      10.8000     0.0812700
      10.9000     0.0755254
      11.0000     0.0700780
      11.1000     0.0649241
      11.2000     0.0600561
      11.3000     0.0554691
      11.4000     0.0511536
      11.5000     0.0471002
      11.6000     0.0433007
      11.7000     0.0397595
      11.8000     0.0364565
      11.9000     0.0334049
      12.0000     0.0305475
      12.1000     0.0280100
      12.2000     0.0261181
      12.3000     0.0240404
      12.4000     0.0219193
      12.5000     0.0199412
      12.6000     0.0181086
      12.7000     0.0164165
      12.8000     0.0148589
      12.9000     0.0134290
      13.0000     0.0121187
      13.1000     0.0109198
      13.2000    0.00982467
      13.3000    0.00882594
      13.4000    0.00791682
      13.5000    0.00709273
      13.6000    0.00635217
      13.7000    0.00568083
      13.8000    0.00507293
      13.9000    0.00452338
      14.0000    0.00402719
      14.1000    0.00357962
      14.2000    0.00317643
      14.3000    0.00281378
      14.4000    0.00248812
      14.5000    0.00219811
      14.6000    0.00194150
      14.7000    0.00171178
      14.8000    0.00150636
      14.9000    0.00132290
      15.0000    0.00115932
      15.1000    0.00101372
      15.2000   0.000887361
      15.3000   0.000775592
      15.4000   0.000676337
      15.5000   0.000588347
      15.6000   0.000510511
      15.7000   0.000442906
      15.8000   0.000384565
      15.9000   0.000333078
      16.0000   0.000287731
      16.1000   0.000247888
      16.2000   0.000214143
      16.3000   0.000184788
      16.4000   0.000158936
      16.5000   0.000136229
      16.6000   0.000116809
      16.7000   0.000100283
      16.8000   8.57478e-05
      16.9000   7.30103e-05
      17.0000   6.22291e-05
      17.1000   5.31010e-05
      17.2000   4.50905e-05
      17.3000   3.81010e-05
      17.4000   3.24208e-05
      17.5000   2.75729e-05
      17.6000   2.33659e-05
      17.7000   1.98115e-05
      17.8000   1.69459e-05
      17.9000   1.44156e-05
      18.0000   1.21846e-05
      18.1000   1.03683e-05
      18.2000   8.76239e-06
      18.3000   7.33626e-06
      18.4000   6.14708e-06
      18.5000   5.12613e-06
      18.6000   4.22337e-06
      18.7000   3.47416e-06
      18.8000   2.85727e-06
      18.9000   2.32340e-06
      19.0000   1.90002e-06
      19.1000   1.55439e-06
      19.2000   1.25665e-06
      19.3000   1.02737e-06
      19.4000   8.37790e-07
      19.5000   6.74751e-07
      19.6000   5.53730e-07
      19.7000   4.50210e-07
      19.8000   3.62214e-07
      19.9000   2.97546e-07
      20.0000   2.40476e-07
      20.1000   1.94413e-07
      20.2000   1.58202e-07
      20.3000   1.26486e-07
      20.4000   1.02712e-07
      20.5000   8.25854e-08
      20.6000   6.57106e-08
      20.7000   5.32440e-08
      20.8000   4.21965e-08
      20.9000   3.38656e-08
      21.0000   2.70002e-08
      21.1000   2.12350e-08
      21.2000   1.70703e-08
      21.3000   1.33597e-08
      21.4000   1.06557e-08
      21.5000   8.38733e-09
      21.6000   6.56105e-09
      21.7000   5.20340e-09
      21.8000   4.00131e-09
      21.9000   3.19165e-09
      22.0000   2.46498e-09
      22.1000   1.93185e-09
      22.2000   1.49683e-09
      22.3000   1.14716e-09
      22.4000   8.81436e-10
      22.5000   6.42900e-10
      22.6000   4.61804e-10
      22.7000   3.10075e-10
      22.8000   2.94272e-10
      22.9000   2.89470e-10
      23.0000   2.93264e-10
      23.1000   2.72723e-10
      23.2000   2.29350e-10
      23.3000   1.86927e-10
      23.4000   1.45047e-10
      23.5000   1.15057e-10
      23.6000   8.80132e-11
      23.7000   6.99236e-11
      23.8000   5.28133e-11
      23.9000   4.19566e-11
      24.0000   3.16577e-11
      24.1000   2.49423e-11
      24.2000   1.87818e-11
      24.3000   1.47004e-11
      24.4000   1.10622e-11
      24.5000   8.61273e-12
      24.6000   6.47781e-12
      24.7000   5.02020e-12
      24.8000   3.77240e-12
      24.9000   2.91874e-12
      25.0000   2.19271e-12
      25.1000   1.69162e-12
      25.2000   1.26671e-12
      25.3000   9.76671e-13
      25.4000   7.28815e-13
      25.5000   5.61377e-13
      25.6000   4.16325e-13
      25.7000   3.20803e-13
      25.8000   2.36183e-13
      25.9000   1.82215e-13
      26.0000   1.32946e-13
      26.1000   1.02809e-13
      26.2000   7.42332e-14
      26.3000   5.75990e-14
      26.4000   4.10990e-14
      26.5000   3.20262e-14
      26.6000   2.29853e-14
      26.7000   1.76630e-14
      26.8000   1.27960e-14
      26.9000   9.65986e-15
      27.0000   7.07166e-15
      27.1000   5.23400e-15
      27.2000   3.87421e-15
      27.3000   2.81033e-15
      27.4000   2.11469e-15
      27.5000   1.50671e-15
      27.6000   1.14466e-15
      27.7000   7.93813e-16
      27.8000   6.10281e-16
      27.9000   4.27365e-16
      28.0000   3.21351e-16
      28.1000   2.30555e-16
      28.2000   1.67826e-16
      28.3000   1.23859e-16
      28.4000   8.76571e-17
      28.5000   6.61097e-17
      28.6000   4.54227e-17
      28.7000   3.52861e-17
      28.8000   2.51837e-17
      28.9000   1.90022e-17
      29.0000   1.39498e-17
      29.1000   1.00974e-17
      29.2000   7.60293e-18
      29.3000   5.29229e-18
      29.4000   4.07646e-18
      29.5000   2.86477e-18
      29.6000   2.14983e-18
      29.7000   1.56707e-18
      29.8000   1.11505e-18
      29.9000   8.38543e-19
      30.0000   5.68737e-19
      30.1000   4.39320e-19
      30.2000   3.10338e-19
      30.3000   2.27564e-19
      30.4000   1.71299e-19
      30.5000   1.20959e-19
      30.6000   9.21227e-20
      30.7000   6.33830e-20
      30.8000   4.68000e-20
      30.9000   3.38985e-20
      31.0000   2.32195e-20
      31.1000   1.75128e-20
      31.2000   1.18252e-20
      31.3000   8.77614e-21
      31.4000   6.29799e-21
      31.5000   4.27813e-21
      31.6000   3.21478e-21
      31.7000   2.15498e-21
      31.8000   1.58342e-21
      31.9000   1.13565e-21
      32.0000   7.55745e-22
      32.1000   5.69517e-22
      32.2000   3.83900e-22
      32.3000   2.74301e-22
      32.4000   1.98368e-22
      32.5000   1.27624e-22
      32.6000   9.70764e-23
      32.7000   6.66289e-23
      32.8000   4.55014e-23
      32.9000   3.34447e-23
      33.0000   2.14282e-23
      33.1000   1.58643e-23
      33.2000   1.11879e-23
      33.3000   7.19747e-24
      33.4000   5.40716e-24
      33.5000   3.62273e-24
      33.6000   2.47038e-24
      33.7000   1.79917e-24
      33.8000   1.13007e-24
      33.9000   8.30977e-25
      34.0000   5.83723e-25
      34.1000   3.63354e-25
      34.2000   2.72409e-25
      34.3000   1.81719e-25
      34.4000   1.16948e-25
      34.5000   8.55050e-26
      34.6000   5.41523e-26
      34.7000   3.66105e-26
      34.8000   2.55058e-26
      34.9000   1.44320e-26
      35.0000   1.03315e-26
      35.1000   6.96073e-27
      35.2000   3.85331e-27
      35.3000   2.85192e-27
      35.4000   1.85329e-27
      35.5000   1.05995e-27
      35.6000   7.70512e-28
      35.7000   4.81863e-28
      35.8000   2.85437e-28
      35.9000   2.03864e-28
      36.0000   1.22515e-28
      36.1000   7.52712e-29
      36.2000   5.28651e-29
      36.3000   3.05199e-29
      36.4000   1.94412e-29
      36.5000   1.34453e-29
      36.6000   7.46611e-30
      36.7000   4.91753e-30
      36.8000   3.35620e-30
      36.9000   1.79919e-30
      37.0000   1.21866e-30
      37.1000   8.23066e-31
      37.2000   4.28533e-31
      37.3000   2.95891e-31
      37.4000   1.98408e-31
      37.5000   1.01192e-31
      37.6000   7.03749e-32
      37.7000   4.70302e-32
      37.8000   2.37491e-32
      37.9000   1.63927e-32
      38.0000   1.09613e-32
      38.1000   5.54436e-33
      38.2000   3.73711e-33
      38.3000   2.51016e-33
      38.4000   1.28648e-33
      38.5000   8.33003e-34
      38.6000   5.64173e-34
      38.7000   2.96055e-34
      38.8000   1.81408e-34
      38.9000   1.24296e-34
      39.0000   6.73319e-35
      39.1000   3.85552e-35
      39.2000   2.67978e-35
      39.3000   1.50706e-35
      39.4000   7.98674e-36
      39.5000   5.64266e-36
      39.6000   3.30477e-36
      39.7000   1.61036e-36
      39.8000   1.15814e-36
      39.9000   7.07067e-37
      40.0000   3.15615e-37
      40.1000   2.31234e-37
      40.2000   1.47068e-37
      40.3000   6.31237e-38
      40.4000   4.48244e-38
      40.5000   2.96459e-38
      40.6000   1.45050e-38
      40.7000   8.42027e-39
      40.8000   5.77610e-39
      40.9000   3.13876e-39
      41.0000   1.52971e-39
      41.1000   1.08534e-39
      41.2000   6.42107e-40
      41.3000   2.68412e-40
      41.4000   1.96403e-40
      41.5000   1.24561e-40
      41.6000   5.29018e-41
      41.7000   3.41861e-41
      41.8000   2.29617e-41
      41.9000   1.17667e-41
      42.0000   5.71870e-42
      42.1000   4.02873e-42
      42.2000   2.34577e-42
      42.3000   9.13647e-43
      42.4000   6.71222e-43
      42.5000   4.31600e-43
      42.6000   1.89175e-43
      42.7000   1.05097e-43
      42.8000   7.00649e-44
      42.9000   3.78351e-44
      43.0000   1.54143e-44
      43.1000   1.26117e-44
      43.2000   7.00649e-45
      43.3000       0.00000
      43.4000   2.80260e-45
      43.5000   2.80260e-45
      43.6000   2.80260e-45
      43.7000       0.00000
      43.8000       0.00000
      43.9000       0.00000
      44.0000       0.00000
      44.1000       0.00000
      44.2000       0.00000
      44.3000       0.00000
      44.4000       0.00000
      44.5000       0.00000
      44.6000       0.00000
      44.7000       0.00000
      44.8000       0.00000
      44.9000       0.00000
      45.0000       0.00000
      45.1000       0.00000
      45.2000       0.00000
      45.3000       0.00000
      45.4000       0.00000
      45.5000       0.00000
      45.6000       0.00000
      45.7000       0.00000
      45.8000       0.00000
      45.9000       0.00000
      46.0000       0.00000
      46.1000       0.00000
      46.2000       0.00000
      46.3000       0.00000
      46.4000       0.00000
      46.5000       0.00000
      46.6000       0.00000
      46.7000       0.00000
      46.8000       0.00000
      46.9000       0.00000
      47.0000       0.00000
      47.1000       0.00000
      47.2000       0.00000
      47.3000       0.00000
      47.4000       0.00000
      47.5000       0.00000
      47.6000       0.00000
      47.7000       0.00000
      47.8000       0.00000
      47.9000       0.00000
      48.0000       0.00000
      48.1000       0.00000
      48.2000       0.00000
      48.3000       0.00000
      48.4000       0.00000
      48.5000       0.00000
      48.6000       0.00000
      48.7000       0.00000
      48.8000       0.00000
      48.9000       0.00000
      49.0000       0.00000
      49.1000       0.00000
      49.2000       0.00000
      49.3000       0.00000
      49.4000       0.00000
      49.5000       0.00000
      49.6000       0.00000
      49.7000       0.00000
      49.8000       0.00000
      49.9000       0.00000
      50.0000       0.00000
      50.1000       0.00000
      50.2000       0.00000
      50.3000       0.00000
      50.4000       0.00000
      50.5000       0.00000
      50.6000       0.00000
      50.7000       0.00000
      50.8000       0.00000
      50.9000       0.00000
      51.0000       0.00000
      51.1000       0.00000
      51.2000       0.00000
      51.3000       0.00000
      51.4000       0.00000
      51.5000       0.00000
      51.6000       0.00000
      51.7000       0.00000
      51.8000       0.00000
      51.9000       0.00000
      52.0000       0.00000
      52.1000       0.00000
      52.2000       0.00000
      52.3000       0.00000
      52.4000       0.00000
      52.5000       0.00000
      52.6000       0.00000
      52.7000       0.00000
      52.8000       0.00000
      52.9000       0.00000
      53.0000       0.00000
      53.1000       0.00000
      53.2000       0.00000
      53.3000       0.00000
      53.4000       0.00000
      53.5000       0.00000
      53.6000       0.00000
      53.7000       0.00000
      53.8000       0.00000
      53.9000       0.00000
      54.0000       0.00000
      54.1000       0.00000
      54.2000       0.00000
      54.3000       0.00000
      54.4000       0.00000
      54.5000       0.00000
      54.6000       0.00000
      54.7000       0.00000
      54.8000       0.00000
      54.9000       0.00000
      55.0000       0.00000
      55.1000       0.00000
      55.2000       0.00000
      55.3000       0.00000
      55.4000       0.00000
      55.5000       0.00000
      55.6000       0.00000
      55.7000       0.00000
      55.8000       0.00000
      55.9000       0.00000
      56.0000       0.00000
      56.1000       0.00000
      56.2000       0.00000
      56.3000       0.00000
      56.4000       0.00000
      56.5000       0.00000
      56.6000       0.00000
      56.7000       0.00000
      56.8000       0.00000
      56.9000       0.00000
      57.0000       0.00000
      57.1000       0.00000
      57.2000       0.00000
      57.3000       0.00000
      57.4000       0.00000
      57.5000       0.00000
      57.6000       0.00000
      57.7000       0.00000
      57.8000       0.00000
      57.9000       0.00000
      58.0000       0.00000
      58.1000       0.00000
      58.2000       0.00000
      58.3000       0.00000
      58.4000       0.00000
      58.5000       0.00000
      58.6000       0.00000
      58.7000       0.00000
      58.8000       0.00000
      58.9000       0.00000
      59.0000       0.00000
      59.1000       0.00000
      59.2000       0.00000
      59.3000       0.00000
      59.4000       0.00000
      59.5000       0.00000
      59.6000       0.00000
      59.7000       0.00000
      59.8000       0.00000
      59.9000       0.00000
      60.0000       0.00000
      60.1000       0.00000
      60.2000       0.00000
      60.3000       0.00000
      60.4000       0.00000
      60.5000       0.00000
      60.6000       0.00000
      60.7000       0.00000
      60.8000       0.00000
      60.9000       0.00000
      61.0000       0.00000
      61.1000       0.00000
      61.2000       0.00000
      61.3000       0.00000
      61.4000       0.00000
      61.5000       0.00000
      61.6000       0.00000
      61.7000       0.00000
      61.8000       0.00000
      61.9000       0.00000
      62.0000       0.00000
      62.1000       0.00000
      62.2000       0.00000
      62.3000       0.00000
      62.4000       0.00000
      62.5000       0.00000
      62.6000       0.00000
      62.7000       0.00000
      62.8000       0.00000
      62.9000       0.00000
      63.0000       0.00000
      63.1000       0.00000
      63.2000       0.00000
      63.3000       0.00000
      63.4000       0.00000
      63.5000       0.00000
      63.6000       0.00000
      63.7000       0.00000
      63.8000       0.00000
      63.9000       0.00000
      64.0000       0.00000
      64.1000       0.00000
      64.2000       0.00000
      64.3000       0.00000
      64.4000       0.00000
      64.5000       0.00000
      64.6000       0.00000
      64.7000       0.00000
      64.8000       0.00000
      64.9000       0.00000
      65.0000       0.00000
      65.1000       0.00000
      65.2000       0.00000
      65.3000       0.00000
      65.4000       0.00000
      65.5000       0.00000
      65.6000       0.00000
      65.7000       0.00000
      65.8000       0.00000
      65.9000       0.00000
      66.0000       0.00000
      66.1000       0.00000
      66.2000       0.00000
      66.3000       0.00000
      66.4000       0.00000
      66.5000       0.00000
      66.6000       0.00000
      66.7000       0.00000
      66.8000       0.00000
      66.9000       0.00000
      67.0000       0.00000
      67.1000       0.00000
      67.2000       0.00000
      67.3000       0.00000
      67.4000       0.00000
      67.5000       0.00000
      67.6000       0.00000
      67.7000       0.00000
      67.8000       0.00000
      67.9000       0.00000
      68.0000       0.00000
      68.1000       0.00000
      68.2000       0.00000
      68.3000       0.00000
      68.4000       0.00000
      68.5000       0.00000
      68.6000       0.00000
      68.7000       0.00000
      68.8000       0.00000
      68.9000       0.00000
      69.0000       0.00000
      69.1000       0.00000
      69.2000       0.00000
      69.3000       0.00000
      69.4000       0.00000
      69.5000       0.00000
      69.6000       0.00000
      69.7000       0.00000
      69.8000       0.00000
      69.9000       0.00000
      70.0000       0.00000
      70.1000       0.00000
      70.2000       0.00000
      70.3000       0.00000
      70.4000       0.00000
      70.5000       0.00000
      70.6000       0.00000
      70.7000       0.00000
      70.8000       0.00000
      70.9000       0.00000
      71.0000       0.00000
      71.1000       0.00000
      71.2000       0.00000
      71.3000       0.00000
      71.4000       0.00000
      71.5000       0.00000
      71.6000       0.00000
      71.7000       0.00000
      71.8000       0.00000
      71.9000       0.00000
      72.0000       0.00000
      72.1000       0.00000
      72.2000       0.00000
      72.3000       0.00000
      72.4000       0.00000
      72.5000       0.00000
      72.6000       0.00000
      72.7000       0.00000
      72.8000       0.00000
      72.9000       0.00000
      73.0000       0.00000
      73.1000       0.00000
      73.2000       0.00000
      73.3000       0.00000
      73.4000       0.00000
      73.5000       0.00000
      73.6000       0.00000
      73.7000       0.00000
      73.8000       0.00000
      73.9000       0.00000
      74.0000       0.00000
      74.1000       0.00000
      74.2000       0.00000
      74.3000       0.00000
      74.4000       0.00000
      74.5000       0.00000
      74.6000       0.00000
      74.7000       0.00000
      74.8000       0.00000
      74.9000       0.00000
      75.0000       0.00000
      75.1000       0.00000
      75.2000       0.00000
      75.3000       0.00000
      75.4000       0.00000
      75.5000       0.00000
      75.6000       0.00000
      75.7000       0.00000
      75.8000       0.00000
      75.9000       0.00000
      76.0000       0.00000
      76.1000       0.00000
      76.2000       0.00000
      76.3000       0.00000
      76.4000       0.00000
      76.5000       0.00000
      76.6000       0.00000
      76.7000       0.00000
      76.8000       0.00000
      76.9000       0.00000
      77.0000       0.00000
      77.1000       0.00000
      77.2000       0.00000
      77.3000       0.00000
      77.4000       0.00000
      77.5000       0.00000
      77.6000       0.00000
      77.7000       0.00000
      77.8000       0.00000
      77.9000       0.00000
      78.0000       0.00000
      78.1000       0.00000
      78.2000       0.00000
      78.3000       0.00000
      78.4000       0.00000
      78.5000       0.00000
      78.6000       0.00000
      78.7000       0.00000
      78.8000       0.00000
      78.9000       0.00000
      79.0000       0.00000
      79.1000       0.00000
      79.2000       0.00000
      79.3000       0.00000
      79.4000       0.00000
      79.5000       0.00000
      79.6000       0.00000
      79.7000       0.00000
      79.8000       0.00000
      79.9000       0.00000
      80.0000       0.00000
      80.1000       0.00000
      80.2000       0.00000
      80.3000       0.00000
      80.4000       0.00000
      80.5000       0.00000
      80.6000       0.00000
      80.7000       0.00000
      80.8000       0.00000
      80.9000       0.00000
      81.0000       0.00000
      81.1000       0.00000
      81.2000       0.00000
      81.3000       0.00000
      81.4000       0.00000
      81.5000       0.00000
      81.6000       0.00000
      81.7000       0.00000
      81.8000       0.00000
      81.9000       0.00000
      82.0000       0.00000
      82.1000       0.00000
      82.2000       0.00000
      82.3000       0.00000
      82.4000       0.00000
      82.5000       0.00000
      82.6000       0.00000
      82.7000       0.00000
      82.8000       0.00000
      82.9000       0.00000
      83.0000       0.00000
      83.1000       0.00000
      83.2000       0.00000
      83.3000       0.00000
      83.4000       0.00000
      83.5000       0.00000
      83.6000       0.00000
      83.7000       0.00000
      83.8000       0.00000
      83.9000       0.00000
      84.0000       0.00000
      84.1000       0.00000
      84.2000       0.00000
      84.3000       0.00000
      84.4000       0.00000
      84.5000       0.00000
      84.6000       0.00000
      84.7000       0.00000
      84.8000       0.00000
      84.9000       0.00000
      85.0000       0.00000
      85.1000       0.00000
      85.2000       0.00000
      85.3000       0.00000
      85.4000       0.00000
      85.5000       0.00000
      85.6000       0.00000
      85.7000       0.00000
      85.8000       0.00000
      85.9000       0.00000
      86.0000       0.00000
      86.1000       0.00000
      86.2000       0.00000
      86.3000       0.00000
      86.4000       0.00000
      86.5000       0.00000
      86.6000       0.00000
      86.7000       0.00000
      86.8000       0.00000
      86.9000       0.00000
      87.0000       0.00000
      87.1000       0.00000
      87.2000       0.00000
      87.3000       0.00000
      87.4000       0.00000
      87.5000       0.00000
      87.6000       0.00000
      87.7000       0.00000
      87.8000       0.00000
      87.9000       0.00000
      88.0000       0.00000
      88.1000       0.00000
      88.2000       0.00000
      88.3000       0.00000
      88.4000       0.00000
      88.5000       0.00000
      88.6000       0.00000
      88.7000       0.00000
      88.8000       0.00000
      88.9000       0.00000
      89.0000       0.00000
      89.1000       0.00000
      89.2000       0.00000
      89.3000       0.00000
      89.4000       0.00000
      89.5000       0.00000
      89.6000       0.00000
      89.7000       0.00000
      89.8000       0.00000
      89.9000       0.00000
      90.0000       0.00000
      90.1000       0.00000
      90.2000       0.00000
      90.3000       0.00000
      90.4000       0.00000
      90.5000       0.00000
      90.6000       0.00000
      90.7000       0.00000
      90.8000       0.00000
      90.9000       0.00000
      91.0000       0.00000
      91.1000       0.00000
      91.2000       0.00000
      91.3000       0.00000
      91.4000       0.00000
      91.5000       0.00000
      91.6000       0.00000
      91.7000       0.00000
      91.8000       0.00000
      91.9000       0.00000
      92.0000       0.00000
      92.1000       0.00000
      92.2000       0.00000
      92.3000       0.00000
      92.4000       0.00000
      92.5000       0.00000
      92.6000       0.00000
      92.7000       0.00000
      92.8000       0.00000
      92.9000       0.00000
      93.0000       0.00000
      93.1000       0.00000
      93.2000       0.00000
      93.3000       0.00000
      93.4000       0.00000
      93.5000       0.00000
      93.6000       0.00000
      93.7000       0.00000
      93.8000       0.00000
      93.9000       0.00000
      94.0000       0.00000
      94.1000       0.00000
      94.2000       0.00000
      94.3000       0.00000
      94.4000       0.00000
      94.5000       0.00000
      94.6000       0.00000
      94.7000       0.00000
      94.8000       0.00000
      94.9000       0.00000
      95.0000       0.00000
      95.1000       0.00000
      95.2000       0.00000
      95.3000       0.00000
      95.4000       0.00000
      95.5000       0.00000
      95.6000       0.00000
      95.7000       0.00000
      95.8000       0.00000
      95.9000       0.00000
      96.0000       0.00000
      96.1000       0.00000
      96.2000       0.00000
      96.3000       0.00000
      96.4000       0.00000
      96.5000       0.00000
      96.6000       0.00000
      96.7000       0.00000
      96.8000       0.00000
      96.9000       0.00000
      97.0000       0.00000
      97.1000       0.00000
      97.2000       0.00000
      97.3000       0.00000
      97.4000       0.00000
      97.5000       0.00000
      97.6000       0.00000
      97.7000       0.00000
      97.8000       0.00000
      97.9000       0.00000
      98.0000       0.00000
      98.1000       0.00000
      98.2000       0.00000
      98.3000       0.00000
      98.4000       0.00000
      98.5000       0.00000
      98.6000       0.00000
      98.7000       0.00000
      98.8000       0.00000
      98.9000       0.00000
      99.0000       0.00000
      99.1000       0.00000
      99.2000       0.00000
      99.3000       0.00000
      99.4000       0.00000
      99.5000       0.00000
      99.6000       0.00000
      99.7000       0.00000
      99.8000       0.00000
      99.9000       0.00000
      100.000       0.00000
      100.100       0.00000
      100.200       0.00000
      100.300       0.00000
      100.400       0.00000
      100.500       0.00000
      100.600       0.00000
      100.700       0.00000
      100.800       0.00000
      100.900       0.00000
      101.000       0.00000
      101.100       0.00000
      101.200       0.00000
      101.300       0.00000
      101.400       0.00000
      101.500       0.00000
      101.600       0.00000
      101.700       0.00000
      101.800       0.00000
      101.900       0.00000
      102.000       0.00000
      102.100       0.00000
      102.200       0.00000
      102.300       0.00000
      102.400       0.00000
      102.500       0.00000
      102.600       0.00000
      102.700       0.00000
      102.800       0.00000
      102.900       0.00000
      103.000       0.00000
      103.100       0.00000
      103.200       0.00000
      103.300       0.00000
      103.400       0.00000
      103.500       0.00000
      103.600       0.00000
      103.700       0.00000
      103.800       0.00000
      103.900       0.00000
      104.000       0.00000
      104.100       0.00000
      104.200       0.00000
      104.300       0.00000
      104.400       0.00000
      104.500       0.00000
      104.600       0.00000
      104.700       0.00000
      104.800       0.00000
      104.900       0.00000
      105.000       0.00000
      105.100       0.00000
      105.200       0.00000
      105.300       0.00000
      105.400       0.00000
      105.500       0.00000
      105.600       0.00000
      105.700       0.00000
      105.800       0.00000
      105.900       0.00000
      106.000       0.00000
      106.100       0.00000
      106.200       0.00000
      106.300       0.00000
      106.400       0.00000
      106.500       0.00000
      106.600       0.00000
      106.700       0.00000
      106.800       0.00000
      106.900       0.00000
      107.000       0.00000
      107.100       0.00000
      107.200       0.00000
      107.300       0.00000
      107.400       0.00000
      107.500       0.00000
      107.600       0.00000
      107.700       0.00000
      107.800       0.00000
      107.900       0.00000
      108.000       0.00000
      108.100       0.00000
      108.200       0.00000
      108.300       0.00000
      108.400       0.00000
      108.500       0.00000
      108.600       0.00000
      108.700       0.00000
      108.800       0.00000
      108.900       0.00000
      109.000       0.00000
      109.100       0.00000
      109.200       0.00000
      109.300       0.00000
      109.400       0.00000
      109.500       0.00000
      109.600       0.00000
      109.700       0.00000
      109.800       0.00000
      109.900       0.00000
      110.000       0.00000
      110.100       0.00000
      110.200       0.00000
      110.300       0.00000
      110.400       0.00000
      110.500       0.00000
      110.600       0.00000
      110.700       0.00000
      110.800       0.00000
      110.900       0.00000
      111.000       0.00000
      111.100       0.00000
      111.200       0.00000
      111.300       0.00000
      111.400       0.00000
      111.500       0.00000
      111.600       0.00000
      111.700       0.00000
      111.800       0.00000
      111.900       0.00000
      112.000       0.00000
      112.100       0.00000
      112.200       0.00000
      112.300       0.00000
      112.400       0.00000
      112.500       0.00000
      112.600       0.00000
      112.700       0.00000
      112.800       0.00000
      112.900       0.00000
      113.000       0.00000
      113.100       0.00000
      113.200       0.00000
      113.300       0.00000
      113.400       0.00000
      113.500       0.00000
      113.600       0.00000
      113.700       0.00000
      113.800       0.00000
      113.900       0.00000
      114.000       0.00000
      114.100       0.00000
      114.200       0.00000
      114.300       0.00000
      114.400       0.00000
      114.500       0.00000
      114.600       0.00000
      114.700       0.00000
      114.800       0.00000
      114.900       0.00000
      115.000       0.00000
      115.100       0.00000
      115.200       0.00000
      115.300       0.00000
      115.400       0.00000
      115.500       0.00000
      115.600       0.00000
      115.700       0.00000
      115.800       0.00000
      115.900       0.00000
      116.000       0.00000
      116.100       0.00000
      116.200       0.00000
      116.300       0.00000
      116.400       0.00000
      116.500       0.00000
      116.600       0.00000
      116.700       0.00000
      116.800       0.00000
      116.900       0.00000
      117.000       0.00000
      117.100       0.00000
      117.200       0.00000
      117.300       0.00000
      117.400       0.00000
      117.500       0.00000
      117.600       0.00000
      117.700       0.00000
      117.800       0.00000
      117.900       0.00000
      118.000       0.00000
      118.100       0.00000
      118.200       0.00000
      118.300       0.00000
      118.400       0.00000
      118.500       0.00000
      118.600       0.00000
      118.700       0.00000
      118.800       0.00000
      118.900       0.00000
      119.000       0.00000
      119.100       0.00000
      119.200       0.00000
      119.300       0.00000
      119.400       0.00000
      119.500       0.00000
      119.600       0.00000
      119.700       0.00000
      119.800       0.00000
      119.900       0.00000
      120.000       0.00000
      120.100       0.00000
      120.200       0.00000
      120.300       0.00000
      120.400       0.00000
      120.500       0.00000
      120.600       0.00000
      120.700       0.00000
      120.800       0.00000
      120.900       0.00000
      121.000       0.00000
      121.100       0.00000
      121.200       0.00000
      121.300       0.00000
      121.400       0.00000
      121.500       0.00000
      121.600       0.00000
      121.700       0.00000
      121.800       0.00000
      121.900       0.00000
      122.000       0.00000
      122.100       0.00000
      122.200       0.00000
      122.300       0.00000
      122.400       0.00000
      122.500       0.00000
      122.600       0.00000
      122.700       0.00000
      122.800       0.00000
      122.900       0.00000
      123.000       0.00000
      123.100       0.00000
      123.200       0.00000
      123.300       0.00000
      123.400       0.00000
      123.500       0.00000
      123.600       0.00000
      123.700       0.00000
      123.800       0.00000
      123.900       0.00000
      124.000       0.00000
      124.100       0.00000
      124.200       0.00000
      124.300       0.00000
      124.400       0.00000
      124.500       0.00000
      124.600       0.00000
      124.700       0.00000
      124.800       0.00000
      124.900       0.00000
      125.000       0.00000
      125.100       0.00000
      125.200       0.00000
      125.300       0.00000
      125.400       0.00000
      125.500       0.00000
      125.600       0.00000
      125.700       0.00000
      125.800       0.00000
      125.900       0.00000
      126.000       0.00000
      126.100       0.00000
      126.200       0.00000
      126.300       0.00000
      126.400       0.00000
      126.500       0.00000
      126.600       0.00000
      126.700       0.00000
      126.800       0.00000
      126.900       0.00000
      127.000       0.00000
      127.100       0.00000
      127.200       0.00000
      127.300       0.00000
      127.400       0.00000
      127.500       0.00000
      127.600       0.00000
      127.700       0.00000
      127.800       0.00000
      127.900       0.00000
      128.000       0.00000
      128.100       0.00000
      128.200       0.00000
      128.300       0.00000
      128.400       0.00000
      128.500       0.00000
      128.600       0.00000
      128.700       0.00000
      128.800       0.00000
      128.900       0.00000
      129.000       0.00000
      129.100       0.00000
      129.200       0.00000
      129.300       0.00000
      129.400       0.00000
      129.500       0.00000
      129.600       0.00000
      129.700       0.00000
      129.800       0.00000
      129.900       0.00000
      130.000       0.00000
      130.100       0.00000
      130.200       0.00000
      130.300       0.00000
      130.400       0.00000
      130.500       0.00000
      130.600       0.00000
      130.700       0.00000
      130.800       0.00000
      130.900       0.00000
      131.000       0.00000
      131.100       0.00000
      131.200       0.00000
      131.300       0.00000
      131.400       0.00000
      131.500       0.00000
      131.600       0.00000
      131.700       0.00000
      131.800       0.00000
      131.900       0.00000
      132.000       0.00000
      132.100       0.00000
      132.200       0.00000
      132.300       0.00000
      132.400       0.00000
      132.500       0.00000
      132.600       0.00000
      132.700       0.00000
      132.800       0.00000
      132.900       0.00000
      133.000       0.00000
      133.100       0.00000
      133.200       0.00000
      133.300       0.00000
      133.400       0.00000
      133.500       0.00000
      133.600       0.00000
      133.700       0.00000
      133.800       0.00000
      133.900       0.00000
      134.000       0.00000
      134.100       0.00000
      134.200       0.00000
      134.300       0.00000
      134.400       0.00000
      134.500       0.00000
      134.600       0.00000
      134.700       0.00000
      134.800       0.00000
      134.900       0.00000
      135.000       0.00000
      135.100       0.00000
      135.200       0.00000
      135.300       0.00000
      135.400       0.00000
      135.500       0.00000
      135.600       0.00000
      135.700       0.00000
      135.800       0.00000
      135.900       0.00000
      136.000       0.00000
      136.100       0.00000
      136.200       0.00000
      136.300       0.00000
      136.400       0.00000
      136.500       0.00000
      136.600       0.00000
      136.700       0.00000
      136.800       0.00000
      136.900       0.00000
      137.000       0.00000
      137.100       0.00000
      137.200       0.00000
      137.300       0.00000
      137.400       0.00000
      137.500       0.00000
      137.600       0.00000
      137.700       0.00000
      137.800       0.00000
      137.900       0.00000
      138.000       0.00000
      138.100       0.00000
      138.200       0.00000
      138.300       0.00000
      138.400       0.00000
      138.500       0.00000
      138.600       0.00000
      138.700       0.00000
      138.800       0.00000
      138.900       0.00000
      139.000       0.00000
      139.100       0.00000
      139.200       0.00000
      139.300       0.00000
      139.400       0.00000
      139.500       0.00000
      139.600       0.00000
      139.700       0.00000
      139.800       0.00000
      139.900       0.00000
      140.000       0.00000
      140.100       0.00000
      140.200       0.00000
      140.300       0.00000
      140.400       0.00000
      140.500       0.00000
      140.600       0.00000
      140.700       0.00000
      140.800       0.00000
      140.900       0.00000
      141.000       0.00000
      141.100       0.00000
      141.200       0.00000
      141.300       0.00000
      141.400       0.00000
      141.500       0.00000
      141.600       0.00000
      141.700       0.00000
      141.800       0.00000
      141.900       0.00000
      142.000       0.00000
      142.100       0.00000
      142.200       0.00000
      142.300       0.00000
      142.400       0.00000
      142.500       0.00000
      142.600       0.00000
      142.700       0.00000
      142.800       0.00000
      142.900       0.00000
      143.000       0.00000
      143.100       0.00000
      143.200       0.00000
      143.300       0.00000
      143.400       0.00000
      143.500       0.00000
      143.600       0.00000
      143.700       0.00000
      143.800       0.00000
      143.900       0.00000
      144.000       0.00000
      144.100       0.00000
      144.200       0.00000
      144.300       0.00000
      144.400       0.00000
      144.500       0.00000
      144.600       0.00000
      144.700       0.00000
      144.800       0.00000
      144.900       0.00000
      145.000       0.00000
      145.100       0.00000
      145.200       0.00000
      145.300       0.00000
      145.400       0.00000
      145.500       0.00000
      145.600       0.00000
      145.700       0.00000
      145.800       0.00000
      145.900       0.00000
      146.000       0.00000
      146.100       0.00000
      146.200       0.00000
      146.300       0.00000
      146.400       0.00000
      146.500       0.00000
      146.600       0.00000
      146.700       0.00000
      146.800       0.00000
      146.900       0.00000
      147.000       0.00000
      147.100       0.00000
      147.200       0.00000
      147.300       0.00000
      147.400       0.00000
      147.500       0.00000
      147.600       0.00000
      147.700       0.00000
      147.800       0.00000
      147.900       0.00000
      148.000       0.00000
      148.100       0.00000
      148.200       0.00000
      148.300       0.00000
      148.400       0.00000
      148.500       0.00000
      148.600       0.00000
      148.700       0.00000
      148.800       0.00000
      148.900       0.00000
      149.000       0.00000
      149.100       0.00000
      149.200       0.00000
      149.300       0.00000
      149.400       0.00000
      149.500       0.00000
      149.600       0.00000
      149.700       0.00000
      149.800       0.00000
      149.900       0.00000
      150.000       0.00000
      150.100       0.00000
      150.200       0.00000
      150.300       0.00000
      150.400       0.00000
      150.500       0.00000
      150.600       0.00000
      150.700       0.00000
      150.800       0.00000
      150.900       0.00000
      151.000       0.00000
      151.100       0.00000
      151.200       0.00000
      151.300       0.00000
      151.400       0.00000
      151.500       0.00000
      151.600       0.00000
      151.700       0.00000
      151.800       0.00000
      151.900       0.00000
      152.000       0.00000
      152.100       0.00000
      152.200       0.00000
      152.300       0.00000
      152.400       0.00000
      152.500       0.00000
      152.600       0.00000
      152.700       0.00000
      152.800       0.00000
      152.900       0.00000
      153.000       0.00000
      153.100       0.00000
      153.200       0.00000
      153.300       0.00000
      153.400       0.00000
      153.500       0.00000
      153.600       0.00000
      153.700       0.00000
      153.800       0.00000
      153.900       0.00000
      154.000       0.00000
      154.100       0.00000
      154.200       0.00000
      154.300       0.00000
      154.400       0.00000
      154.500       0.00000
      154.600       0.00000
      154.700       0.00000
      154.800       0.00000
      154.900       0.00000
      155.000       0.00000
      155.100       0.00000
      155.200       0.00000
      155.300       0.00000
      155.400       0.00000
      155.500       0.00000
      155.600       0.00000
      155.700       0.00000
      155.800       0.00000
      155.900       0.00000
      156.000       0.00000
      156.100       0.00000
      156.200       0.00000
      156.300       0.00000
      156.400       0.00000
      156.500       0.00000
      156.600       0.00000
      156.700       0.00000
      156.800       0.00000
      156.900       0.00000
      157.000       0.00000
      157.100       0.00000
      157.200       0.00000
      157.300       0.00000
      157.400       0.00000
      157.500       0.00000
      157.600       0.00000
      157.700       0.00000
      157.800       0.00000
      157.900       0.00000
      158.000       0.00000
      158.100       0.00000
      158.200       0.00000
      158.300       0.00000
      158.400       0.00000
      158.500       0.00000
      158.600       0.00000
      158.700       0.00000
      158.800       0.00000
      158.900       0.00000
      159.000       0.00000
      159.100       0.00000
      159.200       0.00000
      159.300       0.00000
      159.400       0.00000
      159.500       0.00000
      159.600       0.00000
      159.700       0.00000
      159.800       0.00000
      159.900       0.00000
      160.000       0.00000
      160.100       0.00000
      160.200       0.00000
      160.300       0.00000
      160.400       0.00000
      160.500       0.00000
      160.600       0.00000
      160.700       0.00000
      160.800       0.00000
      160.900       0.00000
      161.000       0.00000
      161.100       0.00000
      161.200       0.00000
      161.300       0.00000
      161.400       0.00000
      161.500       0.00000
      161.600       0.00000
      161.700       0.00000
      161.800       0.00000
      161.900       0.00000
      162.000       0.00000
      162.100       0.00000
      162.200       0.00000
      162.300       0.00000
      162.400       0.00000
      162.500       0.00000
      162.600       0.00000
      162.700       0.00000
      162.800       0.00000
      162.900       0.00000
      163.000       0.00000
      163.100       0.00000
      163.200       0.00000
      163.300       0.00000
      163.400       0.00000
      163.500       0.00000
      163.600       0.00000
      163.700       0.00000
      163.800       0.00000
      163.900       0.00000
      164.000       0.00000
      164.100       0.00000
      164.200       0.00000
      164.300       0.00000
      164.400       0.00000
      164.500       0.00000
      164.600       0.00000
      164.700       0.00000
      164.800       0.00000
      164.900       0.00000
      165.000       0.00000
      165.100       0.00000
      165.200       0.00000
      165.300       0.00000
      165.400       0.00000
      165.500       0.00000
      165.600       0.00000
      165.700       0.00000
      165.800       0.00000
      165.900       0.00000
      166.000       0.00000
      166.100       0.00000
      166.200       0.00000
      166.300       0.00000
      166.400       0.00000
      166.500       0.00000
      166.600       0.00000
      166.700       0.00000
      166.800       0.00000
      166.900       0.00000
      167.000       0.00000
      167.100       0.00000
      167.200       0.00000
      167.300       0.00000
      167.400       0.00000
      167.500       0.00000
      167.600       0.00000
      167.700       0.00000
      167.800       0.00000
      167.900       0.00000
      168.000       0.00000
      168.100       0.00000
      168.200       0.00000
      168.300       0.00000
      168.400       0.00000
      168.500       0.00000
      168.600       0.00000
      168.700       0.00000
      168.800       0.00000
      168.900       0.00000
      169.000       0.00000
      169.100       0.00000
      169.200       0.00000
      169.300       0.00000
      169.400       0.00000
      169.500       0.00000
      169.600       0.00000
      169.700       0.00000
      169.800       0.00000
      169.900       0.00000
      170.000       0.00000
      170.100       0.00000
      170.200       0.00000
      170.300       0.00000
      170.400       0.00000
      170.500   4.03693e-31
      170.600   1.86518e-19
      170.700   1.97283e-12
      170.800   1.67352e-10
      170.900   2.73767e-10
      171.000   2.76321e-10
      171.100   2.78877e-10
      171.200   2.81435e-10
      171.300   2.83996e-10
      171.400   2.86557e-10
      171.500   2.89118e-10
      171.600   2.91681e-10
      171.700   2.94251e-10
      171.800   2.96826e-10
      171.900   2.99407e-10
      172.000   3.02000e-10
      172.100   3.04610e-10
      172.200   3.07234e-10
      172.300   3.09865e-10
      172.400   3.12459e-10
      172.500   3.15058e-10
      172.600   3.17681e-10
      172.700   3.20325e-10
      172.800   3.22987e-10
      172.900   3.25677e-10
      173.000   3.28386e-10
      173.100   3.31118e-10
      173.200   3.33874e-10
      173.300   3.36655e-10
      173.400   3.39463e-10
      173.500   3.42294e-10
      173.600   3.45150e-10
      173.700   3.48030e-10
      173.800   3.50939e-10
      173.900   3.53867e-10
      174.000   3.56821e-10
      174.100   3.59804e-10
      174.200   3.62807e-10
      174.300   3.65829e-10
      174.400   3.68879e-10
      174.500   3.71948e-10
      174.600   3.75043e-10
      174.700   3.78158e-10
      174.800   3.81291e-10
      174.900   3.84446e-10
      175.000   3.87624e-10
      175.100   3.90814e-10
      175.200   3.94044e-10
      175.300   3.97286e-10
      175.400   4.00553e-10
      175.500   4.03837e-10
      175.600   4.07137e-10
      175.700   4.10459e-10
      175.800   4.13804e-10
      175.900   4.17165e-10
      176.000   4.20543e-10
      176.100   4.23942e-10
      176.200   4.27361e-10
      176.300   4.30803e-10
      176.400   4.34261e-10
      176.500   4.37738e-10
      176.600   4.41240e-10
      176.700   4.44759e-10
      176.800   4.48296e-10
      176.900   4.51852e-10
      177.000   4.55432e-10
      177.100   4.59031e-10
      177.200   4.62646e-10
      177.300   4.66279e-10
      177.400   4.69935e-10
      177.500   4.73609e-10
      177.600   4.77299e-10
      177.700   4.81007e-10
      177.800   4.84730e-10
      177.900   4.88474e-10
      178.000   4.92269e-10
      178.100   4.96080e-10
      178.200   4.99911e-10
      178.300   5.03764e-10
      178.400   5.07630e-10
      178.500   5.11514e-10
      178.600   5.15416e-10
      178.700   5.19343e-10
      178.800   5.23282e-10
      178.900   5.27236e-10
      179.000   5.31208e-10
      179.100   5.35201e-10
      179.200   5.39218e-10
      179.300   5.43249e-10
      179.400   5.47300e-10
      179.500   5.51373e-10
      179.600   5.55477e-10
      179.700   5.59595e-10
      179.800   5.63735e-10
      179.900   5.67899e-10
      180.000   5.72096e-10
      180.100   5.76309e-10
      180.200   5.80552e-10
      180.300   5.84819e-10
      180.400   5.89121e-10
      180.500   5.93450e-10
      180.600   5.97802e-10
      180.700   6.02184e-10
      180.800   6.06648e-10
      180.900   6.11232e-10
      181.000   6.15888e-10
      181.100   6.20571e-10
      181.200   6.25294e-10
      181.300   6.30056e-10
      181.400   6.34845e-10
      181.500   6.39666e-10
      181.600   6.44526e-10
      181.700   6.49425e-10
      181.800   6.54351e-10
      181.900   6.59312e-10
      182.000   6.64313e-10
      182.100   6.69340e-10
      182.200   6.74414e-10
      182.300   6.79513e-10
      182.400   6.84644e-10
      182.500   6.89809e-10
      182.600   6.95016e-10
      182.700   7.00247e-10
      182.800   7.05506e-10
      182.900   7.10804e-10
      183.000   7.16132e-10
      183.100   7.21490e-10
      183.200   7.26878e-10
      183.300   7.32299e-10
      183.400   7.37754e-10
      183.500   7.43237e-10
      183.600   7.48751e-10
      183.700   7.54507e-10
      183.800   7.61206e-10
      183.900   7.68510e-10
      184.000   7.75858e-10
      184.100   7.83277e-10
      184.200   7.90748e-10
      184.300   7.98288e-10
      184.400   8.05883e-10
      184.500   8.13532e-10
      184.600   8.21242e-10
      184.700   8.29018e-10
      184.800   8.36852e-10
      184.900   8.44743e-10
      185.000   8.52693e-10
      185.100   8.60710e-10
      185.200   8.68792e-10
      185.300   8.76924e-10
      185.400   8.85119e-10
      185.500   8.93371e-10
      185.600   9.01688e-10
      185.700   9.10076e-10
      185.800   9.18521e-10
      185.900   9.27018e-10
      186.000   9.35594e-10
      186.100   9.44217e-10
      186.200   9.52893e-10
      186.300   9.61628e-10
      186.400   9.70427e-10
      186.500   9.79287e-10
      186.600   9.88195e-10
      186.700   9.97151e-10
      186.800   1.00616e-09
      186.900   1.01523e-09
      187.000   1.02436e-09
      187.100   1.03353e-09
      187.200   1.04276e-09
      187.300   1.05206e-09
      187.400   1.06140e-09
      187.500   1.07080e-09
      187.600   1.08024e-09
      187.700   1.08975e-09
      187.800   1.09931e-09
      187.900   1.10893e-09
      188.000   1.11860e-09
      188.100   1.12832e-09
      188.200   1.13811e-09
      188.300   1.14796e-09
      188.400   1.15787e-09
      188.500   1.16783e-09
      188.600   1.17786e-09
      188.700   1.18797e-09
      188.800   1.19813e-09
      188.900   1.20835e-09
      189.000   1.21863e-09
      189.100   1.22900e-09
      189.200   1.23944e-09
      189.300   1.24994e-09
      189.400   1.26050e-09
      189.500   1.27115e-09
      189.600   1.28188e-09
      189.700   1.29267e-09
      189.800   1.30365e-09
      189.900   1.31473e-09
      190.000   1.32591e-09
      190.100   1.33715e-09
      190.200   1.34848e-09
      190.300   1.35988e-09
      190.400   1.37138e-09
      190.500   1.38297e-09
      190.600   1.39463e-09
      190.700   1.40637e-09
      190.800   1.41820e-09
      190.900   1.43012e-09
      191.000   1.44214e-09
      191.100   1.45424e-09
      191.200   1.46643e-09
      191.300   1.47870e-09
      191.400   1.49107e-09
      191.500   1.50353e-09
      191.600   1.51606e-09
      191.700   1.52868e-09
      191.800   1.54141e-09
      191.900   1.55421e-09
      192.000   1.56709e-09
      192.100   1.58006e-09
      192.200   1.59314e-09
      192.300   1.60630e-09
      192.400   1.61957e-09
      192.500   1.63292e-09
      192.600   1.64635e-09
      192.700   1.65988e-09
      192.800   1.67285e-09
      192.900   1.68428e-09
      193.000   1.69560e-09
      193.100   1.70700e-09
      193.200   1.71848e-09
      193.300   1.73001e-09
      193.400   1.74160e-09
      193.500   1.75326e-09
      193.600   1.76499e-09
      193.700   1.77679e-09
      193.800   1.78865e-09
      193.900   1.80057e-09
      194.000   1.81257e-09
      194.100   1.82466e-09
      194.200   1.83680e-09
      194.300   1.84902e-09
      194.400   1.86130e-09
      194.500   1.87366e-09
      194.600   1.88609e-09
      194.700   1.89858e-09
      194.800   1.91113e-09
      194.900   1.92376e-09
      195.000   1.93645e-09
      195.100   1.94924e-09
      195.200   1.96207e-09
      195.300   1.97496e-09
      195.400   1.98792e-09
      195.500   2.00095e-09
      195.600   2.01403e-09
      195.700   2.02716e-09
      195.800   2.04022e-09
      195.900   2.05237e-09
      196.000   2.03095e-09
      196.100   2.00931e-09
      196.200   1.98789e-09
      196.300   1.96667e-09
      196.400   1.94567e-09
      196.500   1.92487e-09
      196.600   1.90427e-09
      196.700   1.88388e-09
      196.800   1.86368e-09
      196.900   1.84370e-09
      197.000   1.82391e-09
      197.100   1.80430e-09
      197.200   1.78489e-09
      197.300   1.76565e-09
      197.400   1.74660e-09
      197.500   1.72772e-09
      197.600   1.70904e-09
      197.700   1.69055e-09
      197.800   1.67225e-09
      197.900   1.65412e-09
      198.000   1.63616e-09
      198.100   1.61838e-09
      198.200   1.60077e-09
      198.300   1.58334e-09
      198.400   1.56608e-09
      198.500   1.54901e-09
      198.600   1.53212e-09
      198.700   1.51539e-09
      198.800   1.49884e-09
      198.900   1.48246e-09
      199.000   1.46623e-09
      199.100   1.45018e-09
      199.200   1.43430e-09
      199.300   1.41860e-09
      199.400   1.40307e-09
      199.500   1.38771e-09
      199.600   1.37250e-09
      199.700   1.35746e-09
      199.800   1.34257e-09
      199.900   1.32784e-09
      200.000   1.31327e-09
      200.100   1.29894e-09
      200.200   1.28470e-09
      200.300   1.27062e-09
      200.400   1.25669e-09
      200.500   1.24290e-09
      200.600   1.22928e-09
      200.700   1.21580e-09
      200.800   1.20245e-09
      200.900   1.18927e-09
      201.000   1.17623e-09
      201.100   1.16334e-09
      201.200   1.15058e-09
      201.300   1.13797e-09
      201.400   1.12550e-09
      201.500   1.11316e-09
      201.600   1.10095e-09
      201.700   1.08889e-09
      201.800   1.07695e-09
      201.900   1.06514e-09
      202.000   1.05348e-09
      202.100   1.04194e-09
      202.200   1.03053e-09
      202.300   1.01931e-09
      202.400   1.00835e-09
      202.500   9.97544e-10
      202.600   9.86848e-10
      202.700   9.76280e-10
      202.800   9.65827e-10
      202.900   9.55491e-10
      203.000   9.45270e-10
      203.100   9.35169e-10
      203.200   9.25173e-10
      203.300   9.15289e-10
      203.400   9.05514e-10
      203.500   8.95847e-10
      203.600   8.86288e-10
      203.700   8.76840e-10
      203.800   8.67499e-10
      203.900   8.58272e-10
      204.000   8.49145e-10
      204.100   8.40121e-10
      204.200   8.31203e-10
      204.300   8.22383e-10
      204.400   8.13664e-10
      204.500   8.05045e-10
      204.600   7.96520e-10
      204.700   7.88093e-10
      204.800   7.79768e-10
      204.900   7.71539e-10
      205.000   7.63402e-10
      205.100   7.55357e-10
      205.200   7.47401e-10
      205.300   7.39537e-10
      205.400   7.31760e-10
      205.500   7.24069e-10
      205.600   7.15899e-10
      205.700   7.07307e-10
      205.800   6.98745e-10
      205.900   6.90295e-10
      206.000   6.81955e-10
      206.100   6.73714e-10
      206.200   6.65572e-10
      206.300   6.57532e-10
      206.400   6.49591e-10
      206.500   6.41740e-10
      206.600   6.33987e-10
      206.700   6.26328e-10
      206.800   6.18755e-10
      206.900   6.11273e-10
      207.000   6.03882e-10
      207.100   5.96580e-10
      207.200   5.89367e-10
      207.300   5.82235e-10
      207.400   5.75185e-10
      207.500   5.68217e-10
      207.600   5.61330e-10
      207.700   5.54521e-10
      207.800   5.47789e-10
      207.900   5.41134e-10
      208.000   5.34556e-10
      208.100   5.28053e-10
      208.200   5.21623e-10
      208.300   5.15268e-10
      208.400   5.08988e-10
      208.500   5.02780e-10
      208.600   4.96640e-10
      208.700   4.90570e-10
      208.800   4.84570e-10
      208.900   4.77991e-10
      209.000   4.70331e-10
      209.100   4.62509e-10
      209.200   4.54811e-10
      209.300   4.47233e-10
      209.400   4.39777e-10
      209.500   4.32439e-10
      209.600   4.25218e-10
      209.700   4.18114e-10
      209.800   4.11130e-10
      209.900   4.04253e-10
      210.000   3.97489e-10
      210.100   3.90834e-10
      210.200   3.84284e-10
      210.300   3.77840e-10
      210.400   3.71500e-10
      210.500   3.65262e-10
      210.600   3.59125e-10
      210.700   3.53087e-10
      210.800   3.47147e-10
      210.900   3.41303e-10
      211.000   3.35553e-10
      211.100   3.29899e-10
      211.200   3.24335e-10
      211.300   3.18866e-10
      211.400   3.13490e-10
      211.500   3.08198e-10
      211.600   3.02995e-10
      211.700   2.97877e-10
      211.800   2.92839e-10
      211.900   2.87885e-10
      212.000   2.83015e-10
      212.100   2.78223e-10
      212.200   2.73509e-10
      212.300   2.68873e-10
      212.400   2.64312e-10
      212.500   2.59828e-10
      212.600   2.55417e-10
      212.700   2.51079e-10
      212.800   2.46813e-10
      212.900   2.42618e-10
      213.000   2.38491e-10
      213.100   2.34436e-10
      213.200   2.30449e-10
      213.300   2.26527e-10
      213.400   2.22670e-10
      213.500   2.18877e-10
      213.600   2.15147e-10
      213.700   2.11481e-10
      213.800   2.07874e-10
      213.900   2.04330e-10
      214.000   2.00843e-10
      214.100   1.97416e-10
      214.200   1.94047e-10
      214.300   1.90734e-10
      214.400   1.87476e-10
      214.500   1.84274e-10
      214.600   1.81127e-10
      214.700   1.78033e-10
      214.800   1.74991e-10
      214.900   1.72002e-10
      215.000   1.69063e-10
      215.100   1.66175e-10
      215.200   1.63337e-10
      215.300   1.60549e-10
      215.400   1.57808e-10
      215.500   1.55114e-10
      215.600   1.52469e-10
      215.700   1.49867e-10
      215.800   1.47310e-10
      215.900   1.44798e-10
      216.000   1.42328e-10
      216.100   1.39902e-10
      216.200   1.37517e-10
      216.300   1.35174e-10
      216.400   1.32872e-10
      216.500   1.30609e-10
      216.600   1.28385e-10
      216.700   1.26201e-10
      216.800   1.24054e-10
      216.900   1.21944e-10
      217.000   1.19871e-10
      217.100   1.17833e-10
      217.200   1.15831e-10
      217.300   1.13863e-10
      217.400   1.11929e-10
      217.500   1.10029e-10
      217.600   1.08161e-10
      217.700   1.06324e-10
      217.800   1.04520e-10
      217.900   1.02748e-10
      218.000   1.01005e-10
      218.100   9.92926e-11
      218.200   9.76095e-11
      218.300   9.59552e-11
      218.400   9.43294e-11
      218.500   9.27301e-11
      218.600   9.11586e-11
      218.700   8.96134e-11
      218.800   8.80943e-11
      218.900   8.66014e-11
      219.000   8.51330e-11
      219.100   8.36892e-11
      219.200   8.22698e-11
      219.300   8.08740e-11
      219.400   7.95012e-11
      219.500   7.81515e-11
      219.600   7.68244e-11
      219.700   7.55196e-11
      219.800   7.42367e-11
      219.900   7.29749e-11
      220.000   7.17339e-11
      220.100   7.05138e-11
      220.200   6.93137e-11
      220.300   6.81337e-11
      220.400   6.69734e-11
      220.500   6.58325e-11
      220.600   6.47107e-11
      220.700   6.36070e-11
      220.800   6.25214e-11
      220.900   6.14545e-11
      221.000   6.04050e-11
      221.100   5.93726e-11
      221.200   5.83578e-11
      221.300   5.73598e-11
      221.400   5.63783e-11
      221.500   5.54132e-11
      221.600   5.44641e-11
      221.700   5.35307e-11
      221.800   5.26125e-11
      221.900   5.17099e-11
      222.000   5.08226e-11
      222.100   4.99495e-11
      222.200   4.90914e-11
      222.300   4.82472e-11
      222.400   4.74175e-11
      222.500   4.66012e-11
      222.600   4.57989e-11
      222.700   4.50098e-11
      222.800   4.42337e-11
      222.900   4.34706e-11
      223.000   4.27202e-11
      223.100   4.19822e-11
      223.200   4.12568e-11
      223.300   4.05434e-11
      223.400   3.98420e-11
      223.500   3.91521e-11
      223.600   3.84742e-11
      223.700   3.78073e-11
      223.800   3.71515e-11
      223.900   3.65073e-11
      224.000   3.58734e-11
      224.100   3.52502e-11
      224.200   3.46374e-11
      224.300   3.40350e-11
      224.400   3.34426e-11
      224.500   3.28603e-11
      224.600   3.22875e-11
      224.700   3.17247e-11
      224.800   3.11713e-11
      224.900   3.06270e-11
      225.000   3.00920e-11
      225.100   2.95659e-11
      225.200   2.90487e-11
      225.300   2.85405e-11
      225.400   2.80406e-11
      225.500   2.75490e-11
      225.600   2.70659e-11
      225.700   2.65911e-11
      225.800   2.61241e-11
      225.900   2.56651e-11
      226.000   2.52140e-11
      226.100   2.47705e-11
      226.200   2.43346e-11
      226.300   2.39079e-11
      226.400   2.34893e-11
      226.500   2.30772e-11
      226.600   2.26717e-11
      226.700   2.22730e-11
      226.800   2.18806e-11
      226.900   2.14950e-11
      227.000   2.11159e-11
      227.100   2.07432e-11
      227.200   2.03770e-11
      227.300   2.00172e-11
      227.400   1.96636e-11
      227.500   1.93161e-11
      227.600   1.89746e-11
      227.700   1.86390e-11
      227.800   1.83093e-11
      227.900   1.79854e-11
      228.000   1.76672e-11
      228.100   1.73545e-11
      228.200   1.70472e-11
      228.300   1.67453e-11
      228.400   1.64489e-11
      228.500   1.61575e-11
      228.600   1.58713e-11
      228.700   1.55902e-11
      228.800   1.53140e-11
      228.900   1.50428e-11
      229.000   1.47764e-11
      229.100   1.45146e-11
      229.200   1.42576e-11
      229.300   1.40051e-11
      229.400   1.37571e-11
      229.500   1.35135e-11
      229.600   1.32742e-11
      229.700   1.30392e-11
      229.800   1.28084e-11
      229.900   1.25817e-11
      230.000   1.23568e-11
      230.100   1.21202e-11
      230.200   1.18876e-11
      230.300   1.16596e-11
      230.400   1.14360e-11
      230.500   1.12166e-11
      230.600   1.10016e-11
      230.700   1.07906e-11
      230.800   1.05837e-11
      230.900   1.03809e-11
      231.000   1.01819e-11
      231.100   9.98676e-12
      231.200   9.79537e-12
      231.300   9.60769e-12
      231.400   9.42369e-12
      231.500   9.24309e-12
      231.600   9.06595e-12
      231.700   8.89227e-12
      231.800   8.72193e-12
      231.900   8.55484e-12
      232.000   8.39095e-12
      232.100   8.23017e-12
      232.200   8.07250e-12
      232.300   7.91787e-12
      232.400   7.76616e-12
      232.500   7.61732e-12
      232.600   7.47136e-12
      232.700   7.32818e-12
      232.800   7.18774e-12
      232.900   7.04996e-12
      233.000   6.91481e-12
      233.100   6.78227e-12
      233.200   6.65221e-12
      233.300   6.52467e-12
      233.400   6.39955e-12
      233.500   6.27684e-12
      233.600   6.15651e-12
      233.700   6.03841e-12
      233.800   5.90808e-12
      233.900   5.77864e-12
      234.000   5.65193e-12
      234.100   5.52800e-12
      234.200   5.40676e-12
      234.300   5.28813e-12
      234.400   5.17205e-12
      234.500   5.05849e-12
      234.600   4.94736e-12
      234.700   4.83866e-12
      234.800   4.73233e-12
      234.900   4.62826e-12
      235.000   4.52643e-12
      235.100   4.42681e-12
      235.200   4.32936e-12
      235.300   4.23401e-12
      235.400   4.14072e-12
      235.500   4.04944e-12
      235.600   3.96017e-12
      235.700   3.87281e-12
      235.800   3.78744e-12
      235.900   3.70390e-12
      236.000   3.62218e-12
      236.100   3.54222e-12
      236.200   3.46398e-12
      236.300   3.38743e-12
      236.400   3.31256e-12
      236.500   3.23930e-12
      236.600   3.16762e-12
      236.700   3.09749e-12
      236.800   3.02888e-12
      236.900   2.96174e-12
      237.000   2.89607e-12
      237.100   2.83180e-12
      237.200   2.76894e-12
      237.300   2.70744e-12
      237.400   2.64726e-12
      237.500   2.58838e-12
      237.600   2.53076e-12
      237.700   2.47445e-12
      237.800   2.41935e-12
      237.900   2.36545e-12
      238.000   2.31273e-12
      238.100   2.26113e-12
      238.200   2.21065e-12
      238.300   2.16126e-12
      238.400   2.11294e-12
      238.500   2.06566e-12
      238.600   2.01941e-12
      238.700   1.97417e-12
      238.800   1.92990e-12
      238.900   1.88659e-12
      239.000   1.84421e-12
      239.100   1.80276e-12
      239.200   1.76222e-12
      239.300   1.72257e-12
      239.400   1.68382e-12
      239.500   1.64591e-12
      239.600   1.60882e-12
      239.700   1.57255e-12
      239.800   1.53705e-12
      239.900   1.50233e-12
      240.000   1.46837e-12
      240.100   1.43514e-12
      240.200   1.40263e-12
      240.300   1.37083e-12
      240.400   1.33972e-12
      240.500   1.30931e-12
      240.600   1.27956e-12
      240.700   1.25046e-12
      240.800   1.22201e-12
      240.900   1.19421e-12
      241.000   1.16702e-12
      241.100   1.14043e-12
      241.200   1.11443e-12
      241.300   1.08899e-12
      241.400   1.06412e-12
      241.500   1.03979e-12
      241.600   1.01601e-12
      241.700   9.92742e-13
      241.800   9.69991e-13
      241.900   9.47742e-13
      242.000   9.25989e-13
      242.100   9.04724e-13
      242.200   8.83953e-13
      242.300   8.63660e-13
      242.400   8.43814e-13
      242.500   8.24409e-13
      242.600   8.05440e-13
      242.700   7.86891e-13
      242.800   7.68762e-13
      242.900   7.51037e-13
      243.000   7.33710e-13
      243.100   7.16772e-13
      243.200   7.00208e-13
      243.300   6.84020e-13
      243.400   6.68203e-13
      243.500   6.52753e-13
      243.600   6.37671e-13
      243.700   6.22921e-13
      243.800   6.08506e-13
      243.900   5.94422e-13
      244.000   5.80652e-13
      244.100   5.67195e-13
      244.200   5.54045e-13
      244.300   5.41189e-13
      244.400   5.28627e-13
      244.500   5.16351e-13
      244.600   5.04353e-13
      244.700   4.92639e-13
      244.800   4.81207e-13
      244.900   4.70036e-13
      245.000   4.59114e-13
      245.100   4.48443e-13
      245.200   4.38020e-13
      245.300   4.27833e-13
      245.400   4.17876e-13
      245.500   4.08151e-13
      245.600   3.98647e-13
      245.700   3.89357e-13
      245.800   3.80280e-13
      245.900   3.71428e-13
      246.000   3.62785e-13
      246.100   3.54338e-13
      246.200   3.46085e-13
      246.300   3.38019e-13
      246.400   3.30141e-13
      246.500   3.22443e-13
      246.600   3.14920e-13
      246.700   3.07572e-13
      246.800   3.00388e-13
      246.900   2.93372e-13
      247.000   2.86529e-13
      247.100   2.79846e-13
      247.200   2.73317e-13
      247.300   2.66940e-13
      247.400   2.60708e-13
      247.500   2.54618e-13
      247.600   2.48669e-13
      247.700   2.42857e-13
      247.800   2.37177e-13
      247.900   2.31628e-13
      248.000   2.26208e-13
      248.100   2.20928e-13
      248.200   2.15768e-13
      248.300   2.10726e-13
      248.400   2.05799e-13
      248.500   2.00985e-13
      248.600   1.96282e-13
      248.700   1.91689e-13
      248.800   1.87200e-13
      248.900   1.82815e-13
      249.000   1.78531e-13
      249.100   1.74354e-13
      249.200   1.70277e-13
      249.300   1.66291e-13
      249.400   1.62398e-13
      249.500   1.58594e-13
      249.600   1.54878e-13
      249.700   1.51246e-13
      249.800   1.47699e-13
      249.900   1.44233e-13
      250.000   1.40848e-13
      250.100   1.37546e-13
      250.200   1.34321e-13
      250.300   1.31174e-13
      250.400   1.28099e-13
      250.500   1.25095e-13
      250.600   1.22160e-13
      250.700   1.19293e-13
      250.800   1.16493e-13
      250.900   1.13757e-13
      251.000   1.11085e-13
      251.100   1.08474e-13
      251.200   1.05926e-13
      251.300   1.03440e-13
      251.400   1.01012e-13
      251.500   9.86391e-14
      251.600   9.63212e-14
      251.700   9.40583e-14
      251.800   9.18469e-14
      251.900   8.96867e-14
      252.000   8.75761e-14
      252.100   8.55154e-14
      252.200   8.35016e-14
      252.300   8.15368e-14
      252.400   7.96180e-14
      252.500   7.77449e-14
      252.600   7.59145e-14
      252.700   7.41266e-14
      252.800   7.23803e-14
      252.900   7.06743e-14
      253.000   6.90077e-14
      253.100   6.73799e-14
      253.200   6.57899e-14
      253.300   6.42496e-14
      253.400   6.27503e-14
      253.500   6.12865e-14
      253.600   5.98576e-14
      253.700   5.84611e-14
      253.800   5.70968e-14
      253.900   5.57639e-14
      254.000   5.44612e-14
      254.100   5.31881e-14
      254.200   5.19442e-14
      254.300   5.07288e-14
      254.400   4.95410e-14
      254.500   4.83804e-14
      254.600   4.72464e-14
      254.700   4.61385e-14
      254.800   4.50575e-14
      254.900   4.40011e-14
      255.000   4.29690e-14
      255.100   4.19600e-14
      255.200   4.09742e-14
      255.300   4.00112e-14
      255.400   3.90700e-14
      255.500   3.81505e-14
      255.600   3.72521e-14
      255.700   3.63743e-14
      255.800   3.55165e-14
      255.900   3.46781e-14
      256.000   3.38591e-14
      256.100   3.30594e-14
      256.200   3.22785e-14
      256.300   3.15156e-14
      256.400   3.07705e-14
      256.500   3.00420e-14
      256.600   2.93305e-14
      256.700   2.86355e-14
      256.800   2.79562e-14
      256.900   2.72926e-14
      257.000   2.66443e-14
      257.100   2.60109e-14
      257.200   2.53923e-14
      257.300   2.47878e-14
      257.400   2.42766e-14
      257.500   2.38043e-14
      257.600   2.33428e-14
      257.700   2.28900e-14
      257.800   2.24457e-14
      257.900   2.20098e-14
      258.000   2.15821e-14
      258.100   2.11624e-14
      258.200   2.07506e-14
      258.300   2.03468e-14
      258.400   1.99503e-14
      258.500   1.95612e-14
      258.600   1.91797e-14
      258.700   1.88053e-14
      258.800   1.84379e-14
      258.900   1.80778e-14
      259.000   1.77242e-14
      259.100   1.73774e-14
      259.200   1.70372e-14
      259.300   1.67038e-14
      259.400   1.63768e-14
      259.500   1.60558e-14
      259.600   1.57410e-14
      259.700   1.54323e-14
      259.800   1.51294e-14
      259.900   1.48321e-14
      260.000   1.45407e-14
      260.100   1.42548e-14
      260.200   1.39744e-14
      260.300   1.36994e-14
      260.400   1.34296e-14
      260.500   1.31651e-14
      260.600   1.29056e-14
      260.700   1.26511e-14
      260.800   1.24016e-14
      260.900   1.21568e-14
      261.000   1.19168e-14
      261.100   1.16816e-14
      261.200   1.14509e-14
      261.300   1.12246e-14
      261.400   1.10028e-14
      261.500   1.08073e-14
      261.600   1.06865e-14
      261.700   1.05795e-14
      261.800   1.04737e-14
      261.900   1.03687e-14
      262.000   1.02648e-14
      262.100   1.01620e-14
      262.200   1.00602e-14
      262.300   9.95929e-15
      262.400   9.85943e-15
      262.500   9.76058e-15
      262.600   9.66268e-15
      262.700   9.56576e-15
      262.800   9.46980e-15
      262.900   9.37470e-15
      263.000   9.28073e-15
      263.100   9.18760e-15
      263.200   9.09542e-15
      263.300   9.00418e-15
      263.400   8.91381e-15
      263.500   8.82437e-15
      263.600   8.73588e-15
      263.700   8.64823e-15
      263.800   8.56143e-15
      263.900   8.47559e-15
      264.000   8.39058e-15
      264.100   8.30642e-15
      264.200   8.22308e-15
      264.300   8.14065e-15
      264.400   8.05904e-15
      264.500   7.97825e-15
      264.600   7.89825e-15
      264.700   7.81909e-15
      264.800   7.74073e-15
      264.900   7.66322e-15
      265.000   7.58646e-15
      265.100   7.51047e-15
      265.200   7.43528e-15
      265.300   7.36085e-15
      265.400   7.28721e-15
      265.500   7.21432e-15
      265.600   7.14218e-15
      265.700   7.07076e-15
      265.800   7.00020e-15
      265.900   6.93034e-15
      266.000   6.86126e-15
      266.100   6.79290e-15
      266.200   6.72522e-15
      266.300   6.65824e-15
      266.400   6.59195e-15
      266.500   6.52635e-15
      266.600   6.46146e-15
      266.700   6.39719e-15
      266.800   6.33366e-15
      266.900   6.27076e-15
      267.000   6.20851e-15
      267.100   6.14692e-15
      267.200   6.08602e-15
      267.300   6.02572e-15
      267.400   5.96601e-15
      267.500   5.90695e-15
      267.600   5.84851e-15
      267.700   5.79068e-15
      267.800   5.73344e-15
      267.900   5.67681e-15
      268.000   5.62080e-15
      268.100   5.56536e-15
      268.200   5.51051e-15
      268.300   5.45625e-15
      268.400   5.40252e-15
      268.500   5.34936e-15
      268.600   5.29675e-15
      268.700   5.24474e-15
      268.800   5.19323e-15
      268.900   5.14228e-15
      269.000   5.09187e-15
      269.100   5.04196e-15
      269.200   4.99262e-15
      269.300   4.94377e-15
      269.400   4.89542e-15
      269.500   4.84755e-15
      269.600   4.80024e-15
      269.700   4.75338e-15
      269.800   4.70705e-15
      269.900   4.66116e-15
      270.000   4.61580e-15
      270.100   4.57092e-15
      270.200   4.52657e-15
      270.300   4.48265e-15
      270.400   4.43918e-15
      270.500   4.39618e-15
      270.600   4.35360e-15
      270.700   4.31148e-15
      270.800   4.26980e-15
      270.900   4.22852e-15
      271.000   4.18767e-15
      271.100   4.14723e-15
      271.200   4.10720e-15
      271.300   4.06761e-15
      271.400   4.02839e-15
      271.500   3.98961e-15
      271.600   3.95117e-15
      271.700   3.91314e-15
      271.800   3.87550e-15
      271.900   3.83824e-15
      272.000   3.80136e-15
      272.100   3.76483e-15
      272.200   3.72866e-15
      272.300   3.69286e-15
      272.400   3.65741e-15
      272.500   3.62232e-15
      272.600   3.58757e-15
      272.700   3.55317e-15
      272.800   3.51910e-15
      272.900   3.48536e-15
      273.000   3.45198e-15
      273.100   3.41890e-15
      273.200   3.38616e-15
      273.300   3.35374e-15
      273.400   3.32162e-15
      273.500   3.28981e-15
      273.600   3.25832e-15
      273.700   3.22711e-15
      273.800   3.19621e-15
      273.900   3.16563e-15
      274.000   3.13533e-15
      274.100   3.10533e-15
      274.200   3.07560e-15
      274.300   3.04616e-15
      274.400   3.01671e-15
      274.500   2.98692e-15
      274.600   2.95728e-15
      274.700   2.92794e-15
      274.800   2.89888e-15
      274.900   2.87010e-15
      275.000   2.84159e-15
      275.100   2.81337e-15
      275.200   2.78542e-15
      275.300   2.75773e-15
      275.400   2.73032e-15
      275.500   2.70318e-15
      275.600   2.67628e-15
      275.700   2.64965e-15
      275.800   2.62328e-15
      275.900   2.59717e-15
      276.000   2.57131e-15
      276.100   2.54568e-15
      276.200   2.52030e-15
      276.300   2.49516e-15
      276.400   2.47027e-15
      276.500   2.44561e-15
      276.600   2.42119e-15
      276.700   2.39700e-15
      276.800   2.37305e-15
      276.900   2.34931e-15
      277.000   2.32580e-15
      277.100   2.30251e-15
      277.200   2.27946e-15
      277.300   2.25662e-15
      277.400   2.23400e-15
      277.500   2.21157e-15
      277.600   2.18938e-15
      277.700   2.16739e-15
      277.800   2.14559e-15
      277.900   2.12402e-15
      278.000   2.10267e-15
      278.100   2.08150e-15
      278.200   2.06054e-15
      278.300   2.03977e-15
      278.400   2.01921e-15
      278.500   1.99883e-15
      278.600   1.97864e-15
      278.700   1.95866e-15
      278.800   1.93886e-15
      278.900   1.91920e-15
      279.000   1.89971e-15
      279.100   1.88041e-15
      279.200   1.86128e-15
      279.300   1.84235e-15
      279.400   1.82358e-15
      279.500   1.80500e-15
      279.600   1.78661e-15
      279.700   1.76839e-15
      279.800   1.75034e-15
      279.900   1.73246e-15
      280.000   1.71476e-15
      280.100   1.69722e-15
      280.200   1.67985e-15
      280.300   1.66265e-15
      280.400   1.64561e-15
      280.500   1.62876e-15
      280.600   1.61205e-15
      280.700   1.59550e-15
      280.800   1.57912e-15
      280.900   1.56289e-15
      281.000   1.54682e-15
      281.100   1.53090e-15
      281.200   1.51514e-15
      281.300   1.49954e-15
      281.400   1.48409e-15
      281.500   1.46878e-15
      281.600   1.45361e-15
      281.700   1.43861e-15
      281.800   1.42375e-15
      281.900   1.40903e-15
      282.000   1.39446e-15
      282.100   1.38003e-15
      282.200   1.36575e-15
      282.300   1.35160e-15
      282.400   1.33759e-15
      282.500   1.32372e-15
      282.600   1.30999e-15
      282.700   1.29638e-15
      282.800   1.28292e-15
      282.900   1.26960e-15
      283.000   1.25640e-15
      283.100   1.24334e-15
      283.200   1.23041e-15
      283.300   1.21760e-15
      283.400   1.20493e-15
      283.500   1.19239e-15
      283.600   1.17996e-15
      283.700   1.16766e-15
      283.800   1.15549e-15
      283.900   1.14344e-15
      284.000   1.13151e-15
      284.100   1.11969e-15
      284.200   1.10800e-15
      284.300   1.09643e-15
      284.400   1.08498e-15
      284.500   1.07364e-15
      284.600   1.06242e-15
      284.700   1.05131e-15
      284.800   1.04032e-15
      284.900   1.02944e-15
      285.000   1.01866e-15
      285.100   1.00800e-15
      285.200   9.97456e-16
      285.300   9.87013e-16
      285.400   9.76677e-16
      285.500   9.66445e-16
      285.600   9.56331e-16
      285.700   9.46312e-16
      285.800   9.36402e-16
      285.900   9.26592e-16
      286.000   9.16884e-16
      286.100   9.07287e-16
      286.200   8.97781e-16
      286.300   8.88383e-16
      286.400   8.79081e-16
      286.500   8.69873e-16
      286.600   8.60761e-16
      286.700   8.51744e-16
      286.800   8.42827e-16
      286.900   8.34003e-16
      287.000   8.25269e-16
      287.100   8.16627e-16
      287.200   8.08081e-16
      287.300   7.99623e-16
      287.400   7.91253e-16
      287.500   7.82975e-16
      287.600   7.74787e-16
      287.700   7.66681e-16
      287.800   7.58665e-16
      287.900   7.50734e-16
      288.000   7.42890e-16
      288.100   7.35126e-16
      288.200   7.27451e-16
      288.300   7.19859e-16
      288.400   7.12347e-16
      288.500   7.04918e-16
      288.600   6.97562e-16
      288.700   6.90292e-16
      288.800   6.83096e-16
      288.900   6.75983e-16
      289.000   6.68944e-16
      289.100   6.61978e-16
      289.200   6.55089e-16
      289.300   6.48276e-16
      289.400   6.41535e-16
      289.500   6.34867e-16
      289.600   6.28270e-16
      289.700   6.21751e-16
      289.800   6.15295e-16
      289.900   6.08906e-16
      290.000   6.02596e-16
      290.100   5.96345e-16
      290.200   5.90172e-16
      290.300   5.84062e-16
      290.400   5.78018e-16
      290.500   5.72045e-16
      290.600   5.66131e-16
      290.700   5.60281e-16
      290.800   5.54499e-16
      290.900   5.48778e-16
      291.000   5.43114e-16
      291.100   5.37513e-16
      291.200   5.31974e-16
      291.300   5.26494e-16
      291.400   5.21075e-16
      291.500   5.15713e-16
      291.600   5.10408e-16
      291.700   5.05163e-16
      291.800   4.99971e-16
      291.900   4.94840e-16
      292.000   4.89768e-16
      292.100   4.84747e-16
      292.200   4.79782e-16
      292.300   4.74867e-16
      292.400   4.70005e-16
      292.500   4.65195e-16
      292.600   4.60437e-16
      292.700   4.55730e-16
      292.800   4.51073e-16
      292.900   4.46466e-16
      293.000   4.41909e-16
      293.100   4.37400e-16
      293.200   4.32938e-16
      293.300   4.28523e-16
      293.400   4.24159e-16
      293.500   4.19840e-16
      293.600   4.15569e-16
      293.700   4.11341e-16
      293.800   4.07160e-16
      293.900   4.03023e-16
      294.000   3.98928e-16
      294.100   3.94877e-16
      294.200   3.90871e-16
      294.300   3.86907e-16
      294.400   3.82982e-16
      294.500   3.79100e-16
      294.600   3.75256e-16
      294.700   3.71455e-16
      294.800   3.67693e-16
      294.900   3.63969e-16
      295.000   3.60288e-16
      295.100   3.56647e-16
      295.200   3.53042e-16
      295.300   3.49473e-16
      295.400   3.45942e-16
      295.500   3.42450e-16
      295.600   3.38991e-16
      295.700   3.35569e-16
      295.800   3.32182e-16
      295.900   3.28829e-16
      296.000   3.25512e-16
      296.100   3.22226e-16
      296.200   3.18977e-16
      296.300   3.15761e-16
      296.400   3.12583e-16
      296.500   3.09432e-16
      296.600   3.06315e-16
      296.700   3.03230e-16
      296.800   3.00177e-16
      296.900   2.97154e-16
      297.000   2.94162e-16
      297.100   2.91199e-16
      297.200   2.88267e-16
      297.300   2.85365e-16
      297.400   2.82492e-16
      297.500   2.79646e-16
      297.600   2.76833e-16
      297.700   2.74047e-16
      297.800   2.71289e-16
      297.900   2.68560e-16
      298.000   2.65858e-16
      298.100   2.63182e-16
      298.200   2.60534e-16
      298.300   2.57912e-16
      298.400   2.55315e-16
      298.500   2.52744e-16
      298.600   2.50199e-16
      298.700   2.47679e-16
      298.800   2.45183e-16
      298.900   2.42714e-16
      299.000   2.40272e-16
      299.100   2.37852e-16
      299.200   2.35455e-16
      299.300   2.33082e-16
      299.400   2.30733e-16
      299.500   2.28407e-16
      299.600   2.26103e-16
      299.700   2.23822e-16
      299.800   2.21563e-16
      299.900   2.19327e-16
      300.000   2.17113e-16
      300.100   2.14920e-16
      300.192   2.12923e-16
      300.285   2.10920e-16
      300.377   2.08958e-16
      300.470   2.06994e-16
      300.562   2.05067e-16
      300.654   2.03158e-16
      300.747   2.01245e-16
      300.839   1.99371e-16
      300.932   1.97491e-16
      301.025   1.95630e-16
      301.117   1.93806e-16
      301.210   1.91977e-16
      301.303   1.90167e-16
      301.395   1.88392e-16
      301.488   1.86612e-16
      301.581   1.84849e-16
      301.674   1.83102e-16
      301.766   1.81389e-16
      301.859   1.79673e-16
      301.952   1.77973e-16
      302.045   1.76288e-16
      302.138   1.74739e-16
      302.231   1.73476e-16
      302.324   1.72234e-16
      302.417   1.71001e-16
      302.510   1.69774e-16
      302.603   1.68557e-16
      302.696   1.67347e-16
      302.789   1.66144e-16
      302.882   1.64949e-16
      302.976   1.63751e-16
      303.069   1.62573e-16
      303.162   1.61401e-16
      303.255   1.60237e-16
      303.349   1.59069e-16
      303.442   1.57920e-16
      303.535   1.56779e-16
      303.629   1.55633e-16
      303.722   1.54507e-16
      303.816   1.53377e-16
      303.909   1.52264e-16
      304.003   1.51148e-16
      304.096   1.50051e-16
      304.190   1.48949e-16
      304.283   1.47866e-16
      304.377   1.46779e-16
      304.471   1.45698e-16
      304.564   1.44636e-16
      304.658   1.43571e-16
      304.752   1.42511e-16
      304.846   1.41459e-16
      304.939   1.40425e-16
      305.033   1.39386e-16
      305.127   1.38354e-16
      305.221   1.37329e-16
      305.315   1.36312e-16
      305.409   1.35300e-16
      305.503   1.34296e-16
      305.597   1.33298e-16
      305.691   1.32307e-16
      305.785   1.31322e-16
      305.879   1.30344e-16
      305.973   1.29372e-16
      306.067   1.28406e-16
      306.161   1.27448e-16
      306.255   1.26496e-16
      306.350   1.25540e-16
      306.444   1.24600e-16
      306.538   1.23667e-16
      306.633   1.22730e-16
      306.727   1.21810e-16
      306.821   1.20896e-16
      306.916   1.19978e-16
      307.010   1.19090e-16
      307.105   1.18243e-16
      307.199   1.17417e-16
      307.294   1.16588e-16
      307.388   1.15773e-16
      307.483   1.14954e-16
      307.577   1.14150e-16
      307.672   1.13341e-16
      307.767   1.12538e-16
      307.861   1.11748e-16
      307.956   1.10955e-16
      308.051   1.10166e-16
      308.146   1.09384e-16
      308.240   1.08614e-16
      308.335   1.07841e-16
      308.430   1.07072e-16
      308.525   1.06309e-16
      308.620   1.05551e-16
      308.715   1.04798e-16
      308.810   1.04050e-16
      308.905   1.03307e-16
      309.000   1.02568e-16
      309.095   1.01834e-16
      309.190   1.01106e-16
      309.285   1.00382e-16
      309.380   9.96628e-17
      309.476   9.89415e-17
      309.571   9.82317e-17
      309.666   9.75269e-17
      309.761   9.68271e-17
      309.857   9.61246e-17
      309.952   9.54335e-17
      310.047   9.47478e-17
      310.143   9.40595e-17
      310.238   9.33830e-17
      310.334   9.27040e-17
      310.429   9.20366e-17
      310.525   9.13667e-17
      310.620   9.07088e-17
      310.716   9.00482e-17
      310.811   8.93997e-17
      310.907   8.87485e-17
      311.003   8.81018e-17
      311.098   8.74661e-17
      311.194   8.68283e-17
      311.290   8.61958e-17
      311.386   8.55674e-17
      311.481   8.49497e-17
      311.577   8.43299e-17
      311.673   8.37148e-17
      311.769   8.31039e-17
      311.865   8.24973e-17
      311.961   8.18972e-17
      312.057   8.13098e-17
      312.153   8.07296e-17
      312.249   8.01531e-17
      312.345   7.95812e-17
      312.441   7.90130e-17
      312.537   7.84490e-17
      312.633   7.78893e-17
      312.730   7.73273e-17
      312.826   7.67755e-17
      312.922   7.62274e-17
      313.018   7.56836e-17
      313.115   7.51381e-17
      313.211   7.46017e-17
      313.307   7.40697e-17
      313.404   7.35361e-17
      313.500   7.30116e-17
      313.597   7.24860e-17
      313.693   7.19694e-17
      313.790   7.14513e-17
      313.886   7.09423e-17
      313.983   7.04316e-17
      314.079   6.99300e-17
      314.176   6.94271e-17
      314.273   6.89278e-17
      314.369   6.84381e-17
      314.466   6.79465e-17
      314.563   6.74585e-17
      314.660   6.69741e-17
      314.756   6.64983e-17
      314.853   6.60211e-17
      314.950   6.55476e-17
      315.047   6.50780e-17
      315.144   6.46118e-17
      315.241   6.41491e-17
      315.338   6.36899e-17
      315.435   6.32341e-17
      315.532   6.27818e-17
      315.629   6.23329e-17
      315.726   6.18877e-17
      315.823   6.14455e-17
      315.921   6.10025e-17
      316.018   6.05674e-17
      316.115   6.01356e-17
      316.212   5.97070e-17
      316.310   5.92774e-17
      316.407   5.88553e-17
      316.504   5.84365e-17
      316.602   5.80168e-17
      316.699   5.76048e-17
      316.796   5.71954e-17
      316.894   5.67854e-17
      316.991   5.63836e-17
      317.089   5.59868e-17
      317.187   5.55960e-17
      317.284   5.52121e-17
      317.382   5.48272e-17
      317.479   5.44488e-17
      317.577   5.40696e-17
      317.675   5.36934e-17
      317.773   5.33200e-17
      317.870   5.29534e-17
      317.968   5.25856e-17
      318.066   5.22205e-17
      318.164   5.18583e-17
      318.262   5.14989e-17
      318.360   5.11423e-17
      318.458   5.07885e-17
      318.556   5.04376e-17
      318.654   5.00892e-17
      318.752   4.97432e-17
      318.850   4.94001e-17
      318.948   4.90595e-17
      319.046   4.87215e-17
      319.144   4.83860e-17
      319.242   4.80531e-17
      319.341   4.77195e-17
      319.439   4.73917e-17
      319.537   4.70666e-17
      319.635   4.67437e-17
      319.734   4.64201e-17
      319.832   4.61023e-17
      319.930   4.57866e-17
      320.029   4.54703e-17
      320.127   4.51596e-17
      320.226   4.48481e-17
      320.324   4.45420e-17
      320.423   4.42349e-17
      320.522   4.39307e-17
      320.620   4.36316e-17
      320.719   4.33315e-17
      320.818   4.30340e-17
      320.916   4.27415e-17
      321.015   4.24484e-17
      321.114   4.21572e-17
      321.213   4.18685e-17
      321.311   4.15848e-17
      321.410   4.13005e-17
      321.509   4.10179e-17
      321.608   4.07377e-17
      321.707   4.04595e-17
      321.806   4.01834e-17
      321.905   3.99095e-17
      322.004   3.96375e-17
      322.103   3.93676e-17
      322.202   3.90994e-17
      322.301   3.88335e-17
      322.401   3.85669e-17
      322.500   3.83049e-17
      322.599   3.80449e-17
      322.698   3.77865e-17
      322.798   3.75276e-17
      322.897   3.72732e-17
      322.996   3.70207e-17
      323.096   3.67673e-17
      323.195   3.65184e-17
      323.294   3.62712e-17
      323.394   3.60234e-17
      323.493   3.57798e-17
      323.593   3.55358e-17
      323.692   3.52957e-17
      323.792   3.50550e-17
      323.892   3.48159e-17
      323.991   3.45809e-17
      324.091   3.43455e-17
      324.191   3.41117e-17
      324.291   3.38794e-17
      324.390   3.36512e-17
      324.490   3.34223e-17
      324.590   3.31950e-17
      324.690   3.29693e-17
      324.790   3.27452e-17
      324.890   3.25228e-17
      324.990   3.23019e-17
      325.090   3.20825e-17
      325.190   3.18646e-17
      325.290   3.16483e-17
      325.390   3.14334e-17
      325.490   3.12201e-17
      325.590   3.10084e-17
      325.690   3.07977e-17
      325.790   3.05887e-17
      325.891   3.03792e-17
      325.991   3.01731e-17
      326.091   2.99684e-17
      326.192   2.97631e-17
      326.292   2.95612e-17
      326.392   2.93607e-17
      326.493   2.91596e-17
      326.593   2.89618e-17
      326.694   2.87635e-17
      326.794   2.85683e-17
      326.895   2.83725e-17
      326.995   2.81800e-17
      327.096   2.79868e-17
      327.197   2.77950e-17
      327.297   2.76063e-17
      327.398   2.74170e-17
      327.499   2.72290e-17
      327.599   2.70440e-17
      327.700   2.68584e-17
      327.801   2.66740e-17
      327.902   2.64910e-17
      328.003   2.63091e-17
      328.104   2.61284e-17
      328.205   2.59489e-17
      328.306   2.57706e-17
      328.407   2.55934e-17
      328.508   2.54173e-17
      328.609   2.52423e-17
      328.710   2.50684e-17
      328.811   2.48958e-17
      328.912   2.47243e-17
      329.013   2.45538e-17
      329.115   2.43830e-17
      329.216   2.42147e-17
      329.317   2.40474e-17
      329.419   2.38799e-17
      329.520   2.37148e-17
      329.621   2.35506e-17
      329.723   2.33861e-17
      329.824   2.32243e-17
      329.926   2.30619e-17
      330.027   2.29020e-17
      330.129   2.27416e-17
      330.230   2.25839e-17
      330.332   2.24255e-17
      330.434   2.22681e-17
      330.535   2.21133e-17
      330.637   2.19579e-17
      330.739   2.18034e-17
      330.840   2.16515e-17
      330.942   2.14990e-17
      331.044   2.13475e-17
      331.146   2.11969e-17
      331.248   2.10473e-17
      331.350   2.08987e-17
      331.452   2.07512e-17
      331.554   2.06095e-17
      331.656   2.04762e-17
      331.758   2.03437e-17
      331.860   2.02119e-17
      331.962   2.00809e-17
      332.064   1.99506e-17
      332.166   1.98212e-17
      332.268   1.96923e-17
      332.371   1.95630e-17
      332.473   1.94356e-17
      332.575   1.93088e-17
      332.677   1.91828e-17
      332.780   1.90563e-17
      332.882   1.89317e-17
      332.985   1.88066e-17
      333.087   1.86834e-17
      333.190   1.85597e-17
      333.292   1.84354e-17
      333.395   1.83042e-17
      333.497   1.81726e-17
      333.600   1.80406e-17
      333.702   1.79107e-17
      333.805   1.77803e-17
      333.908   1.76508e-17
      334.011   1.75221e-17
      334.113   1.73954e-17
      334.216   1.72683e-17
      334.319   1.71421e-17
      334.422   1.70165e-17
      334.525   1.68918e-17
      334.628   1.67679e-17
      334.731   1.66448e-17
      334.834   1.65226e-17
      334.937   1.64011e-17
      335.040   1.62803e-17
      335.143   1.61604e-17
      335.246   1.60412e-17
      335.349   1.59227e-17
      335.452   1.58050e-17
      335.555   1.56881e-17
      335.659   1.55709e-17
      335.762   1.54556e-17
      335.865   1.53410e-17
      335.969   1.52261e-17
      336.072   1.51128e-17
      336.175   1.50005e-17
      336.279   1.48878e-17
      336.382   1.47769e-17
      336.486   1.46656e-17
      336.589   1.45561e-17
      336.693   1.44464e-17
      336.796   1.43385e-17
      336.900   1.42302e-17
      337.004   1.41226e-17
      337.107   1.40167e-17
      337.211   1.39106e-17
      337.315   1.38053e-17
      337.419   1.37006e-17
      337.523   1.35965e-17
      337.626   1.34942e-17
      337.730   1.33918e-17
      337.834   1.32898e-17
      337.938   1.31887e-17
      338.042   1.30886e-17
      338.146   1.29906e-17
      338.250   1.28934e-17
      338.354   1.27968e-17
      338.458   1.27009e-17
      338.562   1.26056e-17
      338.667   1.25101e-17
      338.771   1.24161e-17
      338.875   1.23228e-17
      338.979   1.22301e-17
      339.084   1.21372e-17
      339.188   1.20458e-17
      339.292   1.19551e-17
      339.397   1.18641e-17
      339.501   1.17747e-17
      339.606   1.16850e-17
      339.710   1.15967e-17
      339.815   1.15083e-17
      339.919   1.14214e-17
      340.024   1.13341e-17
      340.128   1.12485e-17
      340.233   1.11625e-17
      340.338   1.10772e-17
      340.442   1.09933e-17
      340.547   1.09092e-17
      340.652   1.08258e-17
      340.757   1.07429e-17
      340.862   1.06606e-17
      340.966   1.05797e-17
      341.071   1.04986e-17
      341.176   1.04181e-17
      341.281   1.03382e-17
      341.386   1.02590e-17
      341.491   1.01802e-17
      341.596   1.01022e-17
      341.702   1.00239e-17
      341.807   9.94692e-18
      341.912   9.87057e-18
      342.017   9.79482e-18
      342.122   9.71956e-18
      342.228   9.64417e-18
      342.333   9.57008e-18
      342.438   9.49655e-18
      342.544   9.42293e-18
      342.649   9.35046e-18
      342.754   9.27869e-18
      342.860   9.20665e-18
      342.965   9.13585e-18
      343.071   9.06504e-18
      343.176   8.99537e-18
      343.282   8.92556e-18
      343.388   8.85635e-18
      343.493   8.78880e-18
      343.599   8.72530e-18
      343.705   8.66279e-18
      343.810   8.60119e-18
      343.916   8.53950e-18
      344.022   8.47834e-18
      344.128   8.41755e-18
      344.234   8.35719e-18
      344.340   8.29735e-18
      344.446   8.23784e-18
      344.552   8.17883e-18
      344.658   8.12035e-18
      344.764   8.06222e-18
      344.870   8.00452e-18
      344.976   7.94726e-18
      345.082   7.89042e-18
      345.188   7.83405e-18
      345.294   7.77804e-18
      345.401   7.72195e-18
      345.507   7.66681e-18
      345.613   7.61209e-18
      345.719   7.55778e-18
      345.826   7.50339e-18
      345.932   7.44988e-18
      346.039   7.39632e-18
      346.145   7.34360e-18
      346.252   7.29085e-18
      346.358   7.23899e-18
      346.465   7.18701e-18
      346.571   7.13592e-18
      346.678   7.08474e-18
      346.785   7.03395e-18
      346.891   6.98402e-18
      346.998   6.93403e-18
      347.105   6.88446e-18
      347.212   6.83521e-18
      347.319   6.78638e-18
      347.425   6.73831e-18
      347.532   6.69021e-18
      347.639   6.64251e-18
      347.746   6.59513e-18
      347.853   6.54818e-18
      347.960   6.50152e-18
      348.067   6.45531e-18
      348.174   6.40947e-18
      348.281   6.36387e-18
      348.389   6.31831e-18
      348.496   6.27342e-18
      348.603   6.22900e-18
      348.710   6.18483e-18
      348.818   6.14069e-18
      348.925   6.09721e-18
      349.032   6.05414e-18
      349.140   6.01089e-18
      349.247   5.96837e-18
      349.355   5.92587e-18
      349.462   5.88403e-18
      349.570   5.84209e-18
      349.677   5.80092e-18
      349.785   5.75966e-18
      349.892   5.71913e-18
      350.000   5.67856e-18
      350.100   5.64126e-18
      350.193   5.60684e-18
      350.287   5.57226e-18
      350.380   5.53825e-18
      350.473   5.50452e-18
      350.567   5.47062e-18
      350.660   5.43734e-18
      350.754   5.40391e-18
      350.847   5.37111e-18
      350.941   5.33814e-18
      351.034   5.30573e-18
      351.128   5.27323e-18
      351.221   5.24127e-18
      351.315   5.20923e-18
      351.409   5.17734e-18
      351.502   5.14605e-18
      351.596   5.11460e-18
      351.690   5.08338e-18
      351.783   5.05272e-18
      351.877   5.02197e-18
      351.971   4.99136e-18
      352.065   4.96099e-18
      352.159   4.93084e-18
      352.252   4.90119e-18
      352.346   4.87141e-18
      352.440   4.84184e-18
      352.534   4.81251e-18
      352.628   4.78337e-18
      352.722   4.75439e-18
      352.816   4.72561e-18
      352.910   4.69705e-18
      353.004   4.66867e-18
      353.098   4.64047e-18
      353.192   4.61245e-18
      353.287   4.58436e-18
      353.381   4.55673e-18
      353.475   4.52930e-18
      353.569   4.50201e-18
      353.663   4.47493e-18
      353.758   4.44778e-18
      353.852   4.42108e-18
      353.946   4.39455e-18
      354.041   4.36789e-18
      354.135   4.34171e-18
      354.229   4.31568e-18
      354.324   4.28960e-18
      354.418   4.26390e-18
      354.513   4.23812e-18
      354.607   4.21284e-18
      354.702   4.18731e-18
      354.796   4.16196e-18
      354.891   4.13646e-18
      354.985   4.11142e-18
      355.080   4.08626e-18
      355.175   4.06129e-18
      355.269   4.03671e-18
      355.364   4.01205e-18
      355.459   3.98756e-18
      355.553   3.96349e-18
      355.648   3.93931e-18
      355.743   3.91531e-18
      355.838   3.89143e-18
      355.933   3.86775e-18
      356.027   3.84446e-18
      356.122   3.82106e-18
      356.217   3.79781e-18
      356.312   3.77474e-18
      356.407   3.75179e-18
      356.502   3.72901e-18
      356.597   3.70634e-18
      356.692   3.68387e-18
      356.787   3.66152e-18
      356.882   3.63930e-18
      356.977   3.61724e-18
      357.073   3.59510e-18
      357.168   3.57330e-18
      357.263   3.55165e-18
      357.358   3.53015e-18
      357.453   3.50879e-18
      357.549   3.48734e-18
      357.644   3.46624e-18
      357.739   3.44528e-18
      357.835   3.42424e-18
      357.930   3.40355e-18
      358.025   3.38297e-18
      358.121   3.36231e-18
      358.216   3.34200e-18
      358.312   3.32159e-18
      358.407   3.30154e-18
      358.503   3.28140e-18
      358.598   3.26161e-18
      358.694   3.24172e-18
      358.790   3.22195e-18
      358.885   3.20250e-18
      358.981   3.18298e-18
      359.076   3.16377e-18
      359.172   3.14451e-18
      359.268   3.12532e-18
      359.364   3.10627e-18
      359.459   3.08755e-18
      359.555   3.06875e-18
      359.651   3.05004e-18
      359.747   3.03145e-18
      359.843   3.01298e-18
      359.939   2.99461e-18
      360.035   2.97637e-18
      360.131   2.95823e-18
      360.227   2.94020e-18
      360.323   2.92229e-18
      360.419   2.90448e-18
      360.515   2.88679e-18
      360.611   2.86919e-18
      360.707   2.85168e-18
      360.803   2.83430e-18
      360.899   2.81701e-18
      360.995   2.79985e-18
      361.092   2.78259e-18
      361.188   2.76561e-18
      361.284   2.74874e-18
      361.380   2.73197e-18
      361.477   2.71511e-18
      361.573   2.69854e-18
      361.669   2.68206e-18
      361.766   2.66549e-18
      361.862   2.64920e-18
      361.959   2.63285e-18
      362.055   2.61672e-18
      362.152   2.60056e-18
      362.248   2.58464e-18
      362.345   2.56864e-18
      362.441   2.55293e-18
      362.538   2.53713e-18
      362.635   2.52143e-18
      362.731   2.50595e-18
      362.828   2.49041e-18
      362.925   2.47497e-18
      363.021   2.45978e-18
      363.118   2.44452e-18
      363.215   2.42933e-18
      363.312   2.41423e-18
      363.409   2.39923e-18
      363.505   2.38446e-18
      363.602   2.36962e-18
      363.699   2.35488e-18
      363.796   2.34021e-18
      363.893   2.32562e-18
      363.990   2.31112e-18
      364.087   2.29669e-18
      364.184   2.28236e-18
      364.281   2.26810e-18
      364.378   2.25393e-18
      364.475   2.23983e-18
      364.573   2.22566e-18
      364.670   2.21171e-18
      364.767   2.19786e-18
      364.864   2.18408e-18
      364.961   2.17037e-18
      365.059   2.15660e-18
      365.156   2.14306e-18
      365.253   2.12958e-18
      365.351   2.11604e-18
      365.448   2.10271e-18
      365.545   2.08947e-18
      365.643   2.07615e-18
      365.740   2.06304e-18
      365.838   2.04988e-18
      365.935   2.03692e-18
      366.033   2.02392e-18
      366.130   2.01110e-18
      366.228   1.99823e-18
      366.326   1.98543e-18
      366.423   1.97283e-18
      366.521   1.96017e-18
      366.618   1.94771e-18
      366.716   1.93519e-18
      366.814   1.92274e-18
      366.912   1.91037e-18
      367.010   1.89806e-18
      367.107   1.88595e-18
      367.205   1.87378e-18
      367.303   1.86167e-18
      367.401   1.84963e-18
      367.499   1.83766e-18
      367.597   1.82576e-18
      367.695   1.81392e-18
      367.793   1.80216e-18
      367.891   1.79046e-18
      367.989   1.77883e-18
      368.087   1.76726e-18
      368.185   1.75575e-18
      368.283   1.74430e-18
      368.381   1.73292e-18
      368.480   1.72149e-18
      368.578   1.71024e-18
      368.676   1.69906e-18
      368.774   1.68795e-18
      368.873   1.67678e-18
      368.971   1.66578e-18
      369.069   1.65486e-18
      369.168   1.64387e-18
      369.266   1.63305e-18
      369.364   1.62230e-18
      369.463   1.61152e-18
      369.561   1.60089e-18
      369.660   1.59022e-18
      369.758   1.57971e-18
      369.857   1.56917e-18
      369.955   1.55879e-18
      370.054   1.54836e-18
      370.153   1.53798e-18
      370.251   1.52778e-18
      370.350   1.51754e-18
      370.449   1.50735e-18
      370.547   1.49733e-18
      370.646   1.48725e-18
      370.745   1.47724e-18
      370.844   1.46728e-18
      370.943   1.45739e-18
      371.041   1.44766e-18
      371.140   1.43787e-18
      371.239   1.42815e-18
      371.338   1.41849e-18
      371.437   1.40888e-18
      371.536   1.39933e-18
      371.635   1.38983e-18
      371.734   1.38040e-18
      371.833   1.37102e-18
      371.932   1.36170e-18
      372.032   1.35234e-18
      372.131   1.34312e-18
      372.230   1.33397e-18
      372.329   1.32487e-18
      372.428   1.31583e-18
      372.528   1.30675e-18
      372.627   1.29783e-18
      372.726   1.28895e-18
      372.826   1.28004e-18
      372.925   1.27128e-18
      373.024   1.26256e-18
      373.124   1.25380e-18
      373.223   1.24520e-18
      373.323   1.23656e-18
      373.422   1.22806e-18
      373.522   1.21952e-18
      373.621   1.21113e-18
      373.721   1.20270e-18
      373.820   1.19441e-18
      373.920   1.18608e-18
      374.020   1.17781e-18
      374.119   1.16967e-18
      374.219   1.16149e-18
      374.319   1.15338e-18
      374.419   1.14532e-18
      374.518   1.13738e-18
      374.618   1.12942e-18
      374.718   1.12150e-18
      374.818   1.11364e-18
      374.918   1.10583e-18
      375.018   1.09806e-18
      375.118   1.09035e-18
      375.218   1.08269e-18
      375.318   1.07508e-18
      375.418   1.06751e-18
      375.518   1.06000e-18
      375.618   1.05254e-18
      375.718   1.04511e-18
      375.818   1.03774e-18
      375.918   1.03042e-18
      376.019   1.02308e-18
      376.119   1.01586e-18
      376.219   1.00868e-18
      376.319   1.00155e-18
      376.420   9.94402e-19
      376.520   9.87365e-19
      376.620   9.80380e-19
      376.721   9.73369e-19
      376.821   9.66475e-19
      376.922   9.59558e-19
      377.022   9.52754e-19
      377.122   9.46003e-19
      377.223   9.39228e-19
      377.323   9.32564e-19
      377.424   9.25879e-19
      377.525   9.19243e-19
      377.625   9.12712e-19
      377.726   9.06163e-19
      377.827   8.99663e-19
      377.927   8.93266e-19
      378.028   8.86854e-19
      378.129   8.80485e-19
      378.230   8.75141e-19
      378.330   8.71383e-19
      378.431   8.67854e-19
      378.532   8.64343e-19
      378.633   8.60838e-19
      378.734   8.57350e-19
      378.835   8.53874e-19
      378.936   8.50411e-19
      379.037   8.46958e-19
      379.138   8.43513e-19
      379.239   8.40085e-19
      379.340   8.36676e-19
      379.441   8.33277e-19
      379.542   8.29887e-19
      379.643   8.26512e-19
      379.745   8.23116e-19
      379.846   8.19767e-19
      379.947   8.16424e-19
      380.048   8.13100e-19
      380.150   8.09757e-19
      380.251   8.06457e-19
      380.352   8.03173e-19
      380.454   7.99870e-19
      380.555   7.96609e-19
      380.656   7.93358e-19
      380.758   7.90092e-19
      380.859   7.86869e-19
      380.961   7.83631e-19
      381.062   7.80435e-19
      381.164   7.77222e-19
      381.266   7.74022e-19
      381.367   7.70866e-19
      381.469   7.67694e-19
      381.570   7.64566e-19
      381.672   7.61417e-19
      381.774   7.58283e-19
      381.876   7.55162e-19
      381.977   7.52087e-19
      382.079   7.48992e-19
      382.181   7.45911e-19
      382.283   7.42846e-19
      382.385   7.39792e-19
      382.487   7.36752e-19
      382.589   7.33725e-19
      382.691   7.30709e-19
      382.793   7.27710e-19
      382.895   7.24724e-19
      382.997   7.21752e-19
      383.099   7.18791e-19
      383.201   7.15843e-19
      383.303   7.12912e-19
      383.405   7.09988e-19
      383.507   7.07076e-19
      383.610   7.04155e-19
      383.712   7.01273e-19
      383.814   6.98406e-19
      383.916   6.95555e-19
      384.019   6.92685e-19
      384.121   6.89857e-19
      384.223   6.87038e-19
      384.326   6.84329e-19
      384.428   6.81954e-19
      384.531   6.79655e-19
      384.633   6.77389e-19
      384.736   6.75109e-19
      384.838   6.72856e-19
      384.941   6.70594e-19
      385.043   6.68362e-19
      385.146   6.66122e-19
      385.249   6.63886e-19
      385.351   6.61681e-19
      385.454   6.59467e-19
      385.557   6.57260e-19
      385.660   6.55064e-19
      385.762   6.52898e-19
      385.865   6.50720e-19
      385.968   6.48549e-19
      386.071   6.46389e-19
      386.174   6.44237e-19
      386.277   6.42095e-19
      386.380   6.39961e-19
      386.483   6.37835e-19
      386.586   6.35725e-19
      386.689   6.33620e-19
      386.792   6.31523e-19
      386.895   6.29435e-19
      386.998   6.27358e-19
      387.101   6.25287e-19
      387.204   6.23222e-19
      387.308   6.21153e-19
      387.411   6.19111e-19
      387.514   6.17077e-19
      387.617   6.15051e-19
      387.721   6.13016e-19
      387.824   6.11010e-19
      387.927   6.09010e-19
      388.031   6.07001e-19
      388.134   6.05019e-19
      388.238   6.03029e-19
      388.341   6.01065e-19
      388.445   5.99093e-19
      388.548   5.97144e-19
      388.652   5.95192e-19
      388.755   5.93263e-19
      388.859   5.91322e-19
      388.962   5.89410e-19
      389.066   5.87486e-19
      389.170   5.85574e-19
      389.274   5.83671e-19
      389.377   5.81796e-19
      389.481   5.79905e-19
      389.585   5.78026e-19
      389.689   5.76153e-19
      389.793   5.74291e-19
      389.897   5.72436e-19
      390.000   5.70609e-19
      390.104   5.68772e-19
      390.208   5.66940e-19
      390.312   5.65117e-19
      390.416   5.63298e-19
      390.520   5.61481e-19
      390.625   5.59657e-19
      390.729   5.57856e-19
      390.833   5.56064e-19
      390.937   5.54281e-19
      391.041   5.52505e-19
      391.145   5.50733e-19
      391.250   5.48957e-19
      391.354   5.47203e-19
      391.458   5.45456e-19
      391.563   5.43701e-19
      391.667   5.41971e-19
      391.771   5.40249e-19
      391.876   5.38518e-19
      391.980   5.36808e-19
      392.085   5.35092e-19
      392.189   5.33400e-19
      392.294   5.31698e-19
      392.398   5.30020e-19
      392.503   5.28333e-19
      392.607   5.26667e-19
      392.712   5.24997e-19
      392.817   5.23328e-19
      392.921   5.21689e-19
      393.026   5.20036e-19
      393.131   5.18393e-19
      393.236   5.16752e-19
      393.340   5.15140e-19
      393.445   5.13519e-19
      393.550   5.11901e-19
      393.655   5.10292e-19
      393.760   5.08689e-19
      393.865   5.07094e-19
      393.970   5.05504e-19
      394.075   5.03920e-19
      394.180   5.02347e-19
      394.285   5.00779e-19
      394.390   4.99213e-19
      394.495   4.97655e-19
      394.600   4.96106e-19
      394.706   4.94546e-19
      394.811   4.93011e-19
      394.916   4.91475e-19
      395.021   4.89949e-19
      395.126   4.88430e-19
      395.232   4.86902e-19
      395.337   4.85391e-19
      395.443   4.83877e-19
      395.548   4.82379e-19
      395.653   4.80887e-19
      395.759   4.79390e-19
      395.864   4.77913e-19
      395.970   4.76426e-19
      396.075   4.74958e-19
      396.181   4.73482e-19
      396.286   4.72022e-19
      396.392   4.70559e-19
      396.498   4.69102e-19
      396.603   4.67658e-19
      396.709   4.66207e-19
      396.815   4.64758e-19
      396.921   4.63317e-19
      397.026   4.61895e-19
      397.132   4.60466e-19
      397.238   4.59042e-19
      397.344   4.57621e-19
      397.450   4.56207e-19
      397.556   4.54795e-19
      397.662   4.53389e-19
      397.768   4.51989e-19
      397.874   4.50597e-19
      397.980   4.49202e-19
      398.086   4.47818e-19
      398.192   4.46434e-19
      398.298   4.45055e-19
      398.404   4.43686e-19
      398.510   4.42316e-19
      398.617   4.40939e-19
      398.723   4.39579e-19
      398.829   4.38223e-19
      398.935   4.36870e-19
      399.042   4.35514e-19
      399.148   4.34168e-19
      399.255   4.32817e-19
      399.361   4.31482e-19
      399.467   4.30149e-19
      399.574   4.28813e-19
      399.680   4.27488e-19
      399.787   4.26153e-19
      399.893       0.00000
      400.000       0.00000
