Filter Al-med
observation_date 2013-09-22 22:40:45
wavelength effective area
      1.00000   2.66385e-10
      1.10000   7.49525e-10
      1.20000   1.91514e-09
      1.30000   4.48763e-09
      1.40000   9.94642e-09
      1.50000   2.06563e-08
      1.60000   4.05601e-08
      1.70000   7.60803e-08
      1.80000   1.36314e-07
      1.90000   2.34795e-07
      2.00000   3.89510e-07
      2.10000   6.24959e-07
      2.20000   9.74201e-07
      2.30000   1.47333e-06
      2.40000   2.16538e-06
      2.50000   3.08218e-06
      2.60000   4.35736e-06
      2.70000   5.98556e-06
      2.80000   8.02281e-06
      2.90000   1.05766e-05
      3.00000   1.36505e-05
      3.10000   1.72898e-05
      3.20000   2.15291e-05
      3.30000   2.63719e-05
      3.40000   3.17742e-05
      3.50000   3.76853e-05
      3.60000   4.41735e-05
      3.70000   5.09438e-05
      3.80000   5.80907e-05
      3.90000   6.54428e-05
      4.00000   7.28038e-05
      4.10000   8.00817e-05
      4.20000   8.71806e-05
      4.30000   9.39834e-05
      4.40000   0.000100359
      4.50000   0.000106159
      4.60000   0.000111202
      4.70000   0.000115651
      4.80000   0.000119254
      4.90000   0.000120726
      5.00000   0.000124339
      5.10000   0.000125641
      5.20000   0.000126220
      5.30000   0.000125099
      5.40000   0.000122782
      5.50000   0.000119955
      5.60000   0.000112908
      5.70000   0.000111243
      5.80000   9.78382e-05
      5.90000   0.000111640
      6.00000   0.000111514
      6.10000   0.000105258
      6.20000   9.56453e-05
      6.30000   8.26356e-05
      6.40000   6.79098e-05
      6.50000   5.31979e-05
      6.60000   3.94935e-05
      6.70000   2.87725e-05
      6.80000   2.03623e-05
      6.90000   1.87146e-05
      7.00000   1.41999e-05
      7.10000   1.04121e-05
      7.20000   7.49152e-06
      7.30000   5.34213e-06
      7.40000   3.78247e-06
      7.50000   2.63483e-06
      7.60000   1.80311e-06
      7.70000   1.22961e-06
      7.80000   8.20263e-07
      7.90000   5.41977e-07
      8.00000      0.299149
      8.10000      0.315481
      8.20000      0.308457
      8.30000      0.299959
      8.40000      0.290904
      8.50000      0.281569
      8.60000      0.271917
      8.70000      0.262099
      8.80000      0.252091
      8.90000      0.241995
      9.00000      0.231869
      9.10000      0.221756
      9.20000      0.211699
      9.30000      0.201777
      9.40000      0.191988
      9.50000      0.182355
      9.60000      0.172963
      9.70000      0.163782
      9.80000      0.154798
      9.90000      0.146068
      10.0000      0.137594
      10.1000      0.129377
      10.2000      0.121431
      10.3000      0.113810
      10.4000      0.106522
      10.5000     0.0995406
      10.6000     0.0928693
      10.7000     0.0865077
      10.8000     0.0804679
      10.9000     0.0747608
      11.0000     0.0693505
      11.1000     0.0642331
      11.2000     0.0594009
      11.3000     0.0548489
      11.4000     0.0505676
      11.5000     0.0465475
      11.6000     0.0427804
      11.7000     0.0392702
      11.8000     0.0359972
      11.9000     0.0329743
      12.0000     0.0301446
      12.1000     0.0276322
      12.2000     0.0257579
      12.3000     0.0237015
      12.4000     0.0216034
      12.5000     0.0196475
      12.6000     0.0178361
      12.7000     0.0161640
      12.8000     0.0146255
      12.9000     0.0132136
      13.0000     0.0119202
      13.1000     0.0107371
      13.2000    0.00965692
      13.3000    0.00867215
      13.4000    0.00777607
      13.5000    0.00696411
      13.6000    0.00623471
      13.7000    0.00557373
      13.8000    0.00497543
      13.9000    0.00443478
      14.0000    0.00394680
      14.1000    0.00350680
      14.2000    0.00311060
      14.3000    0.00275438
      14.4000    0.00243461
      14.5000    0.00214997
      14.6000    0.00189819
      14.7000    0.00167290
      14.8000    0.00147152
      14.9000    0.00129175
      15.0000    0.00113154
      15.1000   0.000988984
      15.2000   0.000865328
      15.3000   0.000755995
      15.4000   0.000658949
      15.5000   0.000572958
      15.6000   0.000496927
      15.7000   0.000430919
      15.8000   0.000373980
      15.9000   0.000323755
      16.0000   0.000279543
      16.1000   0.000240718
      16.2000   0.000207847
      16.3000   0.000179267
      16.4000   0.000154111
      16.5000   0.000132026
      16.6000   0.000113148
      16.7000   9.70903e-05
      16.8000   8.29747e-05
      16.9000   7.06122e-05
      17.0000   6.01533e-05
      17.1000   5.13023e-05
      17.2000   4.35397e-05
      17.3000   3.67706e-05
      17.4000   3.12719e-05
      17.5000   2.65817e-05
      17.6000   2.25139e-05
      17.7000   1.90793e-05
      17.8000   1.63113e-05
      17.9000   1.38688e-05
      18.0000   1.17163e-05
      18.1000   9.96469e-06
      18.2000   8.41685e-06
      18.3000   7.04314e-06
      18.4000   5.89824e-06
      18.5000   4.91587e-06
      18.6000   4.04782e-06
      18.7000   3.32780e-06
      18.8000   2.73528e-06
      18.9000   2.22289e-06
      19.0000   1.81673e-06
      19.1000   1.48535e-06
      19.2000   1.20011e-06
      19.3000   9.80544e-07
      19.4000   7.99111e-07
      19.5000   6.43202e-07
      19.6000   5.27512e-07
      19.7000   4.28627e-07
      19.8000   3.44634e-07
      19.9000   2.82927e-07
      20.0000   2.28516e-07
      20.1000   1.84626e-07
      20.2000   1.50141e-07
      20.3000   1.19963e-07
      20.4000   9.73525e-08
      20.5000   7.82245e-08
      20.6000   6.21996e-08
      20.7000   5.03655e-08
      20.8000   3.98885e-08
      20.9000   3.19917e-08
      21.0000   2.54888e-08
      21.1000   2.00326e-08
      21.2000   1.60926e-08
      21.3000   1.25857e-08
      21.4000   1.00313e-08
      21.5000   7.89033e-09
      21.6000   6.16788e-09
      21.7000   4.88808e-09
      21.8000   3.75612e-09
      21.9000   2.99388e-09
      22.0000   2.31054e-09
      22.1000   1.80947e-09
      22.2000   1.40097e-09
      22.3000   1.07289e-09
      22.4000   8.23744e-10
      22.5000   6.00364e-10
      22.6000   4.30919e-10
      22.7000   2.90456e-10
      22.8000   2.78050e-10
      22.9000   2.74454e-10
      23.0000   2.78405e-10
      23.1000   2.58800e-10
      23.2000   2.17517e-10
      23.3000   1.77179e-10
      23.4000   1.37403e-10
      23.5000   1.08930e-10
      23.6000   8.32769e-11
      23.7000   6.61214e-11
      23.8000   4.99116e-11
      23.9000   3.96276e-11
      24.0000   2.98823e-11
      24.1000   2.35291e-11
      24.2000   1.77068e-11
      24.3000   1.38504e-11
      24.4000   1.04161e-11
      24.5000   8.10464e-12
      24.6000   6.09181e-12
      24.7000   4.71807e-12
      24.8000   3.54310e-12
      24.9000   2.73958e-12
      25.0000   2.05679e-12
      25.1000   1.58573e-12
      25.2000   1.18664e-12
      25.3000   9.14335e-13
      25.4000   6.81846e-13
      25.5000   5.24851e-13
      25.6000   3.88980e-13
      25.7000   2.99534e-13
      25.8000   2.20377e-13
      25.9000   1.69907e-13
      26.0000   1.23883e-13
      26.1000   9.57356e-14
      26.2000   6.90790e-14
      26.3000   5.35632e-14
      26.4000   3.81931e-14
      26.5000   2.97413e-14
      26.6000   2.13305e-14
      26.7000   1.63799e-14
      26.8000   1.18582e-14
      26.9000   8.94556e-15
      27.0000   6.54409e-15
      27.1000   4.84008e-15
      27.2000   3.58005e-15
      27.3000   2.59507e-15
      27.4000   1.95130e-15
      27.5000   1.38929e-15
      27.6000   1.05467e-15
      27.7000   7.30869e-16
      27.8000   5.61474e-16
      27.9000   3.92893e-16
      28.0000   2.95210e-16
      28.1000   2.11639e-16
      28.2000   1.53940e-16
      28.3000   1.13525e-16
      28.4000   8.02819e-17
      28.5000   6.05008e-17
      28.6000   4.15368e-17
      28.7000   3.22423e-17
      28.8000   2.29934e-17
      28.9000   1.73359e-17
      29.0000   1.27165e-17
      29.1000   9.19736e-18
      29.2000   6.91973e-18
      29.3000   4.81287e-18
      29.4000   3.70419e-18
      29.5000   2.60105e-18
      29.6000   1.95034e-18
      29.7000   1.42049e-18
      29.8000   1.00993e-18
      29.9000   7.58856e-19
      30.0000   5.14263e-19
      30.1000   3.96910e-19
      30.2000   2.80145e-19
      30.3000   2.05251e-19
      30.4000   1.54372e-19
      30.5000   1.08914e-19
      30.6000   8.28781e-20
      30.7000   5.69735e-20
      30.8000   4.20311e-20
      30.9000   3.04179e-20
      31.0000   2.08173e-20
      31.1000   1.56872e-20
      31.2000   1.05831e-20
      31.3000   7.84741e-21
      31.4000   5.62651e-21
      31.5000   3.81860e-21
      31.6000   2.86689e-21
      31.7000   1.92005e-21
      31.8000   1.40952e-21
      31.9000   1.01001e-21
      32.0000   6.71521e-22
      32.1000   5.05582e-22
      32.2000   3.40489e-22
      32.3000   2.43059e-22
      32.4000   1.75611e-22
      32.5000   1.12878e-22
      32.6000   8.57826e-23
      32.7000   5.88241e-23
      32.8000   4.01349e-23
      32.9000   2.94732e-23
      33.0000   1.88664e-23
      33.1000   1.39556e-23
      33.2000   9.83331e-24
      33.3000   6.32056e-24
      33.4000   4.74425e-24
      33.5000   3.17581e-24
      33.6000   2.16373e-24
      33.7000   1.57445e-24
      33.8000   9.88054e-25
      33.9000   7.25900e-25
      34.0000   5.09458e-25
      34.1000   3.16842e-25
      34.2000   2.37326e-25
      34.3000   1.58173e-25
      34.4000   1.01703e-25
      34.5000   7.42916e-26
      34.6000   4.70079e-26
      34.7000   3.17514e-26
      34.8000   2.21004e-26
      34.9000   1.24936e-26
      35.0000   8.93562e-27
      35.1000   6.01470e-27
      35.2000   3.32652e-27
      35.3000   2.45973e-27
      35.4000   1.59694e-27
      35.5000   9.12480e-28
      35.6000   6.62685e-28
      35.7000   4.14040e-28
      35.8000   2.45028e-28
      35.9000   1.74838e-28
      36.0000   1.04971e-28
      36.1000   6.44305e-29
      36.2000   4.52080e-29
      36.3000   2.60742e-29
      36.4000   1.65932e-29
      36.5000   1.14645e-29
      36.6000   6.35998e-30
      36.7000   4.18489e-30
      36.8000   2.85338e-30
      36.9000   1.52813e-30
      37.0000   1.03404e-30
      37.1000   6.97685e-31
      37.2000   3.62892e-31
      37.3000   2.50318e-31
      37.4000   1.67682e-31
      37.5000   8.54351e-32
      37.6000   5.93568e-32
      37.7000   3.96271e-32
      37.8000   1.99904e-32
      37.9000   1.37843e-32
      38.0000   9.20772e-33
      38.1000   4.65261e-33
      38.2000   3.13281e-33
      38.3000   2.10211e-33
      38.4000   1.07623e-33
      38.5000   6.96144e-34
      38.6000   4.70994e-34
      38.7000   2.46900e-34
      38.8000   1.51130e-34
      38.9000   1.03442e-34
      39.0000   5.59761e-35
      39.1000   3.20189e-35
      39.2000   2.22312e-35
      39.3000   1.24891e-35
      39.4000   6.61160e-36
      39.5000   4.66613e-36
      39.6000   2.72991e-36
      39.7000   1.32881e-36
      39.8000   9.54619e-37
      39.9000   5.82184e-37
      40.0000   2.59589e-37
      40.1000   1.89980e-37
      40.2000   1.20697e-37
      40.3000   5.17483e-38
      40.4000   3.67064e-38
      40.5000   2.42500e-38
      40.6000   1.18518e-38
      40.7000   6.87245e-39
      40.8000   4.70910e-39
      40.9000   2.55608e-39
      41.0000   1.24434e-39
      41.1000   8.81874e-40
      41.2000   5.21146e-40
      41.3000   2.17602e-40
      41.4000   1.59045e-40
      41.5000   1.00756e-40
      41.6000   4.27424e-41
      41.7000   2.75888e-41
      41.8000   1.85112e-41
      41.9000   9.47558e-42
      42.0000   4.60046e-42
      42.1000   3.23700e-42
      42.2000   1.88194e-42
      42.3000   7.34280e-43
      42.4000   5.36697e-43
      42.5000   3.44719e-43
      42.6000   1.49939e-43
      42.7000   8.68805e-44
      42.8000   5.74532e-44
      42.9000   2.94273e-44
      43.0000   1.26117e-44
      43.1000   9.80909e-45
      43.2000   7.00649e-45
      43.3000       0.00000
      43.4000   2.80260e-45
      43.5000   2.80260e-45
      43.6000   2.80260e-45
      43.7000       0.00000
      43.8000       0.00000
      43.9000       0.00000
      44.0000       0.00000
      44.1000       0.00000
      44.2000       0.00000
      44.3000       0.00000
      44.4000       0.00000
      44.5000       0.00000
      44.6000       0.00000
      44.7000       0.00000
      44.8000       0.00000
      44.9000       0.00000
      45.0000       0.00000
      45.1000       0.00000
      45.2000       0.00000
      45.3000       0.00000
      45.4000       0.00000
      45.5000       0.00000
      45.6000       0.00000
      45.7000       0.00000
      45.8000       0.00000
      45.9000       0.00000
      46.0000       0.00000
      46.1000       0.00000
      46.2000       0.00000
      46.3000       0.00000
      46.4000       0.00000
      46.5000       0.00000
      46.6000       0.00000
      46.7000       0.00000
      46.8000       0.00000
      46.9000       0.00000
      47.0000       0.00000
      47.1000       0.00000
      47.2000       0.00000
      47.3000       0.00000
      47.4000       0.00000
      47.5000       0.00000
      47.6000       0.00000
      47.7000       0.00000
      47.8000       0.00000
      47.9000       0.00000
      48.0000       0.00000
      48.1000       0.00000
      48.2000       0.00000
      48.3000       0.00000
      48.4000       0.00000
      48.5000       0.00000
      48.6000       0.00000
      48.7000       0.00000
      48.8000       0.00000
      48.9000       0.00000
      49.0000       0.00000
      49.1000       0.00000
      49.2000       0.00000
      49.3000       0.00000
      49.4000       0.00000
      49.5000       0.00000
      49.6000       0.00000
      49.7000       0.00000
      49.8000       0.00000
      49.9000       0.00000
      50.0000       0.00000
      50.1000       0.00000
      50.2000       0.00000
      50.3000       0.00000
      50.4000       0.00000
      50.5000       0.00000
      50.6000       0.00000
      50.7000       0.00000
      50.8000       0.00000
      50.9000       0.00000
      51.0000       0.00000
      51.1000       0.00000
      51.2000       0.00000
      51.3000       0.00000
      51.4000       0.00000
      51.5000       0.00000
      51.6000       0.00000
      51.7000       0.00000
      51.8000       0.00000
      51.9000       0.00000
      52.0000       0.00000
      52.1000       0.00000
      52.2000       0.00000
      52.3000       0.00000
      52.4000       0.00000
      52.5000       0.00000
      52.6000       0.00000
      52.7000       0.00000
      52.8000       0.00000
      52.9000       0.00000
      53.0000       0.00000
      53.1000       0.00000
      53.2000       0.00000
      53.3000       0.00000
      53.4000       0.00000
      53.5000       0.00000
      53.6000       0.00000
      53.7000       0.00000
      53.8000       0.00000
      53.9000       0.00000
      54.0000       0.00000
      54.1000       0.00000
      54.2000       0.00000
      54.3000       0.00000
      54.4000       0.00000
      54.5000       0.00000
      54.6000       0.00000
      54.7000       0.00000
      54.8000       0.00000
      54.9000       0.00000
      55.0000       0.00000
      55.1000       0.00000
      55.2000       0.00000
      55.3000       0.00000
      55.4000       0.00000
      55.5000       0.00000
      55.6000       0.00000
      55.7000       0.00000
      55.8000       0.00000
      55.9000       0.00000
      56.0000       0.00000
      56.1000       0.00000
      56.2000       0.00000
      56.3000       0.00000
      56.4000       0.00000
      56.5000       0.00000
      56.6000       0.00000
      56.7000       0.00000
      56.8000       0.00000
      56.9000       0.00000
      57.0000       0.00000
      57.1000       0.00000
      57.2000       0.00000
      57.3000       0.00000
      57.4000       0.00000
      57.5000       0.00000
      57.6000       0.00000
      57.7000       0.00000
      57.8000       0.00000
      57.9000       0.00000
      58.0000       0.00000
      58.1000       0.00000
      58.2000       0.00000
      58.3000       0.00000
      58.4000       0.00000
      58.5000       0.00000
      58.6000       0.00000
      58.7000       0.00000
      58.8000       0.00000
      58.9000       0.00000
      59.0000       0.00000
      59.1000       0.00000
      59.2000       0.00000
      59.3000       0.00000
      59.4000       0.00000
      59.5000       0.00000
      59.6000       0.00000
      59.7000       0.00000
      59.8000       0.00000
      59.9000       0.00000
      60.0000       0.00000
      60.1000       0.00000
      60.2000       0.00000
      60.3000       0.00000
      60.4000       0.00000
      60.5000       0.00000
      60.6000       0.00000
      60.7000       0.00000
      60.8000       0.00000
      60.9000       0.00000
      61.0000       0.00000
      61.1000       0.00000
      61.2000       0.00000
      61.3000       0.00000
      61.4000       0.00000
      61.5000       0.00000
      61.6000       0.00000
      61.7000       0.00000
      61.8000       0.00000
      61.9000       0.00000
      62.0000       0.00000
      62.1000       0.00000
      62.2000       0.00000
      62.3000       0.00000
      62.4000       0.00000
      62.5000       0.00000
      62.6000       0.00000
      62.7000       0.00000
      62.8000       0.00000
      62.9000       0.00000
      63.0000       0.00000
      63.1000       0.00000
      63.2000       0.00000
      63.3000       0.00000
      63.4000       0.00000
      63.5000       0.00000
      63.6000       0.00000
      63.7000       0.00000
      63.8000       0.00000
      63.9000       0.00000
      64.0000       0.00000
      64.1000       0.00000
      64.2000       0.00000
      64.3000       0.00000
      64.4000       0.00000
      64.5000       0.00000
      64.6000       0.00000
      64.7000       0.00000
      64.8000       0.00000
      64.9000       0.00000
      65.0000       0.00000
      65.1000       0.00000
      65.2000       0.00000
      65.3000       0.00000
      65.4000       0.00000
      65.5000       0.00000
      65.6000       0.00000
      65.7000       0.00000
      65.8000       0.00000
      65.9000       0.00000
      66.0000       0.00000
      66.1000       0.00000
      66.2000       0.00000
      66.3000       0.00000
      66.4000       0.00000
      66.5000       0.00000
      66.6000       0.00000
      66.7000       0.00000
      66.8000       0.00000
      66.9000       0.00000
      67.0000       0.00000
      67.1000       0.00000
      67.2000       0.00000
      67.3000       0.00000
      67.4000       0.00000
      67.5000       0.00000
      67.6000       0.00000
      67.7000       0.00000
      67.8000       0.00000
      67.9000       0.00000
      68.0000       0.00000
      68.1000       0.00000
      68.2000       0.00000
      68.3000       0.00000
      68.4000       0.00000
      68.5000       0.00000
      68.6000       0.00000
      68.7000       0.00000
      68.8000       0.00000
      68.9000       0.00000
      69.0000       0.00000
      69.1000       0.00000
      69.2000       0.00000
      69.3000       0.00000
      69.4000       0.00000
      69.5000       0.00000
      69.6000       0.00000
      69.7000       0.00000
      69.8000       0.00000
      69.9000       0.00000
      70.0000       0.00000
      70.1000       0.00000
      70.2000       0.00000
      70.3000       0.00000
      70.4000       0.00000
      70.5000       0.00000
      70.6000       0.00000
      70.7000       0.00000
      70.8000       0.00000
      70.9000       0.00000
      71.0000       0.00000
      71.1000       0.00000
      71.2000       0.00000
      71.3000       0.00000
      71.4000       0.00000
      71.5000       0.00000
      71.6000       0.00000
      71.7000       0.00000
      71.8000       0.00000
      71.9000       0.00000
      72.0000       0.00000
      72.1000       0.00000
      72.2000       0.00000
      72.3000       0.00000
      72.4000       0.00000
      72.5000       0.00000
      72.6000       0.00000
      72.7000       0.00000
      72.8000       0.00000
      72.9000       0.00000
      73.0000       0.00000
      73.1000       0.00000
      73.2000       0.00000
      73.3000       0.00000
      73.4000       0.00000
      73.5000       0.00000
      73.6000       0.00000
      73.7000       0.00000
      73.8000       0.00000
      73.9000       0.00000
      74.0000       0.00000
      74.1000       0.00000
      74.2000       0.00000
      74.3000       0.00000
      74.4000       0.00000
      74.5000       0.00000
      74.6000       0.00000
      74.7000       0.00000
      74.8000       0.00000
      74.9000       0.00000
      75.0000       0.00000
      75.1000       0.00000
      75.2000       0.00000
      75.3000       0.00000
      75.4000       0.00000
      75.5000       0.00000
      75.6000       0.00000
      75.7000       0.00000
      75.8000       0.00000
      75.9000       0.00000
      76.0000       0.00000
      76.1000       0.00000
      76.2000       0.00000
      76.3000       0.00000
      76.4000       0.00000
      76.5000       0.00000
      76.6000       0.00000
      76.7000       0.00000
      76.8000       0.00000
      76.9000       0.00000
      77.0000       0.00000
      77.1000       0.00000
      77.2000       0.00000
      77.3000       0.00000
      77.4000       0.00000
      77.5000       0.00000
      77.6000       0.00000
      77.7000       0.00000
      77.8000       0.00000
      77.9000       0.00000
      78.0000       0.00000
      78.1000       0.00000
      78.2000       0.00000
      78.3000       0.00000
      78.4000       0.00000
      78.5000       0.00000
      78.6000       0.00000
      78.7000       0.00000
      78.8000       0.00000
      78.9000       0.00000
      79.0000       0.00000
      79.1000       0.00000
      79.2000       0.00000
      79.3000       0.00000
      79.4000       0.00000
      79.5000       0.00000
      79.6000       0.00000
      79.7000       0.00000
      79.8000       0.00000
      79.9000       0.00000
      80.0000       0.00000
      80.1000       0.00000
      80.2000       0.00000
      80.3000       0.00000
      80.4000       0.00000
      80.5000       0.00000
      80.6000       0.00000
      80.7000       0.00000
      80.8000       0.00000
      80.9000       0.00000
      81.0000       0.00000
      81.1000       0.00000
      81.2000       0.00000
      81.3000       0.00000
      81.4000       0.00000
      81.5000       0.00000
      81.6000       0.00000
      81.7000       0.00000
      81.8000       0.00000
      81.9000       0.00000
      82.0000       0.00000
      82.1000       0.00000
      82.2000       0.00000
      82.3000       0.00000
      82.4000       0.00000
      82.5000       0.00000
      82.6000       0.00000
      82.7000       0.00000
      82.8000       0.00000
      82.9000       0.00000
      83.0000       0.00000
      83.1000       0.00000
      83.2000       0.00000
      83.3000       0.00000
      83.4000       0.00000
      83.5000       0.00000
      83.6000       0.00000
      83.7000       0.00000
      83.8000       0.00000
      83.9000       0.00000
      84.0000       0.00000
      84.1000       0.00000
      84.2000       0.00000
      84.3000       0.00000
      84.4000       0.00000
      84.5000       0.00000
      84.6000       0.00000
      84.7000       0.00000
      84.8000       0.00000
      84.9000       0.00000
      85.0000       0.00000
      85.1000       0.00000
      85.2000       0.00000
      85.3000       0.00000
      85.4000       0.00000
      85.5000       0.00000
      85.6000       0.00000
      85.7000       0.00000
      85.8000       0.00000
      85.9000       0.00000
      86.0000       0.00000
      86.1000       0.00000
      86.2000       0.00000
      86.3000       0.00000
      86.4000       0.00000
      86.5000       0.00000
      86.6000       0.00000
      86.7000       0.00000
      86.8000       0.00000
      86.9000       0.00000
      87.0000       0.00000
      87.1000       0.00000
      87.2000       0.00000
      87.3000       0.00000
      87.4000       0.00000
      87.5000       0.00000
      87.6000       0.00000
      87.7000       0.00000
      87.8000       0.00000
      87.9000       0.00000
      88.0000       0.00000
      88.1000       0.00000
      88.2000       0.00000
      88.3000       0.00000
      88.4000       0.00000
      88.5000       0.00000
      88.6000       0.00000
      88.7000       0.00000
      88.8000       0.00000
      88.9000       0.00000
      89.0000       0.00000
      89.1000       0.00000
      89.2000       0.00000
      89.3000       0.00000
      89.4000       0.00000
      89.5000       0.00000
      89.6000       0.00000
      89.7000       0.00000
      89.8000       0.00000
      89.9000       0.00000
      90.0000       0.00000
      90.1000       0.00000
      90.2000       0.00000
      90.3000       0.00000
      90.4000       0.00000
      90.5000       0.00000
      90.6000       0.00000
      90.7000       0.00000
      90.8000       0.00000
      90.9000       0.00000
      91.0000       0.00000
      91.1000       0.00000
      91.2000       0.00000
      91.3000       0.00000
      91.4000       0.00000
      91.5000       0.00000
      91.6000       0.00000
      91.7000       0.00000
      91.8000       0.00000
      91.9000       0.00000
      92.0000       0.00000
      92.1000       0.00000
      92.2000       0.00000
      92.3000       0.00000
      92.4000       0.00000
      92.5000       0.00000
      92.6000       0.00000
      92.7000       0.00000
      92.8000       0.00000
      92.9000       0.00000
      93.0000       0.00000
      93.1000       0.00000
      93.2000       0.00000
      93.3000       0.00000
      93.4000       0.00000
      93.5000       0.00000
      93.6000       0.00000
      93.7000       0.00000
      93.8000       0.00000
      93.9000       0.00000
      94.0000       0.00000
      94.1000       0.00000
      94.2000       0.00000
      94.3000       0.00000
      94.4000       0.00000
      94.5000       0.00000
      94.6000       0.00000
      94.7000       0.00000
      94.8000       0.00000
      94.9000       0.00000
      95.0000       0.00000
      95.1000       0.00000
      95.2000       0.00000
      95.3000       0.00000
      95.4000       0.00000
      95.5000       0.00000
      95.6000       0.00000
      95.7000       0.00000
      95.8000       0.00000
      95.9000       0.00000
      96.0000       0.00000
      96.1000       0.00000
      96.2000       0.00000
      96.3000       0.00000
      96.4000       0.00000
      96.5000       0.00000
      96.6000       0.00000
      96.7000       0.00000
      96.8000       0.00000
      96.9000       0.00000
      97.0000       0.00000
      97.1000       0.00000
      97.2000       0.00000
      97.3000       0.00000
      97.4000       0.00000
      97.5000       0.00000
      97.6000       0.00000
      97.7000       0.00000
      97.8000       0.00000
      97.9000       0.00000
      98.0000       0.00000
      98.1000       0.00000
      98.2000       0.00000
      98.3000       0.00000
      98.4000       0.00000
      98.5000       0.00000
      98.6000       0.00000
      98.7000       0.00000
      98.8000       0.00000
      98.9000       0.00000
      99.0000       0.00000
      99.1000       0.00000
      99.2000       0.00000
      99.3000       0.00000
      99.4000       0.00000
      99.5000       0.00000
      99.6000       0.00000
      99.7000       0.00000
      99.8000       0.00000
      99.9000       0.00000
      100.000       0.00000
      100.100       0.00000
      100.200       0.00000
      100.300       0.00000
      100.400       0.00000
      100.500       0.00000
      100.600       0.00000
      100.700       0.00000
      100.800       0.00000
      100.900       0.00000
      101.000       0.00000
      101.100       0.00000
      101.200       0.00000
      101.300       0.00000
      101.400       0.00000
      101.500       0.00000
      101.600       0.00000
      101.700       0.00000
      101.800       0.00000
      101.900       0.00000
      102.000       0.00000
      102.100       0.00000
      102.200       0.00000
      102.300       0.00000
      102.400       0.00000
      102.500       0.00000
      102.600       0.00000
      102.700       0.00000
      102.800       0.00000
      102.900       0.00000
      103.000       0.00000
      103.100       0.00000
      103.200       0.00000
      103.300       0.00000
      103.400       0.00000
      103.500       0.00000
      103.600       0.00000
      103.700       0.00000
      103.800       0.00000
      103.900       0.00000
      104.000       0.00000
      104.100       0.00000
      104.200       0.00000
      104.300       0.00000
      104.400       0.00000
      104.500       0.00000
      104.600       0.00000
      104.700       0.00000
      104.800       0.00000
      104.900       0.00000
      105.000       0.00000
      105.100       0.00000
      105.200       0.00000
      105.300       0.00000
      105.400       0.00000
      105.500       0.00000
      105.600       0.00000
      105.700       0.00000
      105.800       0.00000
      105.900       0.00000
      106.000       0.00000
      106.100       0.00000
      106.200       0.00000
      106.300       0.00000
      106.400       0.00000
      106.500       0.00000
      106.600       0.00000
      106.700       0.00000
      106.800       0.00000
      106.900       0.00000
      107.000       0.00000
      107.100       0.00000
      107.200       0.00000
      107.300       0.00000
      107.400       0.00000
      107.500       0.00000
      107.600       0.00000
      107.700       0.00000
      107.800       0.00000
      107.900       0.00000
      108.000       0.00000
      108.100       0.00000
      108.200       0.00000
      108.300       0.00000
      108.400       0.00000
      108.500       0.00000
      108.600       0.00000
      108.700       0.00000
      108.800       0.00000
      108.900       0.00000
      109.000       0.00000
      109.100       0.00000
      109.200       0.00000
      109.300       0.00000
      109.400       0.00000
      109.500       0.00000
      109.600       0.00000
      109.700       0.00000
      109.800       0.00000
      109.900       0.00000
      110.000       0.00000
      110.100       0.00000
      110.200       0.00000
      110.300       0.00000
      110.400       0.00000
      110.500       0.00000
      110.600       0.00000
      110.700       0.00000
      110.800       0.00000
      110.900       0.00000
      111.000       0.00000
      111.100       0.00000
      111.200       0.00000
      111.300       0.00000
      111.400       0.00000
      111.500       0.00000
      111.600       0.00000
      111.700       0.00000
      111.800       0.00000
      111.900       0.00000
      112.000       0.00000
      112.100       0.00000
      112.200       0.00000
      112.300       0.00000
      112.400       0.00000
      112.500       0.00000
      112.600       0.00000
      112.700       0.00000
      112.800       0.00000
      112.900       0.00000
      113.000       0.00000
      113.100       0.00000
      113.200       0.00000
      113.300       0.00000
      113.400       0.00000
      113.500       0.00000
      113.600       0.00000
      113.700       0.00000
      113.800       0.00000
      113.900       0.00000
      114.000       0.00000
      114.100       0.00000
      114.200       0.00000
      114.300       0.00000
      114.400       0.00000
      114.500       0.00000
      114.600       0.00000
      114.700       0.00000
      114.800       0.00000
      114.900       0.00000
      115.000       0.00000
      115.100       0.00000
      115.200       0.00000
      115.300       0.00000
      115.400       0.00000
      115.500       0.00000
      115.600       0.00000
      115.700       0.00000
      115.800       0.00000
      115.900       0.00000
      116.000       0.00000
      116.100       0.00000
      116.200       0.00000
      116.300       0.00000
      116.400       0.00000
      116.500       0.00000
      116.600       0.00000
      116.700       0.00000
      116.800       0.00000
      116.900       0.00000
      117.000       0.00000
      117.100       0.00000
      117.200       0.00000
      117.300       0.00000
      117.400       0.00000
      117.500       0.00000
      117.600       0.00000
      117.700       0.00000
      117.800       0.00000
      117.900       0.00000
      118.000       0.00000
      118.100       0.00000
      118.200       0.00000
      118.300       0.00000
      118.400       0.00000
      118.500       0.00000
      118.600       0.00000
      118.700       0.00000
      118.800       0.00000
      118.900       0.00000
      119.000       0.00000
      119.100       0.00000
      119.200       0.00000
      119.300       0.00000
      119.400       0.00000
      119.500       0.00000
      119.600       0.00000
      119.700       0.00000
      119.800       0.00000
      119.900       0.00000
      120.000       0.00000
      120.100       0.00000
      120.200       0.00000
      120.300       0.00000
      120.400       0.00000
      120.500       0.00000
      120.600       0.00000
      120.700       0.00000
      120.800       0.00000
      120.900       0.00000
      121.000       0.00000
      121.100       0.00000
      121.200       0.00000
      121.300       0.00000
      121.400       0.00000
      121.500       0.00000
      121.600       0.00000
      121.700       0.00000
      121.800       0.00000
      121.900       0.00000
      122.000       0.00000
      122.100       0.00000
      122.200       0.00000
      122.300       0.00000
      122.400       0.00000
      122.500       0.00000
      122.600       0.00000
      122.700       0.00000
      122.800       0.00000
      122.900       0.00000
      123.000       0.00000
      123.100       0.00000
      123.200       0.00000
      123.300       0.00000
      123.400       0.00000
      123.500       0.00000
      123.600       0.00000
      123.700       0.00000
      123.800       0.00000
      123.900       0.00000
      124.000       0.00000
      124.100       0.00000
      124.200       0.00000
      124.300       0.00000
      124.400       0.00000
      124.500       0.00000
      124.600       0.00000
      124.700       0.00000
      124.800       0.00000
      124.900       0.00000
      125.000       0.00000
      125.100       0.00000
      125.200       0.00000
      125.300       0.00000
      125.400       0.00000
      125.500       0.00000
      125.600       0.00000
      125.700       0.00000
      125.800       0.00000
      125.900       0.00000
      126.000       0.00000
      126.100       0.00000
      126.200       0.00000
      126.300       0.00000
      126.400       0.00000
      126.500       0.00000
      126.600       0.00000
      126.700       0.00000
      126.800       0.00000
      126.900       0.00000
      127.000       0.00000
      127.100       0.00000
      127.200       0.00000
      127.300       0.00000
      127.400       0.00000
      127.500       0.00000
      127.600       0.00000
      127.700       0.00000
      127.800       0.00000
      127.900       0.00000
      128.000       0.00000
      128.100       0.00000
      128.200       0.00000
      128.300       0.00000
      128.400       0.00000
      128.500       0.00000
      128.600       0.00000
      128.700       0.00000
      128.800       0.00000
      128.900       0.00000
      129.000       0.00000
      129.100       0.00000
      129.200       0.00000
      129.300       0.00000
      129.400       0.00000
      129.500       0.00000
      129.600       0.00000
      129.700       0.00000
      129.800       0.00000
      129.900       0.00000
      130.000       0.00000
      130.100       0.00000
      130.200       0.00000
      130.300       0.00000
      130.400       0.00000
      130.500       0.00000
      130.600       0.00000
      130.700       0.00000
      130.800       0.00000
      130.900       0.00000
      131.000       0.00000
      131.100       0.00000
      131.200       0.00000
      131.300       0.00000
      131.400       0.00000
      131.500       0.00000
      131.600       0.00000
      131.700       0.00000
      131.800       0.00000
      131.900       0.00000
      132.000       0.00000
      132.100       0.00000
      132.200       0.00000
      132.300       0.00000
      132.400       0.00000
      132.500       0.00000
      132.600       0.00000
      132.700       0.00000
      132.800       0.00000
      132.900       0.00000
      133.000       0.00000
      133.100       0.00000
      133.200       0.00000
      133.300       0.00000
      133.400       0.00000
      133.500       0.00000
      133.600       0.00000
      133.700       0.00000
      133.800       0.00000
      133.900       0.00000
      134.000       0.00000
      134.100       0.00000
      134.200       0.00000
      134.300       0.00000
      134.400       0.00000
      134.500       0.00000
      134.600       0.00000
      134.700       0.00000
      134.800       0.00000
      134.900       0.00000
      135.000       0.00000
      135.100       0.00000
      135.200       0.00000
      135.300       0.00000
      135.400       0.00000
      135.500       0.00000
      135.600       0.00000
      135.700       0.00000
      135.800       0.00000
      135.900       0.00000
      136.000       0.00000
      136.100       0.00000
      136.200       0.00000
      136.300       0.00000
      136.400       0.00000
      136.500       0.00000
      136.600       0.00000
      136.700       0.00000
      136.800       0.00000
      136.900       0.00000
      137.000       0.00000
      137.100       0.00000
      137.200       0.00000
      137.300       0.00000
      137.400       0.00000
      137.500       0.00000
      137.600       0.00000
      137.700       0.00000
      137.800       0.00000
      137.900       0.00000
      138.000       0.00000
      138.100       0.00000
      138.200       0.00000
      138.300       0.00000
      138.400       0.00000
      138.500       0.00000
      138.600       0.00000
      138.700       0.00000
      138.800       0.00000
      138.900       0.00000
      139.000       0.00000
      139.100       0.00000
      139.200       0.00000
      139.300       0.00000
      139.400       0.00000
      139.500       0.00000
      139.600       0.00000
      139.700       0.00000
      139.800       0.00000
      139.900       0.00000
      140.000       0.00000
      140.100       0.00000
      140.200       0.00000
      140.300       0.00000
      140.400       0.00000
      140.500       0.00000
      140.600       0.00000
      140.700       0.00000
      140.800       0.00000
      140.900       0.00000
      141.000       0.00000
      141.100       0.00000
      141.200       0.00000
      141.300       0.00000
      141.400       0.00000
      141.500       0.00000
      141.600       0.00000
      141.700       0.00000
      141.800       0.00000
      141.900       0.00000
      142.000       0.00000
      142.100       0.00000
      142.200       0.00000
      142.300       0.00000
      142.400       0.00000
      142.500       0.00000
      142.600       0.00000
      142.700       0.00000
      142.800       0.00000
      142.900       0.00000
      143.000       0.00000
      143.100       0.00000
      143.200       0.00000
      143.300       0.00000
      143.400       0.00000
      143.500       0.00000
      143.600       0.00000
      143.700       0.00000
      143.800       0.00000
      143.900       0.00000
      144.000       0.00000
      144.100       0.00000
      144.200       0.00000
      144.300       0.00000
      144.400       0.00000
      144.500       0.00000
      144.600       0.00000
      144.700       0.00000
      144.800       0.00000
      144.900       0.00000
      145.000       0.00000
      145.100       0.00000
      145.200       0.00000
      145.300       0.00000
      145.400       0.00000
      145.500       0.00000
      145.600       0.00000
      145.700       0.00000
      145.800       0.00000
      145.900       0.00000
      146.000       0.00000
      146.100       0.00000
      146.200       0.00000
      146.300       0.00000
      146.400       0.00000
      146.500       0.00000
      146.600       0.00000
      146.700       0.00000
      146.800       0.00000
      146.900       0.00000
      147.000       0.00000
      147.100       0.00000
      147.200       0.00000
      147.300       0.00000
      147.400       0.00000
      147.500       0.00000
      147.600       0.00000
      147.700       0.00000
      147.800       0.00000
      147.900       0.00000
      148.000       0.00000
      148.100       0.00000
      148.200       0.00000
      148.300       0.00000
      148.400       0.00000
      148.500       0.00000
      148.600       0.00000
      148.700       0.00000
      148.800       0.00000
      148.900       0.00000
      149.000       0.00000
      149.100       0.00000
      149.200       0.00000
      149.300       0.00000
      149.400       0.00000
      149.500       0.00000
      149.600       0.00000
      149.700       0.00000
      149.800       0.00000
      149.900       0.00000
      150.000       0.00000
      150.100       0.00000
      150.200       0.00000
      150.300       0.00000
      150.400       0.00000
      150.500       0.00000
      150.600       0.00000
      150.700       0.00000
      150.800       0.00000
      150.900       0.00000
      151.000       0.00000
      151.100       0.00000
      151.200       0.00000
      151.300       0.00000
      151.400       0.00000
      151.500       0.00000
      151.600       0.00000
      151.700       0.00000
      151.800       0.00000
      151.900       0.00000
      152.000       0.00000
      152.100       0.00000
      152.200       0.00000
      152.300       0.00000
      152.400       0.00000
      152.500       0.00000
      152.600       0.00000
      152.700       0.00000
      152.800       0.00000
      152.900       0.00000
      153.000       0.00000
      153.100       0.00000
      153.200       0.00000
      153.300       0.00000
      153.400       0.00000
      153.500       0.00000
      153.600       0.00000
      153.700       0.00000
      153.800       0.00000
      153.900       0.00000
      154.000       0.00000
      154.100       0.00000
      154.200       0.00000
      154.300       0.00000
      154.400       0.00000
      154.500       0.00000
      154.600       0.00000
      154.700       0.00000
      154.800       0.00000
      154.900       0.00000
      155.000       0.00000
      155.100       0.00000
      155.200       0.00000
      155.300       0.00000
      155.400       0.00000
      155.500       0.00000
      155.600       0.00000
      155.700       0.00000
      155.800       0.00000
      155.900       0.00000
      156.000       0.00000
      156.100       0.00000
      156.200       0.00000
      156.300       0.00000
      156.400       0.00000
      156.500       0.00000
      156.600       0.00000
      156.700       0.00000
      156.800       0.00000
      156.900       0.00000
      157.000       0.00000
      157.100       0.00000
      157.200       0.00000
      157.300       0.00000
      157.400       0.00000
      157.500       0.00000
      157.600       0.00000
      157.700       0.00000
      157.800       0.00000
      157.900       0.00000
      158.000       0.00000
      158.100       0.00000
      158.200       0.00000
      158.300       0.00000
      158.400       0.00000
      158.500       0.00000
      158.600       0.00000
      158.700       0.00000
      158.800       0.00000
      158.900       0.00000
      159.000       0.00000
      159.100       0.00000
      159.200       0.00000
      159.300       0.00000
      159.400       0.00000
      159.500       0.00000
      159.600       0.00000
      159.700       0.00000
      159.800       0.00000
      159.900       0.00000
      160.000       0.00000
      160.100       0.00000
      160.200       0.00000
      160.300       0.00000
      160.400       0.00000
      160.500       0.00000
      160.600       0.00000
      160.700       0.00000
      160.800       0.00000
      160.900       0.00000
      161.000       0.00000
      161.100       0.00000
      161.200       0.00000
      161.300       0.00000
      161.400       0.00000
      161.500       0.00000
      161.600       0.00000
      161.700       0.00000
      161.800       0.00000
      161.900       0.00000
      162.000       0.00000
      162.100       0.00000
      162.200       0.00000
      162.300       0.00000
      162.400       0.00000
      162.500       0.00000
      162.600       0.00000
      162.700       0.00000
      162.800       0.00000
      162.900       0.00000
      163.000       0.00000
      163.100       0.00000
      163.200       0.00000
      163.300       0.00000
      163.400       0.00000
      163.500       0.00000
      163.600       0.00000
      163.700       0.00000
      163.800       0.00000
      163.900       0.00000
      164.000       0.00000
      164.100       0.00000
      164.200       0.00000
      164.300       0.00000
      164.400       0.00000
      164.500       0.00000
      164.600       0.00000
      164.700       0.00000
      164.800       0.00000
      164.900       0.00000
      165.000       0.00000
      165.100       0.00000
      165.200       0.00000
      165.300       0.00000
      165.400       0.00000
      165.500       0.00000
      165.600       0.00000
      165.700       0.00000
      165.800       0.00000
      165.900       0.00000
      166.000       0.00000
      166.100       0.00000
      166.200       0.00000
      166.300       0.00000
      166.400       0.00000
      166.500       0.00000
      166.600       0.00000
      166.700       0.00000
      166.800       0.00000
      166.900       0.00000
      167.000       0.00000
      167.100       0.00000
      167.200       0.00000
      167.300       0.00000
      167.400       0.00000
      167.500       0.00000
      167.600       0.00000
      167.700       0.00000
      167.800       0.00000
      167.900       0.00000
      168.000       0.00000
      168.100       0.00000
      168.200       0.00000
      168.300       0.00000
      168.400       0.00000
      168.500       0.00000
      168.600       0.00000
      168.700       0.00000
      168.800       0.00000
      168.900       0.00000
      169.000       0.00000
      169.100       0.00000
      169.200       0.00000
      169.300       0.00000
      169.400       0.00000
      169.500       0.00000
      169.600       0.00000
      169.700       0.00000
      169.800       0.00000
      169.900       0.00000
      170.000       0.00000
      170.100       0.00000
      170.200       0.00000
      170.300       0.00000
      170.400       0.00000
      170.500   2.83703e-31
      170.600   1.31024e-19
      170.700   1.38527e-12
      170.800   1.17461e-10
      170.900   1.92071e-10
      171.000   1.93781e-10
      171.100   1.95491e-10
      171.200   1.97200e-10
      171.300   1.98911e-10
      171.400   2.00620e-10
      171.500   2.02327e-10
      171.600   2.04035e-10
      171.700   2.05746e-10
      171.800   2.07459e-10
      171.900   2.09174e-10
      172.000   2.10897e-10
      172.100   2.12629e-10
      172.200   2.14371e-10
      172.300   2.16115e-10
      172.400   2.17832e-10
      172.500   2.19551e-10
      172.600   2.21286e-10
      172.700   2.23032e-10
      172.800   2.24791e-10
      172.900   2.26568e-10
      173.000   2.28356e-10
      173.100   2.30158e-10
      173.200   2.31976e-10
      173.300   2.33809e-10
      173.400   2.35659e-10
      173.500   2.37524e-10
      173.600   2.39404e-10
      173.700   2.41300e-10
      173.800   2.43214e-10
      173.900   2.45139e-10
      174.000   2.47081e-10
      174.100   2.49041e-10
      174.200   2.51013e-10
      174.300   2.52997e-10
      174.400   2.54998e-10
      174.500   2.57010e-10
      174.600   2.59039e-10
      174.700   2.61080e-10
      174.800   2.63131e-10
      174.900   2.65196e-10
      175.000   2.67274e-10
      175.100   2.69360e-10
      175.200   2.71470e-10
      175.300   2.73588e-10
      175.400   2.75720e-10
      175.500   2.77862e-10
      175.600   2.80014e-10
      175.700   2.82178e-10
      175.800   2.84357e-10
      175.900   2.86545e-10
      176.000   2.88741e-10
      176.100   2.90951e-10
      176.200   2.93173e-10
      176.300   2.95408e-10
      176.400   2.97652e-10
      176.500   2.99907e-10
      176.600   3.02178e-10
      176.700   3.04458e-10
      176.800   3.06747e-10
      176.900   3.09048e-10
      177.000   3.11364e-10
      177.100   3.13690e-10
      177.200   3.16025e-10
      177.300   3.18371e-10
      177.400   3.20730e-10
      177.500   3.23098e-10
      177.600   3.25476e-10
      177.700   3.27863e-10
      177.800   3.30260e-10
      177.900   3.32668e-10
      178.000   3.35108e-10
      178.100   3.37557e-10
      178.200   3.40017e-10
      178.300   3.42490e-10
      178.400   3.44969e-10
      178.500   3.47458e-10
      178.600   3.49957e-10
      178.700   3.52471e-10
      178.800   3.54990e-10
      178.900   3.57518e-10
      179.000   3.60055e-10
      179.100   3.62605e-10
      179.200   3.65167e-10
      179.300   3.67738e-10
      179.400   3.70319e-10
      179.500   3.72913e-10
      179.600   3.75525e-10
      179.700   3.78144e-10
      179.800   3.80776e-10
      179.900   3.83421e-10
      180.000   3.86086e-10
      180.100   3.88760e-10
      180.200   3.91451e-10
      180.300   3.94155e-10
      180.400   3.96881e-10
      180.500   3.99622e-10
      180.600   4.02377e-10
      180.700   4.05149e-10
      180.800   4.07973e-10
      180.900   4.10875e-10
      181.000   4.13823e-10
      181.100   4.16786e-10
      181.200   4.19773e-10
      181.300   4.22783e-10
      181.400   4.25809e-10
      181.500   4.28853e-10
      181.600   4.31921e-10
      181.700   4.35011e-10
      181.800   4.38116e-10
      181.900   4.41243e-10
      182.000   4.44392e-10
      182.100   4.47556e-10
      182.200   4.50749e-10
      182.300   4.53955e-10
      182.400   4.57179e-10
      182.500   4.60423e-10
      182.600   4.63692e-10
      182.700   4.66973e-10
      182.800   4.70270e-10
      182.900   4.73590e-10
      183.000   4.76926e-10
      183.100   4.80279e-10
      183.200   4.83649e-10
      183.300   4.87038e-10
      183.400   4.90445e-10
      183.500   4.93868e-10
      183.600   4.97307e-10
      183.700   5.00905e-10
      183.800   5.05125e-10
      183.900   5.09741e-10
      184.000   5.14382e-10
      184.100   5.19067e-10
      184.200   5.23780e-10
      184.300   5.28534e-10
      184.400   5.33321e-10
      184.500   5.38139e-10
      184.600   5.42991e-10
      184.700   5.47883e-10
      184.800   5.52809e-10
      184.900   5.57767e-10
      185.000   5.62759e-10
      185.100   5.67791e-10
      185.200   5.72860e-10
      185.300   5.77958e-10
      185.400   5.83091e-10
      185.500   5.88257e-10
      185.600   5.93461e-10
      185.700   5.98706e-10
      185.800   6.03984e-10
      185.900   6.09291e-10
      186.000   6.14643e-10
      186.100   6.20022e-10
      186.200   6.25430e-10
      186.300   6.30871e-10
      186.400   6.36349e-10
      186.500   6.41861e-10
      186.600   6.47399e-10
      186.700   6.52963e-10
      186.800   6.58556e-10
      186.900   6.64185e-10
      187.000   6.69844e-10
      187.100   6.75524e-10
      187.200   6.81240e-10
      187.300   6.86992e-10
      187.400   6.92769e-10
      187.500   6.98574e-10
      187.600   7.04407e-10
      187.700   7.10269e-10
      187.800   7.16168e-10
      187.900   7.22097e-10
      188.000   7.28049e-10
      188.100   7.34031e-10
      188.200   7.40047e-10
      188.300   7.46098e-10
      188.400   7.52183e-10
      188.500   7.58298e-10
      188.600   7.64447e-10
      188.700   7.70640e-10
      188.800   7.76862e-10
      188.900   7.83117e-10
      189.000   7.89408e-10
      189.100   7.95746e-10
      189.200   8.02121e-10
      189.300   8.08528e-10
      189.400   8.14974e-10
      189.500   8.21464e-10
      189.600   8.28004e-10
      189.700   8.34575e-10
      189.800   8.41261e-10
      189.900   8.48002e-10
      190.000   8.54799e-10
      190.100   8.61633e-10
      190.200   8.68514e-10
      190.300   8.75439e-10
      190.400   8.82416e-10
      190.500   8.89440e-10
      190.600   8.96507e-10
      190.700   9.03621e-10
      190.800   9.10780e-10
      190.900   9.17988e-10
      191.000   9.25259e-10
      191.100   9.32569e-10
      191.200   9.39928e-10
      191.300   9.47334e-10
      191.400   9.54791e-10
      191.500   9.62300e-10
      191.600   9.69849e-10
      191.700   9.77447e-10
      191.800   9.85101e-10
      191.900   9.92796e-10
      192.000   1.00053e-09
      192.100   1.00832e-09
      192.200   1.01617e-09
      192.300   1.02406e-09
      192.400   1.03202e-09
      192.500   1.04001e-09
      192.600   1.04806e-09
      192.700   1.05615e-09
      192.800   1.06388e-09
      192.900   1.07062e-09
      193.000   1.07729e-09
      193.100   1.08399e-09
      193.200   1.09074e-09
      193.300   1.09752e-09
      193.400   1.10432e-09
      193.500   1.11117e-09
      193.600   1.11805e-09
      193.700   1.12497e-09
      193.800   1.13192e-09
      193.900   1.13889e-09
      194.000   1.14592e-09
      194.100   1.15299e-09
      194.200   1.16008e-09
      194.300   1.16721e-09
      194.400   1.17438e-09
      194.500   1.18159e-09
      194.600   1.18884e-09
      194.700   1.19611e-09
      194.800   1.20342e-09
      194.900   1.21077e-09
      195.000   1.21815e-09
      195.100   1.22558e-09
      195.200   1.23303e-09
      195.300   1.24051e-09
      195.400   1.24802e-09
      195.500   1.25557e-09
      195.600   1.26315e-09
      195.700   1.27075e-09
      195.800   1.27830e-09
      195.900   1.28526e-09
      196.000   1.27120e-09
      196.100   1.25703e-09
      196.200   1.24300e-09
      196.300   1.22912e-09
      196.400   1.21538e-09
      196.500   1.20178e-09
      196.600   1.18833e-09
      196.700   1.17501e-09
      196.800   1.16183e-09
      196.900   1.14879e-09
      197.000   1.13588e-09
      197.100   1.12310e-09
      197.200   1.11046e-09
      197.300   1.09794e-09
      197.400   1.08554e-09
      197.500   1.07327e-09
      197.600   1.06112e-09
      197.700   1.04911e-09
      197.800   1.03723e-09
      197.900   1.02546e-09
      198.000   1.01382e-09
      198.100   1.00229e-09
      198.200   9.90884e-10
      198.300   9.79594e-10
      198.400   9.68425e-10
      198.500   9.57382e-10
      198.600   9.46460e-10
      198.700   9.35652e-10
      198.800   9.24960e-10
      198.900   9.14386e-10
      199.000   9.03920e-10
      199.100   8.93567e-10
      199.200   8.83331e-10
      199.300   8.73219e-10
      199.400   8.63221e-10
      199.500   8.53334e-10
      199.600   8.43552e-10
      199.700   8.33880e-10
      199.800   8.24317e-10
      199.900   8.14858e-10
      200.000   8.05504e-10
      200.100   7.96307e-10
      200.200   7.87173e-10
      200.300   7.78149e-10
      200.400   7.69223e-10
      200.500   7.60398e-10
      200.600   7.51677e-10
      200.700   7.43053e-10
      200.800   7.34524e-10
      200.900   7.26099e-10
      201.000   7.17770e-10
      201.100   7.09538e-10
      201.200   7.01401e-10
      201.300   6.93356e-10
      201.400   6.85407e-10
      201.500   6.77544e-10
      201.600   6.69772e-10
      201.700   6.62091e-10
      201.800   6.54498e-10
      201.900   6.46990e-10
      202.000   6.39577e-10
      202.100   6.32247e-10
      202.200   6.25002e-10
      202.300   6.17892e-10
      202.400   6.10959e-10
      202.500   6.04131e-10
      202.600   5.97377e-10
      202.700   5.90707e-10
      202.800   5.84112e-10
      202.900   5.77593e-10
      203.000   5.71151e-10
      203.100   5.64786e-10
      203.200   5.58491e-10
      203.300   5.52268e-10
      203.400   5.46117e-10
      203.500   5.40037e-10
      203.600   5.34028e-10
      203.700   5.28090e-10
      203.800   5.22223e-10
      203.900   5.16429e-10
      204.000   5.10701e-10
      204.100   5.05040e-10
      204.200   4.99447e-10
      204.300   4.93919e-10
      204.400   4.88456e-10
      204.500   4.83058e-10
      204.600   4.77722e-10
      204.700   4.72448e-10
      204.800   4.67242e-10
      204.900   4.62096e-10
      205.000   4.57011e-10
      205.100   4.51986e-10
      205.200   4.47018e-10
      205.300   4.42109e-10
      205.400   4.37257e-10
      205.500   4.32461e-10
      205.600   4.27388e-10
      205.700   4.22071e-10
      205.800   4.16778e-10
      205.900   4.11556e-10
      206.000   4.06403e-10
      206.100   4.01314e-10
      206.200   3.96289e-10
      206.300   3.91329e-10
      206.400   3.86431e-10
      206.500   3.81592e-10
      206.600   3.76815e-10
      206.700   3.72098e-10
      206.800   3.67437e-10
      206.900   3.62833e-10
      207.000   3.58288e-10
      207.100   3.53798e-10
      207.200   3.49366e-10
      207.300   3.44986e-10
      207.400   3.40658e-10
      207.500   3.36382e-10
      207.600   3.32158e-10
      207.700   3.27983e-10
      207.800   3.23858e-10
      207.900   3.19782e-10
      208.000   3.15755e-10
      208.100   3.11776e-10
      208.200   3.07843e-10
      208.300   3.03958e-10
      208.400   3.00120e-10
      208.500   2.96329e-10
      208.600   2.92580e-10
      208.700   2.88876e-10
      208.800   2.85217e-10
      208.900   2.81220e-10
      209.000   2.76591e-10
      209.100   2.71870e-10
      209.200   2.67227e-10
      209.300   2.62658e-10
      209.400   2.58165e-10
      209.500   2.53745e-10
      209.600   2.49397e-10
      209.700   2.45121e-10
      209.800   2.40920e-10
      209.900   2.36785e-10
      210.000   2.32720e-10
      210.100   2.28722e-10
      210.200   2.24790e-10
      210.300   2.20922e-10
      210.400   2.17119e-10
      210.500   2.13378e-10
      210.600   2.09700e-10
      210.700   2.06083e-10
      210.800   2.02526e-10
      210.900   1.99028e-10
      211.000   1.95589e-10
      211.100   1.92208e-10
      211.200   1.88882e-10
      211.300   1.85615e-10
      211.400   1.82404e-10
      211.500   1.79245e-10
      211.600   1.76141e-10
      211.700   1.73089e-10
      211.800   1.70086e-10
      211.900   1.67134e-10
      212.000   1.64233e-10
      212.100   1.61381e-10
      212.200   1.58576e-10
      212.300   1.55819e-10
      212.400   1.53107e-10
      212.500   1.50443e-10
      212.600   1.47823e-10
      212.700   1.45248e-10
      212.800   1.42716e-10
      212.900   1.40228e-10
      213.000   1.37781e-10
      213.100   1.35378e-10
      213.200   1.33017e-10
      213.300   1.30694e-10
      213.400   1.28412e-10
      213.500   1.26168e-10
      213.600   1.23963e-10
      213.700   1.21796e-10
      213.800   1.19665e-10
      213.900   1.17572e-10
      214.000   1.15515e-10
      214.100   1.13492e-10
      214.200   1.11506e-10
      214.300   1.09553e-10
      214.400   1.07634e-10
      214.500   1.05748e-10
      214.600   1.03895e-10
      214.700   1.02075e-10
      214.800   1.00286e-10
      214.900   9.85288e-11
      215.000   9.68015e-11
      215.100   9.51053e-11
      215.200   9.34390e-11
      215.300   9.18030e-11
      215.400   9.01950e-11
      215.500   8.86156e-11
      215.600   8.70650e-11
      215.700   8.55406e-11
      215.800   8.40432e-11
      215.900   8.25730e-11
      216.000   8.11283e-11
      216.100   7.97090e-11
      216.200   7.83152e-11
      216.300   7.69460e-11
      216.400   7.56014e-11
      216.500   7.42802e-11
      216.600   7.29827e-11
      216.700   7.17085e-11
      216.800   7.04566e-11
      216.900   6.92270e-11
      217.000   6.80192e-11
      217.100   6.68325e-11
      217.200   6.56672e-11
      217.300   6.45223e-11
      217.400   6.33975e-11
      217.500   6.22931e-11
      217.600   6.12078e-11
      217.700   6.01412e-11
      217.800   5.90938e-11
      217.900   5.80652e-11
      218.000   5.70547e-11
      218.100   5.60616e-11
      218.200   5.50862e-11
      218.300   5.41280e-11
      218.400   5.31866e-11
      218.500   5.22610e-11
      218.600   5.13518e-11
      218.700   5.04583e-11
      218.800   4.95803e-11
      218.900   4.87178e-11
      219.000   4.78698e-11
      219.100   4.70364e-11
      219.200   4.62175e-11
      219.300   4.54125e-11
      219.400   4.46212e-11
      219.500   4.38435e-11
      219.600   4.30792e-11
      219.700   4.23280e-11
      219.800   4.15899e-11
      219.900   4.08642e-11
      220.000   4.01507e-11
      220.100   3.94496e-11
      220.200   3.87603e-11
      220.300   3.80829e-11
      220.400   3.74170e-11
      220.500   3.67627e-11
      220.600   3.61195e-11
      220.700   3.54870e-11
      220.800   3.48652e-11
      220.900   3.42544e-11
      221.000   3.36537e-11
      221.100   3.30632e-11
      221.200   3.24830e-11
      221.300   3.19126e-11
      221.400   3.13520e-11
      221.500   3.08010e-11
      221.600   3.02594e-11
      221.700   2.97269e-11
      221.800   2.92033e-11
      221.900   2.86889e-11
      222.000   2.81835e-11
      222.100   2.76864e-11
      222.200   2.71980e-11
      222.300   2.67178e-11
      222.400   2.62461e-11
      222.500   2.57821e-11
      222.600   2.53264e-11
      222.700   2.48783e-11
      222.800   2.44378e-11
      222.900   2.40050e-11
      223.000   2.35795e-11
      223.100   2.31613e-11
      223.200   2.27503e-11
      223.300   2.23464e-11
      223.400   2.19495e-11
      223.500   2.15592e-11
      223.600   2.11759e-11
      223.700   2.07990e-11
      223.800   2.04285e-11
      223.900   2.00648e-11
      224.000   1.97071e-11
      224.100   1.93555e-11
      224.200   1.90100e-11
      224.300   1.86705e-11
      224.400   1.83368e-11
      224.500   1.80090e-11
      224.600   1.76866e-11
      224.700   1.73700e-11
      224.800   1.70589e-11
      224.900   1.67530e-11
      225.000   1.64525e-11
      225.100   1.61572e-11
      225.200   1.58669e-11
      225.300   1.55818e-11
      225.400   1.53016e-11
      225.500   1.50261e-11
      225.600   1.47555e-11
      225.700   1.44897e-11
      225.800   1.42284e-11
      225.900   1.39717e-11
      226.000   1.37195e-11
      226.100   1.34717e-11
      226.200   1.32282e-11
      226.300   1.29900e-11
      226.400   1.27564e-11
      226.500   1.25265e-11
      226.600   1.23005e-11
      226.700   1.20783e-11
      226.800   1.18598e-11
      226.900   1.16451e-11
      227.000   1.14342e-11
      227.100   1.12269e-11
      227.200   1.10233e-11
      227.300   1.08234e-11
      227.400   1.06270e-11
      227.500   1.04341e-11
      227.600   1.02447e-11
      227.700   1.00586e-11
      227.800   9.87584e-12
      227.900   9.69638e-12
      228.000   9.52014e-12
      228.100   9.34706e-12
      228.200   9.17705e-12
      228.300   9.01013e-12
      228.400   8.84627e-12
      228.500   8.68531e-12
      228.600   8.52728e-12
      228.700   8.37212e-12
      228.800   8.21974e-12
      228.900   8.07021e-12
      229.000   7.92334e-12
      229.100   7.77916e-12
      229.200   7.63760e-12
      229.300   7.49863e-12
      229.400   7.36220e-12
      229.500   7.22827e-12
      229.600   7.09676e-12
      229.700   6.96768e-12
      229.800   6.84094e-12
      229.900   6.71654e-12
      230.000   6.59318e-12
      230.100   6.46355e-12
      230.200   6.33617e-12
      230.300   6.21138e-12
      230.400   6.08903e-12
      230.500   5.96909e-12
      230.600   5.85157e-12
      230.700   5.73634e-12
      230.800   5.62341e-12
      230.900   5.51272e-12
      231.000   5.40420e-12
      231.100   5.29782e-12
      231.200   5.19354e-12
      231.300   5.09133e-12
      231.400   4.99118e-12
      231.500   4.89294e-12
      231.600   4.79662e-12
      231.700   4.70223e-12
      231.800   4.60971e-12
      231.900   4.51899e-12
      232.000   4.43006e-12
      232.100   4.34286e-12
      232.200   4.25739e-12
      232.300   4.17362e-12
      232.400   4.09146e-12
      232.500   4.01090e-12
      232.600   3.93194e-12
      232.700   3.85453e-12
      232.800   3.77864e-12
      232.900   3.70423e-12
      233.000   3.63127e-12
      233.100   3.55975e-12
      233.200   3.48962e-12
      233.300   3.42087e-12
      233.400   3.35347e-12
      233.500   3.28740e-12
      233.600   3.22264e-12
      233.700   3.15912e-12
      233.800   3.08917e-12
      233.900   3.01977e-12
      234.000   2.95186e-12
      234.100   2.88547e-12
      234.200   2.82057e-12
      234.300   2.75709e-12
      234.400   2.69502e-12
      234.500   2.63433e-12
      234.600   2.57497e-12
      234.700   2.51695e-12
      234.800   2.46022e-12
      234.900   2.40473e-12
      235.000   2.35046e-12
      235.100   2.29741e-12
      235.200   2.24553e-12
      235.300   2.19480e-12
      235.400   2.14520e-12
      235.500   2.09670e-12
      235.600   2.04929e-12
      235.700   2.00292e-12
      235.800   1.95763e-12
      235.900   1.91334e-12
      236.000   1.87004e-12
      236.100   1.82769e-12
      236.200   1.78628e-12
      236.300   1.74579e-12
      236.400   1.70621e-12
      236.500   1.66750e-12
      236.600   1.62965e-12
      236.700   1.59264e-12
      236.800   1.55645e-12
      236.900   1.52106e-12
      237.000   1.48646e-12
      237.100   1.45263e-12
      237.200   1.41955e-12
      237.300   1.38721e-12
      237.400   1.35558e-12
      237.500   1.32465e-12
      237.600   1.29440e-12
      237.700   1.26485e-12
      237.800   1.23597e-12
      237.900   1.20772e-12
      238.000   1.18010e-12
      238.100   1.15309e-12
      238.200   1.12669e-12
      238.300   1.10087e-12
      238.400   1.07562e-12
      238.500   1.05093e-12
      238.600   1.02679e-12
      238.700   1.00320e-12
      238.800   9.80123e-13
      238.900   9.57562e-13
      239.000   9.35499e-13
      239.100   9.13930e-13
      239.200   8.92847e-13
      239.300   8.72243e-13
      239.400   8.52117e-13
      239.500   8.32437e-13
      239.600   8.13192e-13
      239.700   7.94388e-13
      239.800   7.75997e-13
      239.900   7.58017e-13
      240.000   7.40440e-13
      240.100   7.23252e-13
      240.200   7.06449e-13
      240.300   6.90023e-13
      240.400   6.73961e-13
      240.500   6.58269e-13
      240.600   6.42928e-13
      240.700   6.27930e-13
      240.800   6.13280e-13
      240.900   5.98969e-13
      241.000   5.84984e-13
      241.100   5.71313e-13
      241.200   5.57952e-13
      241.300   5.44890e-13
      241.400   5.32126e-13
      241.500   5.19651e-13
      241.600   5.07459e-13
      241.700   4.95542e-13
      241.800   4.83895e-13
      241.900   4.72512e-13
      242.000   4.61390e-13
      242.100   4.50524e-13
      242.200   4.39916e-13
      242.300   4.29559e-13
      242.400   4.19436e-13
      242.500   4.09544e-13
      242.600   3.99880e-13
      242.700   3.90436e-13
      242.800   3.81211e-13
      242.900   3.72197e-13
      243.000   3.63391e-13
      243.100   3.54788e-13
      243.200   3.46380e-13
      243.300   3.38168e-13
      243.400   3.30149e-13
      243.500   3.22321e-13
      243.600   3.14684e-13
      243.700   3.07219e-13
      243.800   2.99928e-13
      243.900   2.92809e-13
      244.000   2.85853e-13
      244.100   2.79060e-13
      244.200   2.72425e-13
      244.300   2.65943e-13
      244.400   2.59612e-13
      244.500   2.53430e-13
      244.600   2.47391e-13
      244.700   2.41499e-13
      244.800   2.35751e-13
      244.900   2.30139e-13
      245.000   2.24655e-13
      245.100   2.19300e-13
      245.200   2.14073e-13
      245.300   2.08968e-13
      245.400   2.03981e-13
      245.500   1.99112e-13
      245.600   1.94357e-13
      245.700   1.89713e-13
      245.800   1.85177e-13
      245.900   1.80757e-13
      246.000   1.76444e-13
      246.100   1.72230e-13
      246.200   1.68116e-13
      246.300   1.64099e-13
      246.400   1.60176e-13
      246.500   1.56346e-13
      246.600   1.52605e-13
      246.700   1.48954e-13
      246.800   1.45386e-13
      246.900   1.41904e-13
      247.000   1.38509e-13
      247.100   1.35196e-13
      247.200   1.31961e-13
      247.300   1.28804e-13
      247.400   1.25720e-13
      247.500   1.22708e-13
      247.600   1.19768e-13
      247.700   1.16897e-13
      247.800   1.14094e-13
      247.900   1.11356e-13
      248.000   1.08684e-13
      248.100   1.06082e-13
      248.200   1.03541e-13
      248.300   1.01059e-13
      248.400   9.86364e-14
      248.500   9.62701e-14
      248.600   9.39599e-14
      248.700   9.17046e-14
      248.800   8.95022e-14
      248.900   8.73521e-14
      249.000   8.52529e-14
      249.100   8.32074e-14
      249.200   8.12118e-14
      249.300   7.92623e-14
      249.400   7.73589e-14
      249.500   7.55009e-14
      249.600   7.36862e-14
      249.700   7.19145e-14
      249.800   7.01848e-14
      249.900   6.84957e-14
      250.000   6.68469e-14
      250.100   6.52397e-14
      250.200   6.36712e-14
      250.300   6.21412e-14
      250.400   6.06469e-14
      250.500   5.91883e-14
      250.600   5.77644e-14
      250.700   5.63741e-14
      250.800   5.50168e-14
      250.900   5.36918e-14
      251.000   5.23982e-14
      251.100   5.11353e-14
      251.200   4.99035e-14
      251.300   4.87024e-14
      251.400   4.75299e-14
      251.500   4.63846e-14
      251.600   4.52667e-14
      251.700   4.41760e-14
      251.800   4.31108e-14
      251.900   4.20709e-14
      252.000   4.10556e-14
      252.100   4.00648e-14
      252.200   3.90972e-14
      252.300   3.81537e-14
      252.400   3.72329e-14
      252.500   3.63345e-14
      252.600   3.54572e-14
      252.700   3.46007e-14
      252.800   3.37647e-14
      252.900   3.29486e-14
      253.000   3.21518e-14
      253.100   3.13740e-14
      253.200   3.06147e-14
      253.300   2.98800e-14
      253.400   2.91655e-14
      253.500   2.84683e-14
      253.600   2.77882e-14
      253.700   2.71238e-14
      253.800   2.64752e-14
      253.900   2.58419e-14
      254.000   2.52233e-14
      254.100   2.46191e-14
      254.200   2.40291e-14
      254.300   2.34530e-14
      254.400   2.28903e-14
      254.500   2.23408e-14
      254.600   2.18043e-14
      254.700   2.12804e-14
      254.800   2.07695e-14
      254.900   2.02706e-14
      255.000   1.97834e-14
      255.100   1.93074e-14
      255.200   1.88426e-14
      255.300   1.83889e-14
      255.400   1.79457e-14
      255.500   1.75130e-14
      255.600   1.70905e-14
      255.700   1.66778e-14
      255.800   1.62749e-14
      255.900   1.58813e-14
      256.000   1.54970e-14
      256.100   1.51221e-14
      256.200   1.47561e-14
      256.300   1.43988e-14
      256.400   1.40501e-14
      256.500   1.37093e-14
      256.600   1.33767e-14
      256.700   1.30519e-14
      256.800   1.27348e-14
      256.900   1.24251e-14
      257.000   1.21228e-14
      257.100   1.18275e-14
      257.200   1.15394e-14
      257.300   1.12580e-14
      257.400   1.10194e-14
      257.500   1.07987e-14
      257.600   1.05832e-14
      257.700   1.03719e-14
      257.800   1.01646e-14
      257.900   9.96146e-15
      258.000   9.76218e-15
      258.100   9.56676e-15
      258.200   9.37517e-15
      258.300   9.18736e-15
      258.400   9.00307e-15
      258.500   8.82236e-15
      258.600   8.64525e-15
      258.700   8.47156e-15
      258.800   8.30123e-15
      258.900   8.13434e-15
      259.000   7.97057e-15
      259.100   7.81007e-15
      259.200   7.65271e-15
      259.300   7.49861e-15
      259.400   7.34750e-15
      259.500   7.19928e-15
      259.600   7.05403e-15
      259.700   6.91164e-15
      259.800   6.77201e-15
      259.900   6.63508e-15
      260.000   6.50092e-15
      260.100   6.36940e-15
      260.200   6.24045e-15
      260.300   6.11406e-15
      260.400   5.99018e-15
      260.500   5.86876e-15
      260.600   5.74972e-15
      260.700   5.63301e-15
      260.800   5.51872e-15
      260.900   5.40660e-15
      261.000   5.29679e-15
      261.100   5.18920e-15
      261.200   5.08374e-15
      261.300   4.98036e-15
      261.400   4.87910e-15
      261.500   4.78959e-15
      261.600   4.73330e-15
      261.700   4.68317e-15
      261.800   4.63358e-15
      261.900   4.58447e-15
      262.000   4.53588e-15
      262.100   4.48779e-15
      262.200   4.44023e-15
      262.300   4.39313e-15
      262.400   4.34653e-15
      262.500   4.30043e-15
      262.600   4.25480e-15
      262.700   4.20966e-15
      262.800   4.16498e-15
      262.900   4.12073e-15
      263.000   4.07703e-15
      263.100   4.03375e-15
      263.200   3.99093e-15
      263.300   3.94858e-15
      263.400   3.90665e-15
      263.500   3.86518e-15
      263.600   3.82417e-15
      263.700   3.78358e-15
      263.800   3.74340e-15
      263.900   3.70369e-15
      264.000   3.66438e-15
      264.100   3.62549e-15
      264.200   3.58700e-15
      264.300   3.54896e-15
      264.400   3.51131e-15
      264.500   3.47406e-15
      264.600   3.43720e-15
      264.700   3.40075e-15
      264.800   3.36468e-15
      264.900   3.32902e-15
      265.000   3.29374e-15
      265.100   3.25882e-15
      265.200   3.22429e-15
      265.300   3.19013e-15
      265.400   3.15635e-15
      265.500   3.12293e-15
      265.600   3.08988e-15
      265.700   3.05717e-15
      265.800   3.02488e-15
      265.900   2.99292e-15
      266.000   2.96133e-15
      266.100   2.93010e-15
      266.200   2.89918e-15
      266.300   2.86861e-15
      266.400   2.83837e-15
      266.500   2.80846e-15
      266.600   2.77888e-15
      266.700   2.74961e-15
      266.800   2.72069e-15
      266.900   2.69208e-15
      267.000   2.66377e-15
      267.100   2.63578e-15
      267.200   2.60812e-15
      267.300   2.58074e-15
      267.400   2.55365e-15
      267.500   2.52687e-15
      267.600   2.50038e-15
      267.700   2.47419e-15
      267.800   2.44827e-15
      267.900   2.42265e-15
      268.000   2.39732e-15
      268.100   2.37226e-15
      268.200   2.34748e-15
      268.300   2.32298e-15
      268.400   2.29873e-15
      268.500   2.27476e-15
      268.600   2.25104e-15
      268.700   2.22761e-15
      268.800   2.20441e-15
      268.900   2.18148e-15
      269.000   2.15881e-15
      269.100   2.13637e-15
      269.200   2.11420e-15
      269.300   2.09226e-15
      269.400   2.07056e-15
      269.500   2.04909e-15
      269.600   2.02788e-15
      269.700   2.00688e-15
      269.800   1.98613e-15
      269.900   1.96558e-15
      270.000   1.94529e-15
      270.100   1.92522e-15
      270.200   1.90540e-15
      270.300   1.88578e-15
      270.400   1.86637e-15
      270.500   1.84718e-15
      270.600   1.82819e-15
      270.700   1.80941e-15
      270.800   1.79084e-15
      270.900   1.77246e-15
      271.000   1.75429e-15
      271.100   1.73630e-15
      271.200   1.71850e-15
      271.300   1.70091e-15
      271.400   1.68350e-15
      271.500   1.66628e-15
      271.600   1.64924e-15
      271.700   1.63238e-15
      271.800   1.61570e-15
      271.900   1.59920e-15
      272.000   1.58287e-15
      272.100   1.56672e-15
      272.200   1.55073e-15
      272.300   1.53490e-15
      272.400   1.51925e-15
      272.500   1.50376e-15
      272.600   1.48843e-15
      272.700   1.47327e-15
      272.800   1.45826e-15
      272.900   1.44340e-15
      273.000   1.42871e-15
      273.100   1.41416e-15
      273.200   1.39977e-15
      273.300   1.38552e-15
      273.400   1.37142e-15
      273.500   1.35746e-15
      273.600   1.34364e-15
      273.700   1.32997e-15
      273.800   1.31643e-15
      273.900   1.30304e-15
      274.000   1.28978e-15
      274.100   1.27666e-15
      274.200   1.26366e-15
      274.300   1.25081e-15
      274.400   1.23793e-15
      274.500   1.22487e-15
      274.600   1.21188e-15
      274.700   1.19903e-15
      274.800   1.18631e-15
      274.900   1.17372e-15
      275.000   1.16125e-15
      275.100   1.14893e-15
      275.200   1.13672e-15
      275.300   1.12464e-15
      275.400   1.11269e-15
      275.500   1.10087e-15
      275.600   1.08916e-15
      275.700   1.07757e-15
      275.800   1.06610e-15
      275.900   1.05476e-15
      276.000   1.04353e-15
      276.100   1.03241e-15
      276.200   1.02140e-15
      276.300   1.01051e-15
      276.400   9.99728e-16
      276.500   9.89059e-16
      276.600   9.78500e-16
      276.700   9.68045e-16
      276.800   9.57701e-16
      276.900   9.47457e-16
      277.000   9.37322e-16
      277.100   9.27286e-16
      277.200   9.17356e-16
      277.300   9.07527e-16
      277.400   8.97799e-16
      277.500   8.88163e-16
      277.600   8.78634e-16
      277.700   8.69196e-16
      277.800   8.59850e-16
      277.900   8.50606e-16
      278.000   8.41460e-16
      278.100   8.32404e-16
      278.200   8.23438e-16
      278.300   8.14564e-16
      278.400   8.05783e-16
      278.500   7.97085e-16
      278.600   7.88477e-16
      278.700   7.79962e-16
      278.800   7.71533e-16
      278.900   7.63161e-16
      279.000   7.54870e-16
      279.100   7.46665e-16
      279.200   7.38539e-16
      279.300   7.30503e-16
      279.400   7.22542e-16
      279.500   7.14667e-16
      279.600   7.06873e-16
      279.700   6.99162e-16
      279.800   6.91528e-16
      279.900   6.83970e-16
      280.000   6.76492e-16
      280.100   6.69089e-16
      280.200   6.61765e-16
      280.300   6.54514e-16
      280.400   6.47340e-16
      280.500   6.40245e-16
      280.600   6.33219e-16
      280.700   6.26265e-16
      280.800   6.19385e-16
      280.900   6.12574e-16
      281.000   6.05835e-16
      281.100   5.99165e-16
      281.200   5.92565e-16
      281.300   5.86036e-16
      281.400   5.79576e-16
      281.500   5.73180e-16
      281.600   5.66848e-16
      281.700   5.60586e-16
      281.800   5.54392e-16
      281.900   5.48260e-16
      282.000   5.42194e-16
      282.100   5.36189e-16
      282.200   5.30253e-16
      282.300   5.24375e-16
      282.400   5.18561e-16
      282.500   5.12805e-16
      282.600   5.07113e-16
      282.700   5.01478e-16
      282.800   4.95905e-16
      282.900   4.90396e-16
      283.000   4.84940e-16
      283.100   4.79545e-16
      283.200   4.74208e-16
      283.300   4.68927e-16
      283.400   4.63703e-16
      283.500   4.58538e-16
      283.600   4.53425e-16
      283.700   4.48367e-16
      283.800   4.43364e-16
      283.900   4.38417e-16
      284.000   4.33520e-16
      284.100   4.28675e-16
      284.200   4.23884e-16
      284.300   4.19147e-16
      284.400   4.14460e-16
      284.500   4.09825e-16
      284.600   4.05240e-16
      284.700   4.00705e-16
      284.800   3.96220e-16
      284.900   3.91784e-16
      285.000   3.87393e-16
      285.100   3.83053e-16
      285.200   3.78762e-16
      285.300   3.74516e-16
      285.400   3.70317e-16
      285.500   3.66163e-16
      285.600   3.62060e-16
      285.700   3.57998e-16
      285.800   3.53984e-16
      285.900   3.50012e-16
      286.000   3.46085e-16
      286.100   3.42205e-16
      286.200   3.38366e-16
      286.300   3.34572e-16
      286.400   3.30819e-16
      286.500   3.27107e-16
      286.600   3.23437e-16
      286.700   3.19807e-16
      286.800   3.16220e-16
      286.900   3.12673e-16
      287.000   3.09165e-16
      287.100   3.05696e-16
      287.200   3.02268e-16
      287.300   2.98877e-16
      287.400   2.95525e-16
      287.500   2.92211e-16
      287.600   2.88936e-16
      287.700   2.85696e-16
      287.800   2.82494e-16
      287.900   2.79328e-16
      288.000   2.76199e-16
      288.100   2.73105e-16
      288.200   2.70048e-16
      288.300   2.67025e-16
      288.400   2.64038e-16
      288.500   2.61084e-16
      288.600   2.58163e-16
      288.700   2.55277e-16
      288.800   2.52422e-16
      288.900   2.49603e-16
      289.000   2.46815e-16
      289.100   2.44057e-16
      289.200   2.41332e-16
      289.300   2.38639e-16
      289.400   2.35976e-16
      289.500   2.33344e-16
      289.600   2.30742e-16
      289.700   2.28172e-16
      289.800   2.25629e-16
      289.900   2.23114e-16
      290.000   2.20632e-16
      290.100   2.18175e-16
      290.200   2.15750e-16
      290.300   2.13351e-16
      290.400   2.10980e-16
      290.500   2.08639e-16
      290.600   2.06322e-16
      290.700   2.04032e-16
      290.800   2.01770e-16
      290.900   1.99533e-16
      291.000   1.97321e-16
      291.100   1.95134e-16
      291.200   1.92973e-16
      291.300   1.90837e-16
      291.400   1.88726e-16
      291.500   1.86638e-16
      291.600   1.84574e-16
      291.700   1.82535e-16
      291.800   1.80518e-16
      291.900   1.78527e-16
      292.000   1.76559e-16
      292.100   1.74612e-16
      292.200   1.72689e-16
      292.300   1.70786e-16
      292.400   1.68905e-16
      292.500   1.67045e-16
      292.600   1.65207e-16
      292.700   1.63390e-16
      292.800   1.61594e-16
      292.900   1.59818e-16
      293.000   1.58062e-16
      293.100   1.56326e-16
      293.200   1.54610e-16
      293.300   1.52913e-16
      293.400   1.51237e-16
      293.500   1.49579e-16
      293.600   1.47940e-16
      293.700   1.46319e-16
      293.800   1.44718e-16
      293.900   1.43134e-16
      294.000   1.41568e-16
      294.100   1.40020e-16
      294.200   1.38489e-16
      294.300   1.36976e-16
      294.400   1.35479e-16
      294.500   1.34000e-16
      294.600   1.32536e-16
      294.700   1.31089e-16
      294.800   1.29659e-16
      294.900   1.28243e-16
      295.000   1.26845e-16
      295.100   1.25464e-16
      295.200   1.24097e-16
      295.300   1.22744e-16
      295.400   1.21407e-16
      295.500   1.20086e-16
      295.600   1.18778e-16
      295.700   1.17485e-16
      295.800   1.16206e-16
      295.900   1.14941e-16
      296.000   1.13691e-16
      296.100   1.12453e-16
      296.200   1.11230e-16
      296.300   1.10020e-16
      296.400   1.08826e-16
      296.500   1.07642e-16
      296.600   1.06472e-16
      296.700   1.05315e-16
      296.800   1.04171e-16
      296.900   1.03039e-16
      297.000   1.01920e-16
      297.100   1.00812e-16
      297.200   9.97164e-17
      297.300   9.86329e-17
      297.400   9.75613e-17
      297.500   9.65005e-17
      297.600   9.54525e-17
      297.700   9.44154e-17
      297.800   9.33897e-17
      297.900   9.23755e-17
      298.000   9.13723e-17
      298.100   9.03794e-17
      298.200   8.93973e-17
      298.300   8.84261e-17
      298.400   8.74649e-17
      298.500   8.65138e-17
      298.600   8.55731e-17
      298.700   8.46424e-17
      298.800   8.37213e-17
      298.900   8.28108e-17
      299.000   8.19107e-17
      299.100   8.10199e-17
      299.200   8.01380e-17
      299.300   7.92658e-17
      299.400   7.84029e-17
      299.500   7.75492e-17
      299.600   7.67044e-17
      299.700   7.58685e-17
      299.800   7.50413e-17
      299.900   7.42233e-17
      300.000   7.34139e-17
      300.100   7.26129e-17
      300.192   7.18839e-17
      300.285   7.11533e-17
      300.377   7.04385e-17
      300.470   6.97232e-17
      300.562   6.90221e-17
      300.654   6.83277e-17
      300.747   6.76327e-17
      300.839   6.69522e-17
      300.932   6.62703e-17
      301.025   6.55956e-17
      301.117   6.49349e-17
      301.210   6.42726e-17
      301.303   6.36178e-17
      301.395   6.29764e-17
      301.488   6.23334e-17
      301.581   6.16974e-17
      301.674   6.10674e-17
      301.766   6.04499e-17
      301.859   5.98320e-17
      301.952   5.92204e-17
      302.045   5.86146e-17
      302.138   5.80550e-17
      302.231   5.75912e-17
      302.324   5.71347e-17
      302.417   5.66821e-17
      302.510   5.62321e-17
      302.603   5.57862e-17
      302.696   5.53429e-17
      302.789   5.49028e-17
      302.882   5.44659e-17
      302.976   5.40283e-17
      303.069   5.35979e-17
      303.162   5.31707e-17
      303.255   5.27464e-17
      303.349   5.23210e-17
      303.442   5.19028e-17
      303.535   5.14880e-17
      303.629   5.10717e-17
      303.722   5.06630e-17
      303.816   5.02531e-17
      303.909   4.98500e-17
      304.003   4.94458e-17
      304.096   4.90489e-17
      304.190   4.86506e-17
      304.283   4.82593e-17
      304.377   4.78670e-17
      304.471   4.74772e-17
      304.564   4.70944e-17
      304.658   4.67110e-17
      304.752   4.63297e-17
      304.846   4.59515e-17
      304.939   4.55800e-17
      305.033   4.52073e-17
      305.127   4.48373e-17
      305.221   4.44701e-17
      305.315   4.41059e-17
      305.409   4.37439e-17
      305.503   4.33849e-17
      305.597   4.30288e-17
      305.691   4.26750e-17
      305.785   4.23240e-17
      305.879   4.19754e-17
      305.973   4.16296e-17
      306.067   4.12862e-17
      306.161   4.09456e-17
      306.255   4.06075e-17
      306.350   4.02684e-17
      306.444   3.99352e-17
      306.538   3.96048e-17
      306.633   3.92735e-17
      306.727   3.89480e-17
      306.821   3.86250e-17
      306.916   3.83011e-17
      307.010   3.79874e-17
      307.105   3.76870e-17
      307.199   3.73942e-17
      307.294   3.71002e-17
      307.388   3.68116e-17
      307.483   3.65220e-17
      307.577   3.62375e-17
      307.672   3.59519e-17
      307.767   3.56684e-17
      307.861   3.53900e-17
      307.956   3.51103e-17
      308.051   3.48328e-17
      308.146   3.45576e-17
      308.240   3.42870e-17
      308.335   3.40154e-17
      308.430   3.37457e-17
      308.525   3.34783e-17
      308.620   3.32128e-17
      308.715   3.29491e-17
      308.810   3.26876e-17
      308.905   3.24278e-17
      309.000   3.21698e-17
      309.095   3.19139e-17
      309.190   3.16600e-17
      309.285   3.14079e-17
      309.380   3.11577e-17
      309.476   3.09069e-17
      309.571   3.06603e-17
      309.666   3.04157e-17
      309.761   3.01729e-17
      309.857   2.99295e-17
      309.952   2.96902e-17
      310.047   2.94530e-17
      310.143   2.92150e-17
      310.238   2.89813e-17
      310.334   2.87470e-17
      310.429   2.85168e-17
      310.525   2.82860e-17
      310.620   2.80595e-17
      310.716   2.78323e-17
      310.811   2.76093e-17
      310.907   2.73857e-17
      311.003   2.71638e-17
      311.098   2.69458e-17
      311.194   2.67273e-17
      311.290   2.65108e-17
      311.386   2.62958e-17
      311.481   2.60847e-17
      311.577   2.58730e-17
      311.673   2.56631e-17
      311.769   2.54548e-17
      311.865   2.52482e-17
      311.961   2.50439e-17
      312.057   2.48444e-17
      312.153   2.46475e-17
      312.249   2.44521e-17
      312.345   2.42584e-17
      312.441   2.40661e-17
      312.537   2.38753e-17
      312.633   2.36861e-17
      312.730   2.34963e-17
      312.826   2.33101e-17
      312.922   2.31253e-17
      313.018   2.29421e-17
      313.115   2.27584e-17
      313.211   2.25780e-17
      313.307   2.23991e-17
      313.404   2.22199e-17
      313.500   2.20438e-17
      313.597   2.18675e-17
      313.693   2.16943e-17
      313.790   2.15208e-17
      313.886   2.13505e-17
      313.983   2.11797e-17
      314.079   2.10121e-17
      314.176   2.08441e-17
      314.273   2.06775e-17
      314.369   2.05142e-17
      314.466   2.03504e-17
      314.563   2.01880e-17
      314.660   2.00268e-17
      314.756   1.98686e-17
      314.853   1.97101e-17
      314.950   1.95530e-17
      315.047   1.93972e-17
      315.144   1.92426e-17
      315.241   1.90894e-17
      315.338   1.89374e-17
      315.435   1.87867e-17
      315.532   1.86372e-17
      315.629   1.84890e-17
      315.726   1.83420e-17
      315.823   1.81962e-17
      315.921   1.80502e-17
      316.018   1.79070e-17
      316.115   1.77649e-17
      316.212   1.76240e-17
      316.310   1.74828e-17
      316.407   1.73443e-17
      316.504   1.72069e-17
      316.602   1.70693e-17
      316.699   1.69343e-17
      316.796   1.68003e-17
      316.894   1.66662e-17
      316.991   1.65348e-17
      317.089   1.64054e-17
      317.187   1.62781e-17
      317.284   1.61532e-17
      317.382   1.60280e-17
      317.479   1.59050e-17
      317.577   1.57818e-17
      317.675   1.56597e-17
      317.773   1.55386e-17
      317.870   1.54198e-17
      317.968   1.53006e-17
      318.066   1.51825e-17
      318.164   1.50653e-17
      318.262   1.49491e-17
      318.360   1.48339e-17
      318.458   1.47197e-17
      318.556   1.46065e-17
      318.654   1.44942e-17
      318.752   1.43828e-17
      318.850   1.42723e-17
      318.948   1.41627e-17
      319.046   1.40541e-17
      319.144   1.39463e-17
      319.242   1.38395e-17
      319.341   1.37324e-17
      319.439   1.36274e-17
      319.537   1.35232e-17
      319.635   1.34199e-17
      319.734   1.33163e-17
      319.832   1.32147e-17
      319.930   1.31139e-17
      320.029   1.30129e-17
      320.127   1.29138e-17
      320.226   1.28145e-17
      320.324   1.27170e-17
      320.423   1.26192e-17
      320.522   1.25225e-17
      320.620   1.24274e-17
      320.719   1.23321e-17
      320.818   1.22376e-17
      320.916   1.21448e-17
      321.015   1.20519e-17
      321.114   1.19597e-17
      321.213   1.18683e-17
      321.311   1.17785e-17
      321.410   1.16887e-17
      321.509   1.15994e-17
      321.608   1.15109e-17
      321.707   1.14232e-17
      321.806   1.13362e-17
      321.905   1.12499e-17
      322.004   1.11643e-17
      322.103   1.10794e-17
      322.202   1.09951e-17
      322.301   1.09116e-17
      322.401   1.08279e-17
      322.500   1.07458e-17
      322.599   1.06643e-17
      322.698   1.05834e-17
      322.798   1.05023e-17
      322.897   1.04228e-17
      322.996   1.03439e-17
      323.096   1.02648e-17
      323.195   1.01871e-17
      323.294   1.01100e-17
      323.394   1.00328e-17
      323.493   9.95698e-18
      323.593   9.88106e-18
      323.692   9.80643e-18
      323.792   9.73165e-18
      323.892   9.65745e-18
      323.991   9.58455e-18
      324.091   9.51159e-18
      324.191   9.43917e-18
      324.291   9.36729e-18
      324.390   9.29673e-18
      324.490   9.22599e-18
      324.590   9.15581e-18
      324.690   9.08617e-18
      324.790   9.01709e-18
      324.890   8.94857e-18
      324.990   8.88057e-18
      325.090   8.81309e-18
      325.190   8.74611e-18
      325.290   8.67970e-18
      325.390   8.61373e-18
      325.490   8.54835e-18
      325.590   8.48348e-18
      325.690   8.41899e-18
      325.790   8.35506e-18
      325.891   8.29100e-18
      325.991   8.22806e-18
      326.091   8.16558e-18
      326.192   8.10296e-18
      326.292   8.04146e-18
      326.392   7.98042e-18
      326.493   7.91925e-18
      326.593   7.85911e-18
      326.694   7.79887e-18
      326.794   7.73964e-18
      326.895   7.68027e-18
      326.995   7.62194e-18
      327.096   7.56347e-18
      327.197   7.50543e-18
      327.297   7.44840e-18
      327.398   7.39125e-18
      327.499   7.33452e-18
      327.599   7.27875e-18
      327.700   7.22284e-18
      327.801   7.16734e-18
      327.902   7.11230e-18
      328.003   7.05762e-18
      328.104   7.00337e-18
      328.205   6.94954e-18
      328.306   6.89609e-18
      328.407   6.84302e-18
      328.508   6.79032e-18
      328.609   6.73801e-18
      328.710   6.68609e-18
      328.811   6.63455e-18
      328.912   6.58342e-18
      329.013   6.53262e-18
      329.115   6.48176e-18
      329.216   6.43172e-18
      329.317   6.38201e-18
      329.419   6.33225e-18
      329.520   6.28329e-18
      329.621   6.23463e-18
      329.723   6.18590e-18
      329.824   6.13803e-18
      329.926   6.09001e-18
      330.027   6.04280e-18
      330.129   5.99546e-18
      330.230   5.94895e-18
      330.332   5.90229e-18
      330.434   5.85597e-18
      330.535   5.81045e-18
      330.637   5.76478e-18
      330.739   5.71945e-18
      330.840   5.67489e-18
      330.942   5.63021e-18
      331.044   5.58587e-18
      331.146   5.54182e-18
      331.248   5.49810e-18
      331.350   5.45472e-18
      331.452   5.41168e-18
      331.554   5.37023e-18
      331.656   5.33104e-18
      331.758   5.29211e-18
      331.860   5.25341e-18
      331.962   5.21499e-18
      332.064   5.17682e-18
      332.166   5.13893e-18
      332.268   5.10124e-18
      332.371   5.06346e-18
      332.473   5.02625e-18
      332.575   4.98927e-18
      332.677   4.95257e-18
      332.780   4.91574e-18
      332.882   4.87951e-18
      332.985   4.84316e-18
      333.087   4.80738e-18
      333.190   4.77152e-18
      333.292   4.73560e-18
      333.395   4.69790e-18
      333.497   4.66021e-18
      333.600   4.62244e-18
      333.702   4.58530e-18
      333.805   4.54807e-18
      333.908   4.51110e-18
      334.011   4.47442e-18
      334.113   4.43834e-18
      334.216   4.40217e-18
      334.319   4.36628e-18
      334.422   4.33062e-18
      334.525   4.29524e-18
      334.628   4.26011e-18
      334.731   4.22525e-18
      334.834   4.19066e-18
      334.937   4.15630e-18
      335.040   4.12219e-18
      335.143   4.08835e-18
      335.246   4.05474e-18
      335.349   4.02138e-18
      335.452   3.98827e-18
      335.555   3.95541e-18
      335.659   3.92248e-18
      335.762   3.89011e-18
      335.865   3.85801e-18
      335.969   3.82580e-18
      336.072   3.79411e-18
      336.175   3.76270e-18
      336.279   3.73122e-18
      336.382   3.70029e-18
      336.486   3.66926e-18
      336.589   3.63876e-18
      336.693   3.60824e-18
      336.796   3.57822e-18
      336.900   3.54815e-18
      337.004   3.51828e-18
      337.107   3.48895e-18
      337.211   3.45955e-18
      337.315   3.43041e-18
      337.419   3.40145e-18
      337.523   3.37271e-18
      337.626   3.34448e-18
      337.730   3.31622e-18
      337.834   3.28815e-18
      337.938   3.26032e-18
      338.042   3.23279e-18
      338.146   3.20586e-18
      338.250   3.17917e-18
      338.354   3.15270e-18
      338.458   3.12640e-18
      338.562   3.10033e-18
      338.667   3.07420e-18
      338.771   3.04851e-18
      338.875   3.02304e-18
      338.979   2.99775e-18
      339.084   2.97245e-18
      339.188   2.94756e-18
      339.292   2.92289e-18
      339.397   2.89814e-18
      339.501   2.87386e-18
      339.606   2.84951e-18
      339.710   2.82559e-18
      339.815   2.80165e-18
      339.919   2.77812e-18
      340.024   2.75454e-18
      340.128   2.73140e-18
      340.233   2.70820e-18
      340.338   2.68521e-18
      340.442   2.66260e-18
      340.547   2.63997e-18
      340.652   2.61752e-18
      340.757   2.59524e-18
      340.862   2.57316e-18
      340.966   2.55147e-18
      341.071   2.52972e-18
      341.176   2.50817e-18
      341.281   2.48679e-18
      341.386   2.46562e-18
      341.491   2.44458e-18
      341.596   2.42376e-18
      341.702   2.40290e-18
      341.807   2.38238e-18
      341.912   2.36206e-18
      342.017   2.34192e-18
      342.122   2.32192e-18
      342.228   2.30191e-18
      342.333   2.28226e-18
      342.438   2.26277e-18
      342.544   2.24328e-18
      342.649   2.22411e-18
      342.754   2.20513e-18
      342.860   2.18611e-18
      342.965   2.16742e-18
      343.071   2.14875e-18
      343.176   2.13040e-18
      343.282   2.11202e-18
      343.388   2.09382e-18
      343.493   2.07607e-18
      343.599   2.05938e-18
      343.705   2.04295e-18
      343.810   2.02678e-18
      343.916   2.01060e-18
      344.022   1.99457e-18
      344.128   1.97864e-18
      344.234   1.96285e-18
      344.340   1.94720e-18
      344.446   1.93165e-18
      344.552   1.91624e-18
      344.658   1.90098e-18
      344.764   1.88583e-18
      344.870   1.87080e-18
      344.976   1.85589e-18
      345.082   1.84111e-18
      345.188   1.82646e-18
      345.294   1.81191e-18
      345.401   1.79736e-18
      345.507   1.78306e-18
      345.613   1.76888e-18
      345.719   1.75482e-18
      345.826   1.74074e-18
      345.932   1.72691e-18
      346.039   1.71307e-18
      346.145   1.69947e-18
      346.252   1.68586e-18
      346.358   1.67249e-18
      346.465   1.65910e-18
      346.571   1.64596e-18
      346.678   1.63280e-18
      346.785   1.61974e-18
      346.891   1.60692e-18
      346.998   1.59410e-18
      347.105   1.58139e-18
      347.212   1.56877e-18
      347.319   1.55627e-18
      347.425   1.54397e-18
      347.532   1.53167e-18
      347.639   1.51949e-18
      347.746   1.50739e-18
      347.853   1.49542e-18
      347.960   1.48352e-18
      348.067   1.47175e-18
      348.174   1.46008e-18
      348.281   1.44849e-18
      348.389   1.43691e-18
      348.496   1.42551e-18
      348.603   1.41424e-18
      348.710   1.40304e-18
      348.818   1.39185e-18
      348.925   1.38085e-18
      349.032   1.36995e-18
      349.140   1.35901e-18
      349.247   1.34826e-18
      349.355   1.33753e-18
      349.462   1.32697e-18
      349.570   1.31639e-18
      349.677   1.30602e-18
      349.785   1.29563e-18
      349.892   1.28543e-18
      350.000   1.27523e-18
      350.100   1.26585e-18
      350.193   1.25721e-18
      350.287   1.24853e-18
      350.380   1.24000e-18
      350.473   1.23155e-18
      350.567   1.22306e-18
      350.660   1.21473e-18
      350.754   1.20636e-18
      350.847   1.19816e-18
      350.941   1.18993e-18
      351.034   1.18184e-18
      351.128   1.17373e-18
      351.221   1.16576e-18
      351.315   1.15777e-18
      351.409   1.14983e-18
      351.502   1.14204e-18
      351.596   1.13422e-18
      351.690   1.12646e-18
      351.783   1.11885e-18
      351.877   1.11121e-18
      351.971   1.10362e-18
      352.065   1.09609e-18
      352.159   1.08862e-18
      352.252   1.08128e-18
      352.346   1.07391e-18
      352.440   1.06660e-18
      352.534   1.05935e-18
      352.628   1.05215e-18
      352.722   1.04500e-18
      352.816   1.03790e-18
      352.910   1.03086e-18
      353.004   1.02387e-18
      353.098   1.01692e-18
      353.192   1.01003e-18
      353.287   1.00312e-18
      353.381   9.96334e-19
      353.475   9.89600e-19
      353.569   9.82903e-19
      353.663   9.76261e-19
      353.758   9.69607e-19
      353.852   9.63068e-19
      353.946   9.56573e-19
      354.041   9.50055e-19
      354.135   9.43654e-19
      354.229   9.37297e-19
      354.324   9.30928e-19
      354.418   9.24659e-19
      354.513   9.18374e-19
      354.607   9.12214e-19
      354.702   9.05997e-19
      354.796   8.99821e-19
      354.891   8.93612e-19
      354.985   8.87520e-19
      355.080   8.81402e-19
      355.175   8.75334e-19
      355.269   8.69366e-19
      355.364   8.63384e-19
      355.459   8.57445e-19
      355.553   8.51611e-19
      355.648   8.45758e-19
      355.743   8.39949e-19
      355.838   8.34174e-19
      355.933   8.28452e-19
      356.027   8.22829e-19
      356.122   8.17181e-19
      356.217   8.11575e-19
      356.312   8.06015e-19
      356.407   8.00491e-19
      356.502   7.95008e-19
      356.597   7.89557e-19
      356.692   7.84156e-19
      356.787   7.78789e-19
      356.882   7.73458e-19
      356.977   7.68169e-19
      357.073   7.62864e-19
      357.168   7.57643e-19
      357.263   7.52464e-19
      357.358   7.47323e-19
      357.453   7.42218e-19
      357.549   7.37097e-19
      357.644   7.32063e-19
      357.739   7.27067e-19
      357.835   7.22054e-19
      357.930   7.17127e-19
      358.025   7.12231e-19
      358.121   7.07320e-19
      358.216   7.02495e-19
      358.312   6.97651e-19
      358.407   6.92896e-19
      358.503   6.88121e-19
      358.598   6.83434e-19
      358.694   6.78727e-19
      358.790   6.74051e-19
      358.885   6.69454e-19
      358.981   6.64845e-19
      359.076   6.60312e-19
      359.172   6.55769e-19
      359.268   6.51249e-19
      359.364   6.46762e-19
      359.459   6.42359e-19
      359.555   6.37938e-19
      359.651   6.33543e-19
      359.747   6.29180e-19
      359.843   6.24848e-19
      359.939   6.20542e-19
      360.035   6.16270e-19
      360.131   6.12026e-19
      360.227   6.07809e-19
      360.323   6.03623e-19
      360.419   5.99467e-19
      360.515   5.95338e-19
      360.611   5.91236e-19
      360.707   5.87157e-19
      360.803   5.83112e-19
      360.899   5.79090e-19
      360.995   5.75102e-19
      361.092   5.71096e-19
      361.188   5.67155e-19
      361.284   5.63243e-19
      361.380   5.59358e-19
      361.477   5.55457e-19
      361.573   5.51623e-19
      361.669   5.47814e-19
      361.766   5.43987e-19
      361.862   5.40231e-19
      361.959   5.36460e-19
      362.055   5.32745e-19
      362.152   5.29025e-19
      362.248   5.25363e-19
      362.345   5.21687e-19
      362.441   5.18078e-19
      362.538   5.14454e-19
      362.635   5.10854e-19
      362.731   5.07310e-19
      362.828   5.03753e-19
      362.925   5.00222e-19
      363.021   4.96752e-19
      363.118   4.93267e-19
      363.215   4.89802e-19
      363.312   4.86361e-19
      363.409   4.82946e-19
      363.505   4.79585e-19
      363.602   4.76211e-19
      363.699   4.72863e-19
      363.796   4.69533e-19
      363.893   4.66224e-19
      363.990   4.62938e-19
      364.087   4.59673e-19
      364.184   4.56430e-19
      364.281   4.53207e-19
      364.378   4.50008e-19
      364.475   4.46827e-19
      364.573   4.43632e-19
      364.670   4.40491e-19
      364.767   4.37374e-19
      364.864   4.34275e-19
      364.961   4.31195e-19
      365.059   4.28105e-19
      365.156   4.25066e-19
      365.253   4.22047e-19
      365.351   4.19015e-19
      365.448   4.16034e-19
      365.545   4.13074e-19
      365.643   4.10100e-19
      365.740   4.07176e-19
      365.838   4.04242e-19
      365.935   4.01357e-19
      366.033   3.98462e-19
      366.130   3.95612e-19
      366.228   3.92753e-19
      366.326   3.89914e-19
      366.423   3.87120e-19
      366.521   3.84316e-19
      366.618   3.81557e-19
      366.716   3.78787e-19
      366.814   3.76038e-19
      366.912   3.73307e-19
      367.010   3.70593e-19
      367.107   3.67924e-19
      367.205   3.65244e-19
      367.303   3.62580e-19
      367.401   3.59936e-19
      367.499   3.57307e-19
      367.597   3.54696e-19
      367.695   3.52101e-19
      367.793   3.49525e-19
      367.891   3.46967e-19
      367.989   3.44423e-19
      368.087   3.41896e-19
      368.185   3.39385e-19
      368.283   3.36890e-19
      368.381   3.34412e-19
      368.480   3.31924e-19
      368.578   3.29479e-19
      368.676   3.27050e-19
      368.774   3.24637e-19
      368.873   3.22216e-19
      368.971   3.19834e-19
      369.069   3.17469e-19
      369.168   3.15093e-19
      369.266   3.12756e-19
      369.364   3.10437e-19
      369.463   3.08110e-19
      369.561   3.05821e-19
      369.660   3.03524e-19
      369.758   3.01265e-19
      369.857   2.98999e-19
      369.955   2.96771e-19
      370.054   2.94533e-19
      370.153   2.92310e-19
      370.251   2.90126e-19
      370.350   2.87935e-19
      370.449   2.85759e-19
      370.547   2.83618e-19
      370.646   2.81468e-19
      370.745   2.79335e-19
      370.844   2.77216e-19
      370.943   2.75111e-19
      371.041   2.73042e-19
      371.140   2.70965e-19
      371.239   2.68902e-19
      371.338   2.66855e-19
      371.437   2.64821e-19
      371.536   2.62800e-19
      371.635   2.60792e-19
      371.734   2.58800e-19
      371.833   2.56822e-19
      371.932   2.54856e-19
      372.032   2.52885e-19
      372.131   2.50945e-19
      372.230   2.49021e-19
      372.329   2.47111e-19
      372.428   2.45213e-19
      372.528   2.43310e-19
      372.627   2.41440e-19
      372.726   2.39582e-19
      372.826   2.37720e-19
      372.925   2.35888e-19
      373.024   2.34069e-19
      373.124   2.32244e-19
      373.223   2.30451e-19
      373.323   2.28653e-19
      373.422   2.26885e-19
      373.522   2.25111e-19
      373.621   2.23369e-19
      373.721   2.21621e-19
      373.820   2.19903e-19
      373.920   2.18179e-19
      374.020   2.16467e-19
      374.119   2.14786e-19
      374.219   2.13099e-19
      374.319   2.11425e-19
      374.419   2.09764e-19
      374.518   2.08130e-19
      374.618   2.06491e-19
      374.718   2.04863e-19
      374.818   2.03249e-19
      374.918   2.01647e-19
      375.018   2.00056e-19
      375.118   1.98477e-19
      375.218   1.96909e-19
      375.318   1.95353e-19
      375.418   1.93807e-19
      375.518   1.92275e-19
      375.618   1.90753e-19
      375.718   1.89242e-19
      375.818   1.87742e-19
      375.918   1.86253e-19
      376.019   1.84762e-19
      376.119   1.83296e-19
      376.219   1.81841e-19
      376.319   1.80396e-19
      376.420   1.78949e-19
      376.520   1.77526e-19
      376.620   1.76115e-19
      376.721   1.74699e-19
      376.821   1.73309e-19
      376.922   1.71915e-19
      377.022   1.70545e-19
      377.122   1.69187e-19
      377.223   1.67825e-19
      377.323   1.66488e-19
      377.424   1.65146e-19
      377.525   1.63816e-19
      377.625   1.62508e-19
      377.726   1.61198e-19
      377.827   1.59898e-19
      377.927   1.58620e-19
      378.028   1.57341e-19
      378.129   1.56071e-19
      378.230   1.54985e-19
      378.330   1.54182e-19
      378.431   1.53420e-19
      378.532   1.52662e-19
      378.633   1.51907e-19
      378.734   1.51155e-19
      378.835   1.50407e-19
      378.936   1.49663e-19
      379.037   1.48921e-19
      379.138   1.48182e-19
      379.239   1.47447e-19
      379.340   1.46716e-19
      379.441   1.45989e-19
      379.542   1.45264e-19
      379.643   1.44543e-19
      379.745   1.43818e-19
      379.846   1.43104e-19
      379.947   1.42391e-19
      380.048   1.41684e-19
      380.150   1.40973e-19
      380.251   1.40271e-19
      380.352   1.39574e-19
      380.454   1.38873e-19
      380.555   1.38182e-19
      380.656   1.37493e-19
      380.758   1.36802e-19
      380.859   1.36121e-19
      380.961   1.35437e-19
      381.062   1.34762e-19
      381.164   1.34085e-19
      381.266   1.33410e-19
      381.367   1.32746e-19
      381.469   1.32079e-19
      381.570   1.31421e-19
      381.672   1.30760e-19
      381.774   1.30102e-19
      381.876   1.29448e-19
      381.977   1.28803e-19
      382.079   1.28155e-19
      382.181   1.27511e-19
      382.283   1.26870e-19
      382.385   1.26233e-19
      382.487   1.25598e-19
      382.589   1.24967e-19
      382.691   1.24339e-19
      382.793   1.23714e-19
      382.895   1.23094e-19
      382.997   1.22476e-19
      383.099   1.21861e-19
      383.201   1.21249e-19
      383.303   1.20641e-19
      383.405   1.20035e-19
      383.507   1.19433e-19
      383.610   1.18828e-19
      383.712   1.18233e-19
      383.814   1.17641e-19
      383.916   1.17052e-19
      384.019   1.16460e-19
      384.121   1.15877e-19
      384.223   1.15297e-19
      384.326   1.14735e-19
      384.428   1.14231e-19
      384.531   1.13739e-19
      384.633   1.13255e-19
      384.736   1.12768e-19
      384.838   1.12287e-19
      384.941   1.11805e-19
      385.043   1.11329e-19
      385.146   1.10852e-19
      385.249   1.10376e-19
      385.351   1.09908e-19
      385.454   1.09437e-19
      385.557   1.08968e-19
      385.660   1.08502e-19
      385.762   1.08043e-19
      385.865   1.07581e-19
      385.968   1.07121e-19
      386.071   1.06664e-19
      386.174   1.06209e-19
      386.277   1.05756e-19
      386.380   1.05305e-19
      386.483   1.04856e-19
      386.586   1.04411e-19
      386.689   1.03967e-19
      386.792   1.03525e-19
      386.895   1.03085e-19
      386.998   1.02648e-19
      387.101   1.02213e-19
      387.204   1.01779e-19
      387.308   1.01344e-19
      387.411   1.00915e-19
      387.514   1.00489e-19
      387.617   1.00064e-19
      387.721   9.96373e-20
      387.824   9.92172e-20
      387.927   9.87987e-20
      388.031   9.83785e-20
      388.134   9.79643e-20
      388.238   9.75487e-20
      388.341   9.71386e-20
      388.445   9.67271e-20
      388.548   9.63207e-20
      388.652   9.59138e-20
      388.755   9.55121e-20
      388.859   9.51082e-20
      388.962   9.47104e-20
      389.066   9.43107e-20
      389.170   9.39133e-20
      389.274   9.35181e-20
      389.377   9.31289e-20
      389.481   9.27369e-20
      389.585   9.23473e-20
      389.689   9.19595e-20
      389.793   9.15739e-20
      389.897   9.11902e-20
      390.000   9.08124e-20
      390.104   9.04327e-20
      390.208   9.00544e-20
      390.312   8.96783e-20
      390.416   8.93033e-20
      390.520   8.89292e-20
      390.625   8.85539e-20
      390.729   8.81837e-20
      390.833   8.78154e-20
      390.937   8.74491e-20
      391.041   8.70846e-20
      391.145   8.67214e-20
      391.250   8.63572e-20
      391.354   8.59979e-20
      391.458   8.56403e-20
      391.563   8.52812e-20
      391.667   8.49275e-20
      391.771   8.45756e-20
      391.876   8.42220e-20
      391.980   8.38731e-20
      392.085   8.35228e-20
      392.189   8.31779e-20
      392.294   8.28312e-20
      392.398   8.24895e-20
      392.503   8.21462e-20
      392.607   8.18075e-20
      392.712   8.14681e-20
      392.817   8.11292e-20
      392.921   8.07964e-20
      393.026   8.04611e-20
      393.131   8.01280e-20
      393.236   7.97958e-20
      393.340   7.94693e-20
      393.445   7.91412e-20
      393.550   7.88140e-20
      393.655   7.84888e-20
      393.760   7.81651e-20
      393.865   7.78433e-20
      393.970   7.75225e-20
      394.075   7.72033e-20
      394.180   7.68864e-20
      394.285   7.65706e-20
      394.390   7.62558e-20
      394.495   7.59427e-20
      394.600   7.56314e-20
      394.706   7.53183e-20
      394.811   7.50102e-20
      394.916   7.47024e-20
      395.021   7.43968e-20
      395.126   7.40927e-20
      395.232   7.37868e-20
      395.337   7.34850e-20
      395.443   7.31824e-20
      395.548   7.28835e-20
      395.653   7.25859e-20
      395.759   7.22874e-20
      395.864   7.19931e-20
      395.970   7.16971e-20
      396.075   7.14052e-20
      396.181   7.11118e-20
      396.286   7.08219e-20
      396.392   7.05316e-20
      396.498   7.02425e-20
      396.603   6.99565e-20
      396.709   6.96694e-20
      396.815   6.93830e-20
      396.921   6.90983e-20
      397.026   6.88177e-20
      397.132   6.85358e-20
      397.238   6.82551e-20
      397.344   6.79753e-20
      397.450   6.76972e-20
      397.556   6.74198e-20
      397.662   6.71436e-20
      397.768   6.68688e-20
      397.874   6.65957e-20
      397.980   6.63225e-20
      398.086   6.60515e-20
      398.192   6.57809e-20
      398.298   6.55115e-20
      398.404   6.52441e-20
      398.510   6.49769e-20
      398.617   6.47086e-20
      398.723   6.44438e-20
      398.829   6.41801e-20
      398.935   6.39172e-20
      399.042   6.36537e-20
      399.148   6.33928e-20
      399.255   6.31309e-20
      399.361   6.28725e-20
      399.467   6.26147e-20
      399.574   6.23563e-20
      399.680   6.21006e-20
      399.787   6.18432e-20
      399.893       0.00000
      400.000       0.00000
