Filter Al-med
observation_date 2015-09-22 22:40:45
wavelength effective area
      1.00000   2.66385e-10
      1.10000   7.49525e-10
      1.20000   1.91513e-09
      1.30000   4.48763e-09
      1.40000   9.94640e-09
      1.50000   2.06563e-08
      1.60000   4.05600e-08
      1.70000   7.60802e-08
      1.80000   1.36314e-07
      1.90000   2.34794e-07
      2.00000   3.89509e-07
      2.10000   6.24956e-07
      2.20000   9.74196e-07
      2.30000   1.47333e-06
      2.40000   2.16536e-06
      2.50000   3.08216e-06
      2.60000   4.35732e-06
      2.70000   5.98550e-06
      2.80000   8.02272e-06
      2.90000   1.05765e-05
      3.00000   1.36503e-05
      3.10000   1.72895e-05
      3.20000   2.15287e-05
      3.30000   2.63714e-05
      3.40000   3.17735e-05
      3.50000   3.76844e-05
      3.60000   4.41725e-05
      3.70000   5.09424e-05
      3.80000   5.80891e-05
      3.90000   6.54408e-05
      4.00000   7.28014e-05
      4.10000   8.00789e-05
      4.20000   8.71773e-05
      4.30000   9.39796e-05
      4.40000   0.000100355
      4.50000   0.000106154
      4.60000   0.000111196
      4.70000   0.000115645
      4.80000   0.000119247
      4.90000   0.000120718
      5.00000   0.000124331
      5.10000   0.000125632
      5.20000   0.000126210
      5.30000   0.000125090
      5.40000   0.000122772
      5.50000   0.000119944
      5.60000   0.000112898
      5.70000   0.000111232
      5.80000   9.78285e-05
      5.90000   0.000111628
      6.00000   0.000111502
      6.10000   0.000105246
      6.20000   9.56338e-05
      6.30000   8.26252e-05
      6.40000   6.79009e-05
      6.50000   5.31906e-05
      6.60000   3.94878e-05
      6.70000   2.87682e-05
      6.80000   2.03591e-05
      6.90000   1.87115e-05
      7.00000   1.41975e-05
      7.10000   1.04103e-05
      7.20000   7.49013e-06
      7.30000   5.34110e-06
      7.40000   3.78171e-06
      7.50000   2.63429e-06
      7.60000   1.80272e-06
      7.70000   1.22933e-06
      7.80000   8.20073e-07
      7.90000   5.41846e-07
      8.00000      0.299074
      8.10000      0.315399
      8.20000      0.308374
      8.30000      0.299876
      8.40000      0.290820
      8.50000      0.281486
      8.60000      0.271833
      8.70000      0.262016
      8.80000      0.252008
      8.90000      0.241914
      9.00000      0.231788
      9.10000      0.221676
      9.20000      0.211620
      9.30000      0.201700
      9.40000      0.191912
      9.50000      0.182281
      9.60000      0.172891
      9.70000      0.163711
      9.80000      0.154729
      9.90000      0.146001
      10.0000      0.137530
      10.1000      0.129315
      10.2000      0.121370
      10.3000      0.113752
      10.4000      0.106466
      10.5000     0.0994872
      10.6000     0.0928181
      10.7000     0.0864587
      10.8000     0.0804212
      10.9000     0.0747163
      11.0000     0.0693082
      11.1000     0.0641928
      11.2000     0.0593628
      11.3000     0.0548128
      11.4000     0.0505335
      11.5000     0.0465154
      11.6000     0.0427501
      11.7000     0.0392418
      11.8000     0.0359705
      11.9000     0.0329493
      12.0000     0.0301212
      12.1000     0.0276102
      12.2000     0.0257370
      12.3000     0.0236818
      12.4000     0.0215850
      12.5000     0.0196304
      12.6000     0.0178202
      12.7000     0.0161494
      12.8000     0.0146120
      12.9000     0.0132010
      13.0000     0.0119086
      13.1000     0.0107265
      13.2000    0.00964719
      13.3000    0.00866323
      13.4000    0.00776791
      13.5000    0.00695666
      13.6000    0.00622791
      13.7000    0.00556752
      13.8000    0.00496978
      13.9000    0.00442965
      14.0000    0.00394214
      14.1000    0.00350258
      14.2000    0.00310679
      14.3000    0.00275094
      14.4000    0.00243152
      14.5000    0.00214718
      14.6000    0.00189569
      14.7000    0.00167065
      14.8000    0.00146951
      14.9000    0.00128995
      15.0000    0.00112993
      15.1000   0.000987555
      15.2000   0.000864055
      15.3000   0.000754863
      15.4000   0.000657945
      15.5000   0.000572069
      15.6000   0.000496143
      15.7000   0.000430227
      15.8000   0.000373369
      15.9000   0.000323218
      16.0000   0.000279071
      16.1000   0.000240304
      16.2000   0.000207484
      16.3000   0.000178949
      16.4000   0.000153833
      16.5000   0.000131784
      16.6000   0.000112937
      16.7000   9.69066e-05
      16.8000   8.28152e-05
      16.9000   7.04743e-05
      17.0000   6.00340e-05
      17.1000   5.11990e-05
      17.2000   4.34506e-05
      17.3000   3.66942e-05
      17.4000   3.12059e-05
      17.5000   2.65248e-05
      17.6000   2.24650e-05
      17.7000   1.90373e-05
      17.8000   1.62749e-05
      17.9000   1.38374e-05
      18.0000   1.16895e-05
      18.1000   9.94155e-06
      18.2000   8.39705e-06
      18.3000   7.02635e-06
      18.4000   5.88399e-06
      18.5000   4.90383e-06
      18.6000   4.03777e-06
      18.7000   3.31942e-06
      18.8000   2.72831e-06
      18.9000   2.21714e-06
      19.0000   1.81196e-06
      19.1000   1.48141e-06
      19.2000   1.19688e-06
      19.3000   9.77869e-07
      19.4000   7.96903e-07
      19.5000   6.41402e-07
      19.6000   5.26017e-07
      19.7000   4.27396e-07
      19.8000   3.43632e-07
      19.9000   2.82093e-07
      20.0000   2.27834e-07
      20.1000   1.84068e-07
      20.2000   1.49682e-07
      20.3000   1.19592e-07
      20.4000   9.70475e-08
      20.5000   7.79764e-08
      20.6000   6.20000e-08
      20.7000   5.02019e-08
      20.8000   3.97574e-08
      20.9000   3.18852e-08
      21.0000   2.54030e-08
      21.1000   1.99643e-08
      21.2000   1.60371e-08
      21.3000   1.25418e-08
      21.4000   9.99593e-09
      21.5000   7.86217e-09
      21.6000   6.14561e-09
      21.7000   4.87023e-09
      21.8000   3.74224e-09
      21.9000   2.98270e-09
      22.0000   2.30181e-09
      22.1000   1.80256e-09
      22.2000   1.39555e-09
      22.3000   1.06869e-09
      22.4000   8.20487e-10
      22.5000   5.97963e-10
      22.6000   4.29177e-10
      22.7000   2.89347e-10
      22.8000   2.77128e-10
      22.9000   2.73599e-10
      23.0000   2.77560e-10
      23.1000   2.58008e-10
      23.2000   2.16843e-10
      23.3000   1.76625e-10
      23.4000   1.36968e-10
      23.5000   1.08581e-10
      23.6000   8.30077e-11
      23.7000   6.59054e-11
      23.8000   4.97468e-11
      23.9000   3.94954e-11
      24.0000   2.97815e-11
      24.1000   2.34489e-11
      24.2000   1.76458e-11
      24.3000   1.38022e-11
      24.4000   1.03795e-11
      24.5000   8.07584e-12
      24.6000   6.06994e-12
      24.7000   4.70096e-12
      24.8000   3.53012e-12
      24.9000   2.72944e-12
      25.0000   2.04910e-12
      25.1000   1.57974e-12
      25.2000   1.18211e-12
      25.3000   9.10812e-13
      25.4000   6.79193e-13
      25.5000   5.22788e-13
      25.6000   3.87436e-13
      25.7000   2.98333e-13
      25.8000   2.19485e-13
      25.9000   1.69213e-13
      26.0000   1.23372e-13
      26.1000   9.53370e-14
      26.2000   6.87887e-14
      26.3000   5.33360e-14
      26.4000   3.80295e-14
      26.5000   2.96127e-14
      26.6000   2.12374e-14
      26.7000   1.63078e-14
      26.8000   1.18054e-14
      26.9000   8.90543e-15
      27.0000   6.51446e-15
      27.1000   4.81796e-15
      27.2000   3.56354e-15
      27.3000   2.58300e-15
      27.4000   1.94213e-15
      27.5000   1.38270e-15
      27.6000   1.04963e-15
      27.7000   7.27343e-16
      27.8000   5.58741e-16
      27.9000   3.90964e-16
      28.0000   2.93747e-16
      28.1000   2.10581e-16
      28.2000   1.53164e-16
      28.3000   1.12948e-16
      28.4000   7.98700e-17
      28.5000   6.01877e-17
      28.6000   4.13200e-17
      28.7000   3.20725e-17
      28.8000   2.28712e-17
      28.9000   1.72430e-17
      29.0000   1.26478e-17
      29.1000   9.14725e-18
      29.2000   6.88170e-18
      29.3000   4.78620e-18
      29.4000   3.68348e-18
      29.5000   2.58638e-18
      29.6000   1.93925e-18
      29.7000   1.41234e-18
      29.8000   1.00409e-18
      29.9000   7.54434e-19
      30.0000   5.11242e-19
      30.1000   3.94559e-19
      30.2000   2.78471e-19
      30.3000   2.04015e-19
      30.4000   1.53434e-19
      30.5000   1.08247e-19
      30.6000   8.23666e-20
      30.7000   5.66191e-20
      30.8000   4.17675e-20
      30.9000   3.02256e-20
      31.0000   2.06846e-20
      31.1000   1.55864e-20
      31.2000   1.05146e-20
      31.3000   7.79620e-21
      31.4000   5.58950e-21
      31.5000   3.79328e-21
      31.6000   2.84773e-21
      31.7000   1.90712e-21
      31.8000   1.39995e-21
      31.9000   1.00310e-21
      32.0000   6.66894e-22
      32.1000   5.02070e-22
      32.2000   3.38106e-22
      32.3000   2.41344e-22
      32.4000   1.74363e-22
      32.5000   1.12070e-22
      32.6000   8.51637e-23
      32.7000   5.83967e-23
      32.8000   3.98411e-23
      32.9000   2.92559e-23
      33.0000   1.87263e-23
      33.1000   1.38513e-23
      33.2000   9.75931e-24
      33.3000   6.27268e-24
      33.4000   4.70806e-24
      33.5000   3.15143e-24
      33.6000   2.14701e-24
      33.7000   1.56220e-24
      33.8000   9.80317e-25
      33.9000   7.20178e-25
      34.0000   5.05416e-25
      34.1000   3.14312e-25
      34.2000   2.35419e-25
      34.3000   1.56894e-25
      34.4000   1.00875e-25
      34.5000   7.36827e-26
      34.6000   4.66202e-26
      34.7000   3.14878e-26
      34.8000   2.19158e-26
      34.9000   1.23886e-26
      35.0000   8.86002e-27
      35.1000   5.96349e-27
      35.2000   3.29802e-27
      35.3000   2.43853e-27
      35.4000   1.58308e-27
      35.5000   9.04514e-28
      35.6000   6.56863e-28
      35.7000   4.10379e-28
      35.8000   2.42848e-28
      35.9000   1.73273e-28
      36.0000   1.04025e-28
      36.1000   6.38466e-29
      36.2000   4.47958e-29
      36.3000   2.58350e-29
      36.4000   1.64400e-29
      36.5000   1.13581e-29
      36.6000   6.30057e-30
      36.7000   4.14555e-30
      36.8000   2.82640e-30
      36.9000   1.51360e-30
      37.0000   1.02414e-30
      37.1000   6.90969e-31
      37.2000   3.59377e-31
      37.3000   2.47879e-31
      37.4000   1.66038e-31
      37.5000   8.45928e-32
      37.6000   5.87681e-32
      37.7000   3.92317e-32
      37.8000   1.97898e-32
      37.9000   1.36451e-32
      38.0000   9.11424e-33
      38.1000   4.60509e-33
      38.2000   3.10063e-33
      38.3000   2.08039e-33
      38.4000   1.06505e-33
      38.5000   6.88870e-34
      38.6000   4.66044e-34
      38.7000   2.44290e-34
      38.8000   1.49523e-34
      38.9000   1.02336e-34
      39.0000   5.53741e-35
      39.1000   3.16726e-35
      39.2000   2.19893e-35
      39.3000   1.23525e-35
      39.4000   6.53887e-36
      39.5000   4.61451e-36
      39.6000   2.69954e-36
      39.7000   1.31394e-36
      39.8000   9.43881e-37
      39.9000   5.75599e-37
      40.0000   2.56636e-37
      40.1000   1.87807e-37
      40.2000   1.19309e-37
      40.3000   5.11499e-38
      40.4000   3.62796e-38
      40.5000   2.39665e-38
      40.6000   1.17125e-38
      40.7000   6.79121e-39
      40.8000   4.65313e-39
      40.9000   2.52553e-39
      41.0000   1.22939e-39
      41.1000   8.71221e-40
      41.2000   5.14817e-40
      41.3000   2.14944e-40
      41.4000   1.57093e-40
      41.5000   9.95104e-41
      41.6000   4.22113e-41
      41.7000   2.72468e-41
      41.8000   1.82785e-41
      41.9000   9.35507e-42
      42.0000   4.54301e-42
      42.1000   3.19496e-42
      42.2000   1.85672e-42
      42.3000   7.25873e-43
      42.4000   5.29691e-43
      42.5000   3.39114e-43
      42.6000   1.47136e-43
      42.7000   8.26766e-44
      42.8000   5.46506e-44
      42.9000   2.94273e-44
      43.0000   1.26117e-44
      43.1000   9.80909e-45
      43.2000   7.00649e-45
      43.3000       0.00000
      43.4000   2.80260e-45
      43.5000   2.80260e-45
      43.6000   2.80260e-45
      43.7000       0.00000
      43.8000       0.00000
      43.9000       0.00000
      44.0000       0.00000
      44.1000       0.00000
      44.2000       0.00000
      44.3000       0.00000
      44.4000       0.00000
      44.5000       0.00000
      44.6000       0.00000
      44.7000       0.00000
      44.8000       0.00000
      44.9000       0.00000
      45.0000       0.00000
      45.1000       0.00000
      45.2000       0.00000
      45.3000       0.00000
      45.4000       0.00000
      45.5000       0.00000
      45.6000       0.00000
      45.7000       0.00000
      45.8000       0.00000
      45.9000       0.00000
      46.0000       0.00000
      46.1000       0.00000
      46.2000       0.00000
      46.3000       0.00000
      46.4000       0.00000
      46.5000       0.00000
      46.6000       0.00000
      46.7000       0.00000
      46.8000       0.00000
      46.9000       0.00000
      47.0000       0.00000
      47.1000       0.00000
      47.2000       0.00000
      47.3000       0.00000
      47.4000       0.00000
      47.5000       0.00000
      47.6000       0.00000
      47.7000       0.00000
      47.8000       0.00000
      47.9000       0.00000
      48.0000       0.00000
      48.1000       0.00000
      48.2000       0.00000
      48.3000       0.00000
      48.4000       0.00000
      48.5000       0.00000
      48.6000       0.00000
      48.7000       0.00000
      48.8000       0.00000
      48.9000       0.00000
      49.0000       0.00000
      49.1000       0.00000
      49.2000       0.00000
      49.3000       0.00000
      49.4000       0.00000
      49.5000       0.00000
      49.6000       0.00000
      49.7000       0.00000
      49.8000       0.00000
      49.9000       0.00000
      50.0000       0.00000
      50.1000       0.00000
      50.2000       0.00000
      50.3000       0.00000
      50.4000       0.00000
      50.5000       0.00000
      50.6000       0.00000
      50.7000       0.00000
      50.8000       0.00000
      50.9000       0.00000
      51.0000       0.00000
      51.1000       0.00000
      51.2000       0.00000
      51.3000       0.00000
      51.4000       0.00000
      51.5000       0.00000
      51.6000       0.00000
      51.7000       0.00000
      51.8000       0.00000
      51.9000       0.00000
      52.0000       0.00000
      52.1000       0.00000
      52.2000       0.00000
      52.3000       0.00000
      52.4000       0.00000
      52.5000       0.00000
      52.6000       0.00000
      52.7000       0.00000
      52.8000       0.00000
      52.9000       0.00000
      53.0000       0.00000
      53.1000       0.00000
      53.2000       0.00000
      53.3000       0.00000
      53.4000       0.00000
      53.5000       0.00000
      53.6000       0.00000
      53.7000       0.00000
      53.8000       0.00000
      53.9000       0.00000
      54.0000       0.00000
      54.1000       0.00000
      54.2000       0.00000
      54.3000       0.00000
      54.4000       0.00000
      54.5000       0.00000
      54.6000       0.00000
      54.7000       0.00000
      54.8000       0.00000
      54.9000       0.00000
      55.0000       0.00000
      55.1000       0.00000
      55.2000       0.00000
      55.3000       0.00000
      55.4000       0.00000
      55.5000       0.00000
      55.6000       0.00000
      55.7000       0.00000
      55.8000       0.00000
      55.9000       0.00000
      56.0000       0.00000
      56.1000       0.00000
      56.2000       0.00000
      56.3000       0.00000
      56.4000       0.00000
      56.5000       0.00000
      56.6000       0.00000
      56.7000       0.00000
      56.8000       0.00000
      56.9000       0.00000
      57.0000       0.00000
      57.1000       0.00000
      57.2000       0.00000
      57.3000       0.00000
      57.4000       0.00000
      57.5000       0.00000
      57.6000       0.00000
      57.7000       0.00000
      57.8000       0.00000
      57.9000       0.00000
      58.0000       0.00000
      58.1000       0.00000
      58.2000       0.00000
      58.3000       0.00000
      58.4000       0.00000
      58.5000       0.00000
      58.6000       0.00000
      58.7000       0.00000
      58.8000       0.00000
      58.9000       0.00000
      59.0000       0.00000
      59.1000       0.00000
      59.2000       0.00000
      59.3000       0.00000
      59.4000       0.00000
      59.5000       0.00000
      59.6000       0.00000
      59.7000       0.00000
      59.8000       0.00000
      59.9000       0.00000
      60.0000       0.00000
      60.1000       0.00000
      60.2000       0.00000
      60.3000       0.00000
      60.4000       0.00000
      60.5000       0.00000
      60.6000       0.00000
      60.7000       0.00000
      60.8000       0.00000
      60.9000       0.00000
      61.0000       0.00000
      61.1000       0.00000
      61.2000       0.00000
      61.3000       0.00000
      61.4000       0.00000
      61.5000       0.00000
      61.6000       0.00000
      61.7000       0.00000
      61.8000       0.00000
      61.9000       0.00000
      62.0000       0.00000
      62.1000       0.00000
      62.2000       0.00000
      62.3000       0.00000
      62.4000       0.00000
      62.5000       0.00000
      62.6000       0.00000
      62.7000       0.00000
      62.8000       0.00000
      62.9000       0.00000
      63.0000       0.00000
      63.1000       0.00000
      63.2000       0.00000
      63.3000       0.00000
      63.4000       0.00000
      63.5000       0.00000
      63.6000       0.00000
      63.7000       0.00000
      63.8000       0.00000
      63.9000       0.00000
      64.0000       0.00000
      64.1000       0.00000
      64.2000       0.00000
      64.3000       0.00000
      64.4000       0.00000
      64.5000       0.00000
      64.6000       0.00000
      64.7000       0.00000
      64.8000       0.00000
      64.9000       0.00000
      65.0000       0.00000
      65.1000       0.00000
      65.2000       0.00000
      65.3000       0.00000
      65.4000       0.00000
      65.5000       0.00000
      65.6000       0.00000
      65.7000       0.00000
      65.8000       0.00000
      65.9000       0.00000
      66.0000       0.00000
      66.1000       0.00000
      66.2000       0.00000
      66.3000       0.00000
      66.4000       0.00000
      66.5000       0.00000
      66.6000       0.00000
      66.7000       0.00000
      66.8000       0.00000
      66.9000       0.00000
      67.0000       0.00000
      67.1000       0.00000
      67.2000       0.00000
      67.3000       0.00000
      67.4000       0.00000
      67.5000       0.00000
      67.6000       0.00000
      67.7000       0.00000
      67.8000       0.00000
      67.9000       0.00000
      68.0000       0.00000
      68.1000       0.00000
      68.2000       0.00000
      68.3000       0.00000
      68.4000       0.00000
      68.5000       0.00000
      68.6000       0.00000
      68.7000       0.00000
      68.8000       0.00000
      68.9000       0.00000
      69.0000       0.00000
      69.1000       0.00000
      69.2000       0.00000
      69.3000       0.00000
      69.4000       0.00000
      69.5000       0.00000
      69.6000       0.00000
      69.7000       0.00000
      69.8000       0.00000
      69.9000       0.00000
      70.0000       0.00000
      70.1000       0.00000
      70.2000       0.00000
      70.3000       0.00000
      70.4000       0.00000
      70.5000       0.00000
      70.6000       0.00000
      70.7000       0.00000
      70.8000       0.00000
      70.9000       0.00000
      71.0000       0.00000
      71.1000       0.00000
      71.2000       0.00000
      71.3000       0.00000
      71.4000       0.00000
      71.5000       0.00000
      71.6000       0.00000
      71.7000       0.00000
      71.8000       0.00000
      71.9000       0.00000
      72.0000       0.00000
      72.1000       0.00000
      72.2000       0.00000
      72.3000       0.00000
      72.4000       0.00000
      72.5000       0.00000
      72.6000       0.00000
      72.7000       0.00000
      72.8000       0.00000
      72.9000       0.00000
      73.0000       0.00000
      73.1000       0.00000
      73.2000       0.00000
      73.3000       0.00000
      73.4000       0.00000
      73.5000       0.00000
      73.6000       0.00000
      73.7000       0.00000
      73.8000       0.00000
      73.9000       0.00000
      74.0000       0.00000
      74.1000       0.00000
      74.2000       0.00000
      74.3000       0.00000
      74.4000       0.00000
      74.5000       0.00000
      74.6000       0.00000
      74.7000       0.00000
      74.8000       0.00000
      74.9000       0.00000
      75.0000       0.00000
      75.1000       0.00000
      75.2000       0.00000
      75.3000       0.00000
      75.4000       0.00000
      75.5000       0.00000
      75.6000       0.00000
      75.7000       0.00000
      75.8000       0.00000
      75.9000       0.00000
      76.0000       0.00000
      76.1000       0.00000
      76.2000       0.00000
      76.3000       0.00000
      76.4000       0.00000
      76.5000       0.00000
      76.6000       0.00000
      76.7000       0.00000
      76.8000       0.00000
      76.9000       0.00000
      77.0000       0.00000
      77.1000       0.00000
      77.2000       0.00000
      77.3000       0.00000
      77.4000       0.00000
      77.5000       0.00000
      77.6000       0.00000
      77.7000       0.00000
      77.8000       0.00000
      77.9000       0.00000
      78.0000       0.00000
      78.1000       0.00000
      78.2000       0.00000
      78.3000       0.00000
      78.4000       0.00000
      78.5000       0.00000
      78.6000       0.00000
      78.7000       0.00000
      78.8000       0.00000
      78.9000       0.00000
      79.0000       0.00000
      79.1000       0.00000
      79.2000       0.00000
      79.3000       0.00000
      79.4000       0.00000
      79.5000       0.00000
      79.6000       0.00000
      79.7000       0.00000
      79.8000       0.00000
      79.9000       0.00000
      80.0000       0.00000
      80.1000       0.00000
      80.2000       0.00000
      80.3000       0.00000
      80.4000       0.00000
      80.5000       0.00000
      80.6000       0.00000
      80.7000       0.00000
      80.8000       0.00000
      80.9000       0.00000
      81.0000       0.00000
      81.1000       0.00000
      81.2000       0.00000
      81.3000       0.00000
      81.4000       0.00000
      81.5000       0.00000
      81.6000       0.00000
      81.7000       0.00000
      81.8000       0.00000
      81.9000       0.00000
      82.0000       0.00000
      82.1000       0.00000
      82.2000       0.00000
      82.3000       0.00000
      82.4000       0.00000
      82.5000       0.00000
      82.6000       0.00000
      82.7000       0.00000
      82.8000       0.00000
      82.9000       0.00000
      83.0000       0.00000
      83.1000       0.00000
      83.2000       0.00000
      83.3000       0.00000
      83.4000       0.00000
      83.5000       0.00000
      83.6000       0.00000
      83.7000       0.00000
      83.8000       0.00000
      83.9000       0.00000
      84.0000       0.00000
      84.1000       0.00000
      84.2000       0.00000
      84.3000       0.00000
      84.4000       0.00000
      84.5000       0.00000
      84.6000       0.00000
      84.7000       0.00000
      84.8000       0.00000
      84.9000       0.00000
      85.0000       0.00000
      85.1000       0.00000
      85.2000       0.00000
      85.3000       0.00000
      85.4000       0.00000
      85.5000       0.00000
      85.6000       0.00000
      85.7000       0.00000
      85.8000       0.00000
      85.9000       0.00000
      86.0000       0.00000
      86.1000       0.00000
      86.2000       0.00000
      86.3000       0.00000
      86.4000       0.00000
      86.5000       0.00000
      86.6000       0.00000
      86.7000       0.00000
      86.8000       0.00000
      86.9000       0.00000
      87.0000       0.00000
      87.1000       0.00000
      87.2000       0.00000
      87.3000       0.00000
      87.4000       0.00000
      87.5000       0.00000
      87.6000       0.00000
      87.7000       0.00000
      87.8000       0.00000
      87.9000       0.00000
      88.0000       0.00000
      88.1000       0.00000
      88.2000       0.00000
      88.3000       0.00000
      88.4000       0.00000
      88.5000       0.00000
      88.6000       0.00000
      88.7000       0.00000
      88.8000       0.00000
      88.9000       0.00000
      89.0000       0.00000
      89.1000       0.00000
      89.2000       0.00000
      89.3000       0.00000
      89.4000       0.00000
      89.5000       0.00000
      89.6000       0.00000
      89.7000       0.00000
      89.8000       0.00000
      89.9000       0.00000
      90.0000       0.00000
      90.1000       0.00000
      90.2000       0.00000
      90.3000       0.00000
      90.4000       0.00000
      90.5000       0.00000
      90.6000       0.00000
      90.7000       0.00000
      90.8000       0.00000
      90.9000       0.00000
      91.0000       0.00000
      91.1000       0.00000
      91.2000       0.00000
      91.3000       0.00000
      91.4000       0.00000
      91.5000       0.00000
      91.6000       0.00000
      91.7000       0.00000
      91.8000       0.00000
      91.9000       0.00000
      92.0000       0.00000
      92.1000       0.00000
      92.2000       0.00000
      92.3000       0.00000
      92.4000       0.00000
      92.5000       0.00000
      92.6000       0.00000
      92.7000       0.00000
      92.8000       0.00000
      92.9000       0.00000
      93.0000       0.00000
      93.1000       0.00000
      93.2000       0.00000
      93.3000       0.00000
      93.4000       0.00000
      93.5000       0.00000
      93.6000       0.00000
      93.7000       0.00000
      93.8000       0.00000
      93.9000       0.00000
      94.0000       0.00000
      94.1000       0.00000
      94.2000       0.00000
      94.3000       0.00000
      94.4000       0.00000
      94.5000       0.00000
      94.6000       0.00000
      94.7000       0.00000
      94.8000       0.00000
      94.9000       0.00000
      95.0000       0.00000
      95.1000       0.00000
      95.2000       0.00000
      95.3000       0.00000
      95.4000       0.00000
      95.5000       0.00000
      95.6000       0.00000
      95.7000       0.00000
      95.8000       0.00000
      95.9000       0.00000
      96.0000       0.00000
      96.1000       0.00000
      96.2000       0.00000
      96.3000       0.00000
      96.4000       0.00000
      96.5000       0.00000
      96.6000       0.00000
      96.7000       0.00000
      96.8000       0.00000
      96.9000       0.00000
      97.0000       0.00000
      97.1000       0.00000
      97.2000       0.00000
      97.3000       0.00000
      97.4000       0.00000
      97.5000       0.00000
      97.6000       0.00000
      97.7000       0.00000
      97.8000       0.00000
      97.9000       0.00000
      98.0000       0.00000
      98.1000       0.00000
      98.2000       0.00000
      98.3000       0.00000
      98.4000       0.00000
      98.5000       0.00000
      98.6000       0.00000
      98.7000       0.00000
      98.8000       0.00000
      98.9000       0.00000
      99.0000       0.00000
      99.1000       0.00000
      99.2000       0.00000
      99.3000       0.00000
      99.4000       0.00000
      99.5000       0.00000
      99.6000       0.00000
      99.7000       0.00000
      99.8000       0.00000
      99.9000       0.00000
      100.000       0.00000
      100.100       0.00000
      100.200       0.00000
      100.300       0.00000
      100.400       0.00000
      100.500       0.00000
      100.600       0.00000
      100.700       0.00000
      100.800       0.00000
      100.900       0.00000
      101.000       0.00000
      101.100       0.00000
      101.200       0.00000
      101.300       0.00000
      101.400       0.00000
      101.500       0.00000
      101.600       0.00000
      101.700       0.00000
      101.800       0.00000
      101.900       0.00000
      102.000       0.00000
      102.100       0.00000
      102.200       0.00000
      102.300       0.00000
      102.400       0.00000
      102.500       0.00000
      102.600       0.00000
      102.700       0.00000
      102.800       0.00000
      102.900       0.00000
      103.000       0.00000
      103.100       0.00000
      103.200       0.00000
      103.300       0.00000
      103.400       0.00000
      103.500       0.00000
      103.600       0.00000
      103.700       0.00000
      103.800       0.00000
      103.900       0.00000
      104.000       0.00000
      104.100       0.00000
      104.200       0.00000
      104.300       0.00000
      104.400       0.00000
      104.500       0.00000
      104.600       0.00000
      104.700       0.00000
      104.800       0.00000
      104.900       0.00000
      105.000       0.00000
      105.100       0.00000
      105.200       0.00000
      105.300       0.00000
      105.400       0.00000
      105.500       0.00000
      105.600       0.00000
      105.700       0.00000
      105.800       0.00000
      105.900       0.00000
      106.000       0.00000
      106.100       0.00000
      106.200       0.00000
      106.300       0.00000
      106.400       0.00000
      106.500       0.00000
      106.600       0.00000
      106.700       0.00000
      106.800       0.00000
      106.900       0.00000
      107.000       0.00000
      107.100       0.00000
      107.200       0.00000
      107.300       0.00000
      107.400       0.00000
      107.500       0.00000
      107.600       0.00000
      107.700       0.00000
      107.800       0.00000
      107.900       0.00000
      108.000       0.00000
      108.100       0.00000
      108.200       0.00000
      108.300       0.00000
      108.400       0.00000
      108.500       0.00000
      108.600       0.00000
      108.700       0.00000
      108.800       0.00000
      108.900       0.00000
      109.000       0.00000
      109.100       0.00000
      109.200       0.00000
      109.300       0.00000
      109.400       0.00000
      109.500       0.00000
      109.600       0.00000
      109.700       0.00000
      109.800       0.00000
      109.900       0.00000
      110.000       0.00000
      110.100       0.00000
      110.200       0.00000
      110.300       0.00000
      110.400       0.00000
      110.500       0.00000
      110.600       0.00000
      110.700       0.00000
      110.800       0.00000
      110.900       0.00000
      111.000       0.00000
      111.100       0.00000
      111.200       0.00000
      111.300       0.00000
      111.400       0.00000
      111.500       0.00000
      111.600       0.00000
      111.700       0.00000
      111.800       0.00000
      111.900       0.00000
      112.000       0.00000
      112.100       0.00000
      112.200       0.00000
      112.300       0.00000
      112.400       0.00000
      112.500       0.00000
      112.600       0.00000
      112.700       0.00000
      112.800       0.00000
      112.900       0.00000
      113.000       0.00000
      113.100       0.00000
      113.200       0.00000
      113.300       0.00000
      113.400       0.00000
      113.500       0.00000
      113.600       0.00000
      113.700       0.00000
      113.800       0.00000
      113.900       0.00000
      114.000       0.00000
      114.100       0.00000
      114.200       0.00000
      114.300       0.00000
      114.400       0.00000
      114.500       0.00000
      114.600       0.00000
      114.700       0.00000
      114.800       0.00000
      114.900       0.00000
      115.000       0.00000
      115.100       0.00000
      115.200       0.00000
      115.300       0.00000
      115.400       0.00000
      115.500       0.00000
      115.600       0.00000
      115.700       0.00000
      115.800       0.00000
      115.900       0.00000
      116.000       0.00000
      116.100       0.00000
      116.200       0.00000
      116.300       0.00000
      116.400       0.00000
      116.500       0.00000
      116.600       0.00000
      116.700       0.00000
      116.800       0.00000
      116.900       0.00000
      117.000       0.00000
      117.100       0.00000
      117.200       0.00000
      117.300       0.00000
      117.400       0.00000
      117.500       0.00000
      117.600       0.00000
      117.700       0.00000
      117.800       0.00000
      117.900       0.00000
      118.000       0.00000
      118.100       0.00000
      118.200       0.00000
      118.300       0.00000
      118.400       0.00000
      118.500       0.00000
      118.600       0.00000
      118.700       0.00000
      118.800       0.00000
      118.900       0.00000
      119.000       0.00000
      119.100       0.00000
      119.200       0.00000
      119.300       0.00000
      119.400       0.00000
      119.500       0.00000
      119.600       0.00000
      119.700       0.00000
      119.800       0.00000
      119.900       0.00000
      120.000       0.00000
      120.100       0.00000
      120.200       0.00000
      120.300       0.00000
      120.400       0.00000
      120.500       0.00000
      120.600       0.00000
      120.700       0.00000
      120.800       0.00000
      120.900       0.00000
      121.000       0.00000
      121.100       0.00000
      121.200       0.00000
      121.300       0.00000
      121.400       0.00000
      121.500       0.00000
      121.600       0.00000
      121.700       0.00000
      121.800       0.00000
      121.900       0.00000
      122.000       0.00000
      122.100       0.00000
      122.200       0.00000
      122.300       0.00000
      122.400       0.00000
      122.500       0.00000
      122.600       0.00000
      122.700       0.00000
      122.800       0.00000
      122.900       0.00000
      123.000       0.00000
      123.100       0.00000
      123.200       0.00000
      123.300       0.00000
      123.400       0.00000
      123.500       0.00000
      123.600       0.00000
      123.700       0.00000
      123.800       0.00000
      123.900       0.00000
      124.000       0.00000
      124.100       0.00000
      124.200       0.00000
      124.300       0.00000
      124.400       0.00000
      124.500       0.00000
      124.600       0.00000
      124.700       0.00000
      124.800       0.00000
      124.900       0.00000
      125.000       0.00000
      125.100       0.00000
      125.200       0.00000
      125.300       0.00000
      125.400       0.00000
      125.500       0.00000
      125.600       0.00000
      125.700       0.00000
      125.800       0.00000
      125.900       0.00000
      126.000       0.00000
      126.100       0.00000
      126.200       0.00000
      126.300       0.00000
      126.400       0.00000
      126.500       0.00000
      126.600       0.00000
      126.700       0.00000
      126.800       0.00000
      126.900       0.00000
      127.000       0.00000
      127.100       0.00000
      127.200       0.00000
      127.300       0.00000
      127.400       0.00000
      127.500       0.00000
      127.600       0.00000
      127.700       0.00000
      127.800       0.00000
      127.900       0.00000
      128.000       0.00000
      128.100       0.00000
      128.200       0.00000
      128.300       0.00000
      128.400       0.00000
      128.500       0.00000
      128.600       0.00000
      128.700       0.00000
      128.800       0.00000
      128.900       0.00000
      129.000       0.00000
      129.100       0.00000
      129.200       0.00000
      129.300       0.00000
      129.400       0.00000
      129.500       0.00000
      129.600       0.00000
      129.700       0.00000
      129.800       0.00000
      129.900       0.00000
      130.000       0.00000
      130.100       0.00000
      130.200       0.00000
      130.300       0.00000
      130.400       0.00000
      130.500       0.00000
      130.600       0.00000
      130.700       0.00000
      130.800       0.00000
      130.900       0.00000
      131.000       0.00000
      131.100       0.00000
      131.200       0.00000
      131.300       0.00000
      131.400       0.00000
      131.500       0.00000
      131.600       0.00000
      131.700       0.00000
      131.800       0.00000
      131.900       0.00000
      132.000       0.00000
      132.100       0.00000
      132.200       0.00000
      132.300       0.00000
      132.400       0.00000
      132.500       0.00000
      132.600       0.00000
      132.700       0.00000
      132.800       0.00000
      132.900       0.00000
      133.000       0.00000
      133.100       0.00000
      133.200       0.00000
      133.300       0.00000
      133.400       0.00000
      133.500       0.00000
      133.600       0.00000
      133.700       0.00000
      133.800       0.00000
      133.900       0.00000
      134.000       0.00000
      134.100       0.00000
      134.200       0.00000
      134.300       0.00000
      134.400       0.00000
      134.500       0.00000
      134.600       0.00000
      134.700       0.00000
      134.800       0.00000
      134.900       0.00000
      135.000       0.00000
      135.100       0.00000
      135.200       0.00000
      135.300       0.00000
      135.400       0.00000
      135.500       0.00000
      135.600       0.00000
      135.700       0.00000
      135.800       0.00000
      135.900       0.00000
      136.000       0.00000
      136.100       0.00000
      136.200       0.00000
      136.300       0.00000
      136.400       0.00000
      136.500       0.00000
      136.600       0.00000
      136.700       0.00000
      136.800       0.00000
      136.900       0.00000
      137.000       0.00000
      137.100       0.00000
      137.200       0.00000
      137.300       0.00000
      137.400       0.00000
      137.500       0.00000
      137.600       0.00000
      137.700       0.00000
      137.800       0.00000
      137.900       0.00000
      138.000       0.00000
      138.100       0.00000
      138.200       0.00000
      138.300       0.00000
      138.400       0.00000
      138.500       0.00000
      138.600       0.00000
      138.700       0.00000
      138.800       0.00000
      138.900       0.00000
      139.000       0.00000
      139.100       0.00000
      139.200       0.00000
      139.300       0.00000
      139.400       0.00000
      139.500       0.00000
      139.600       0.00000
      139.700       0.00000
      139.800       0.00000
      139.900       0.00000
      140.000       0.00000
      140.100       0.00000
      140.200       0.00000
      140.300       0.00000
      140.400       0.00000
      140.500       0.00000
      140.600       0.00000
      140.700       0.00000
      140.800       0.00000
      140.900       0.00000
      141.000       0.00000
      141.100       0.00000
      141.200       0.00000
      141.300       0.00000
      141.400       0.00000
      141.500       0.00000
      141.600       0.00000
      141.700       0.00000
      141.800       0.00000
      141.900       0.00000
      142.000       0.00000
      142.100       0.00000
      142.200       0.00000
      142.300       0.00000
      142.400       0.00000
      142.500       0.00000
      142.600       0.00000
      142.700       0.00000
      142.800       0.00000
      142.900       0.00000
      143.000       0.00000
      143.100       0.00000
      143.200       0.00000
      143.300       0.00000
      143.400       0.00000
      143.500       0.00000
      143.600       0.00000
      143.700       0.00000
      143.800       0.00000
      143.900       0.00000
      144.000       0.00000
      144.100       0.00000
      144.200       0.00000
      144.300       0.00000
      144.400       0.00000
      144.500       0.00000
      144.600       0.00000
      144.700       0.00000
      144.800       0.00000
      144.900       0.00000
      145.000       0.00000
      145.100       0.00000
      145.200       0.00000
      145.300       0.00000
      145.400       0.00000
      145.500       0.00000
      145.600       0.00000
      145.700       0.00000
      145.800       0.00000
      145.900       0.00000
      146.000       0.00000
      146.100       0.00000
      146.200       0.00000
      146.300       0.00000
      146.400       0.00000
      146.500       0.00000
      146.600       0.00000
      146.700       0.00000
      146.800       0.00000
      146.900       0.00000
      147.000       0.00000
      147.100       0.00000
      147.200       0.00000
      147.300       0.00000
      147.400       0.00000
      147.500       0.00000
      147.600       0.00000
      147.700       0.00000
      147.800       0.00000
      147.900       0.00000
      148.000       0.00000
      148.100       0.00000
      148.200       0.00000
      148.300       0.00000
      148.400       0.00000
      148.500       0.00000
      148.600       0.00000
      148.700       0.00000
      148.800       0.00000
      148.900       0.00000
      149.000       0.00000
      149.100       0.00000
      149.200       0.00000
      149.300       0.00000
      149.400       0.00000
      149.500       0.00000
      149.600       0.00000
      149.700       0.00000
      149.800       0.00000
      149.900       0.00000
      150.000       0.00000
      150.100       0.00000
      150.200       0.00000
      150.300       0.00000
      150.400       0.00000
      150.500       0.00000
      150.600       0.00000
      150.700       0.00000
      150.800       0.00000
      150.900       0.00000
      151.000       0.00000
      151.100       0.00000
      151.200       0.00000
      151.300       0.00000
      151.400       0.00000
      151.500       0.00000
      151.600       0.00000
      151.700       0.00000
      151.800       0.00000
      151.900       0.00000
      152.000       0.00000
      152.100       0.00000
      152.200       0.00000
      152.300       0.00000
      152.400       0.00000
      152.500       0.00000
      152.600       0.00000
      152.700       0.00000
      152.800       0.00000
      152.900       0.00000
      153.000       0.00000
      153.100       0.00000
      153.200       0.00000
      153.300       0.00000
      153.400       0.00000
      153.500       0.00000
      153.600       0.00000
      153.700       0.00000
      153.800       0.00000
      153.900       0.00000
      154.000       0.00000
      154.100       0.00000
      154.200       0.00000
      154.300       0.00000
      154.400       0.00000
      154.500       0.00000
      154.600       0.00000
      154.700       0.00000
      154.800       0.00000
      154.900       0.00000
      155.000       0.00000
      155.100       0.00000
      155.200       0.00000
      155.300       0.00000
      155.400       0.00000
      155.500       0.00000
      155.600       0.00000
      155.700       0.00000
      155.800       0.00000
      155.900       0.00000
      156.000       0.00000
      156.100       0.00000
      156.200       0.00000
      156.300       0.00000
      156.400       0.00000
      156.500       0.00000
      156.600       0.00000
      156.700       0.00000
      156.800       0.00000
      156.900       0.00000
      157.000       0.00000
      157.100       0.00000
      157.200       0.00000
      157.300       0.00000
      157.400       0.00000
      157.500       0.00000
      157.600       0.00000
      157.700       0.00000
      157.800       0.00000
      157.900       0.00000
      158.000       0.00000
      158.100       0.00000
      158.200       0.00000
      158.300       0.00000
      158.400       0.00000
      158.500       0.00000
      158.600       0.00000
      158.700       0.00000
      158.800       0.00000
      158.900       0.00000
      159.000       0.00000
      159.100       0.00000
      159.200       0.00000
      159.300       0.00000
      159.400       0.00000
      159.500       0.00000
      159.600       0.00000
      159.700       0.00000
      159.800       0.00000
      159.900       0.00000
      160.000       0.00000
      160.100       0.00000
      160.200       0.00000
      160.300       0.00000
      160.400       0.00000
      160.500       0.00000
      160.600       0.00000
      160.700       0.00000
      160.800       0.00000
      160.900       0.00000
      161.000       0.00000
      161.100       0.00000
      161.200       0.00000
      161.300       0.00000
      161.400       0.00000
      161.500       0.00000
      161.600       0.00000
      161.700       0.00000
      161.800       0.00000
      161.900       0.00000
      162.000       0.00000
      162.100       0.00000
      162.200       0.00000
      162.300       0.00000
      162.400       0.00000
      162.500       0.00000
      162.600       0.00000
      162.700       0.00000
      162.800       0.00000
      162.900       0.00000
      163.000       0.00000
      163.100       0.00000
      163.200       0.00000
      163.300       0.00000
      163.400       0.00000
      163.500       0.00000
      163.600       0.00000
      163.700       0.00000
      163.800       0.00000
      163.900       0.00000
      164.000       0.00000
      164.100       0.00000
      164.200       0.00000
      164.300       0.00000
      164.400       0.00000
      164.500       0.00000
      164.600       0.00000
      164.700       0.00000
      164.800       0.00000
      164.900       0.00000
      165.000       0.00000
      165.100       0.00000
      165.200       0.00000
      165.300       0.00000
      165.400       0.00000
      165.500       0.00000
      165.600       0.00000
      165.700       0.00000
      165.800       0.00000
      165.900       0.00000
      166.000       0.00000
      166.100       0.00000
      166.200       0.00000
      166.300       0.00000
      166.400       0.00000
      166.500       0.00000
      166.600       0.00000
      166.700       0.00000
      166.800       0.00000
      166.900       0.00000
      167.000       0.00000
      167.100       0.00000
      167.200       0.00000
      167.300       0.00000
      167.400       0.00000
      167.500       0.00000
      167.600       0.00000
      167.700       0.00000
      167.800       0.00000
      167.900       0.00000
      168.000       0.00000
      168.100       0.00000
      168.200       0.00000
      168.300       0.00000
      168.400       0.00000
      168.500       0.00000
      168.600       0.00000
      168.700       0.00000
      168.800       0.00000
      168.900       0.00000
      169.000       0.00000
      169.100       0.00000
      169.200       0.00000
      169.300       0.00000
      169.400       0.00000
      169.500       0.00000
      169.600       0.00000
      169.700       0.00000
      169.800       0.00000
      169.900       0.00000
      170.000       0.00000
      170.100       0.00000
      170.200       0.00000
      170.300       0.00000
      170.400       0.00000
      170.500   2.78157e-31
      170.600   1.28459e-19
      170.700   1.35811e-12
      170.800   1.15155e-10
      170.900   1.88294e-10
      171.000   1.89965e-10
      171.100   1.91636e-10
      171.200   1.93306e-10
      171.300   1.94977e-10
      171.400   1.96646e-10
      171.500   1.98313e-10
      171.600   1.99980e-10
      171.700   2.01650e-10
      171.800   2.03323e-10
      171.900   2.04997e-10
      172.000   2.06678e-10
      172.100   2.08369e-10
      172.200   2.10068e-10
      172.300   2.11770e-10
      172.400   2.13445e-10
      172.500   2.15122e-10
      172.600   2.16813e-10
      172.700   2.18517e-10
      172.800   2.20232e-10
      172.900   2.21964e-10
      173.000   2.23707e-10
      173.100   2.25464e-10
      173.200   2.27236e-10
      173.300   2.29023e-10
      173.400   2.30827e-10
      173.500   2.32644e-10
      173.600   2.34476e-10
      173.700   2.36323e-10
      173.800   2.38188e-10
      173.900   2.40064e-10
      174.000   2.41955e-10
      174.100   2.43865e-10
      174.200   2.45786e-10
      174.300   2.47718e-10
      174.400   2.49667e-10
      174.500   2.51626e-10
      174.600   2.53602e-10
      174.700   2.55589e-10
      174.800   2.57586e-10
      174.900   2.59596e-10
      175.000   2.61619e-10
      175.100   2.63649e-10
      175.200   2.65704e-10
      175.300   2.67764e-10
      175.400   2.69839e-10
      175.500   2.71924e-10
      175.600   2.74017e-10
      175.700   2.76123e-10
      175.800   2.78242e-10
      175.900   2.80370e-10
      176.000   2.82507e-10
      176.100   2.84657e-10
      176.200   2.86817e-10
      176.300   2.88990e-10
      176.400   2.91173e-10
      176.500   2.93366e-10
      176.600   2.95573e-10
      176.700   2.97790e-10
      176.800   3.00016e-10
      176.900   3.02253e-10
      177.000   3.04503e-10
      177.100   3.06764e-10
      177.200   3.09034e-10
      177.300   3.11313e-10
      177.400   3.13605e-10
      177.500   3.15907e-10
      177.600   3.18217e-10
      177.700   3.20537e-10
      177.800   3.22865e-10
      177.900   3.25204e-10
      178.000   3.27575e-10
      178.100   3.29954e-10
      178.200   3.32344e-10
      178.300   3.34745e-10
      178.400   3.37153e-10
      178.500   3.39571e-10
      178.600   3.41998e-10
      178.700   3.44439e-10
      178.800   3.46886e-10
      178.900   3.49340e-10
      179.000   3.51804e-10
      179.100   3.54279e-10
      179.200   3.56767e-10
      179.300   3.59263e-10
      179.400   3.61769e-10
      179.500   3.64287e-10
      179.600   3.66823e-10
      179.700   3.69366e-10
      179.800   3.71920e-10
      179.900   3.74488e-10
      180.000   3.77075e-10
      180.100   3.79671e-10
      180.200   3.82282e-10
      180.300   3.84908e-10
      180.400   3.87553e-10
      180.500   3.90214e-10
      180.600   3.92888e-10
      180.700   3.95578e-10
      180.800   3.98320e-10
      180.900   4.01137e-10
      181.000   4.03999e-10
      181.100   4.06876e-10
      181.200   4.09776e-10
      181.300   4.12698e-10
      181.400   4.15636e-10
      181.500   4.18592e-10
      181.600   4.21570e-10
      181.700   4.24570e-10
      181.800   4.27585e-10
      181.900   4.30621e-10
      182.000   4.33678e-10
      182.100   4.36750e-10
      182.200   4.39850e-10
      182.300   4.42963e-10
      182.400   4.46094e-10
      182.500   4.49243e-10
      182.600   4.52417e-10
      182.700   4.55603e-10
      182.800   4.58804e-10
      182.900   4.62027e-10
      183.000   4.65267e-10
      183.100   4.68523e-10
      183.200   4.71795e-10
      183.300   4.75086e-10
      183.400   4.78395e-10
      183.500   4.81718e-10
      183.600   4.85058e-10
      183.700   4.88553e-10
      183.800   4.92653e-10
      183.900   4.97141e-10
      184.000   5.01653e-10
      184.100   5.06207e-10
      184.200   5.10789e-10
      184.300   5.15411e-10
      184.400   5.20065e-10
      184.500   5.24749e-10
      184.600   5.29466e-10
      184.700   5.34222e-10
      184.800   5.39011e-10
      184.900   5.43832e-10
      185.000   5.48686e-10
      185.100   5.53578e-10
      185.200   5.58506e-10
      185.300   5.63463e-10
      185.400   5.68454e-10
      185.500   5.73477e-10
      185.600   5.78537e-10
      185.700   5.83637e-10
      185.800   5.88769e-10
      185.900   5.93929e-10
      186.000   5.99134e-10
      186.100   6.04364e-10
      186.200   6.09624e-10
      186.300   6.14915e-10
      186.400   6.20242e-10
      186.500   6.25602e-10
      186.600   6.30988e-10
      186.700   6.36399e-10
      186.800   6.41839e-10
      186.900   6.47313e-10
      187.000   6.52817e-10
      187.100   6.58341e-10
      187.200   6.63901e-10
      187.300   6.69495e-10
      187.400   6.75114e-10
      187.500   6.80760e-10
      187.600   6.86433e-10
      187.700   6.92136e-10
      187.800   6.97873e-10
      187.900   7.03641e-10
      188.000   7.09430e-10
      188.100   7.15249e-10
      188.200   7.21101e-10
      188.300   7.26988e-10
      188.400   7.32907e-10
      188.500   7.38856e-10
      188.600   7.44838e-10
      188.700   7.50863e-10
      188.800   7.56916e-10
      188.900   7.63001e-10
      189.000   7.69123e-10
      189.100   7.75289e-10
      189.200   7.81490e-10
      189.300   7.87725e-10
      189.400   7.93997e-10
      189.500   8.00311e-10
      189.600   8.06674e-10
      189.700   8.13068e-10
      189.800   8.19574e-10
      189.900   8.26133e-10
      190.000   8.32747e-10
      190.100   8.39397e-10
      190.200   8.46093e-10
      190.300   8.52832e-10
      190.400   8.59621e-10
      190.500   8.66457e-10
      190.600   8.73333e-10
      190.700   8.80256e-10
      190.800   8.87223e-10
      190.900   8.94238e-10
      191.000   9.01313e-10
      191.100   9.08427e-10
      191.200   9.15589e-10
      191.300   9.22796e-10
      191.400   9.30054e-10
      191.500   9.37361e-10
      191.600   9.44708e-10
      191.700   9.52102e-10
      191.800   9.59551e-10
      191.900   9.67039e-10
      192.000   9.74570e-10
      192.100   9.82151e-10
      192.200   9.89788e-10
      192.300   9.97469e-10
      192.400   1.00521e-09
      192.500   1.01299e-09
      192.600   1.02082e-09
      192.700   1.02869e-09
      192.800   1.03622e-09
      192.900   1.04277e-09
      193.000   1.04926e-09
      193.100   1.05578e-09
      193.200   1.06235e-09
      193.300   1.06894e-09
      193.400   1.07556e-09
      193.500   1.08222e-09
      193.600   1.08892e-09
      193.700   1.09565e-09
      193.800   1.10241e-09
      193.900   1.10919e-09
      194.000   1.11602e-09
      194.100   1.12290e-09
      194.200   1.12980e-09
      194.300   1.13674e-09
      194.400   1.14371e-09
      194.500   1.15073e-09
      194.600   1.15778e-09
      194.700   1.16485e-09
      194.800   1.17196e-09
      194.900   1.17910e-09
      195.000   1.18628e-09
      195.100   1.19351e-09
      195.200   1.20075e-09
      195.300   1.20802e-09
      195.400   1.21533e-09
      195.500   1.22267e-09
      195.600   1.23004e-09
      195.700   1.23742e-09
      195.800   1.24476e-09
      195.900   1.25152e-09
      196.000   1.23783e-09
      196.100   1.22401e-09
      196.200   1.21034e-09
      196.300   1.19681e-09
      196.400   1.18342e-09
      196.500   1.17017e-09
      196.600   1.15705e-09
      196.700   1.14406e-09
      196.800   1.13122e-09
      196.900   1.11851e-09
      197.000   1.10593e-09
      197.100   1.09347e-09
      197.200   1.08115e-09
      197.300   1.06894e-09
      197.400   1.05686e-09
      197.500   1.04489e-09
      197.600   1.03305e-09
      197.700   1.02134e-09
      197.800   1.00976e-09
      197.900   9.98291e-10
      198.000   9.86939e-10
      198.100   9.75704e-10
      198.200   9.64583e-10
      198.300   9.53577e-10
      198.400   9.42688e-10
      198.500   9.31922e-10
      198.600   9.21274e-10
      198.700   9.10737e-10
      198.800   9.00314e-10
      198.900   8.90004e-10
      199.000   8.79801e-10
      199.100   8.69707e-10
      199.200   8.59728e-10
      199.300   8.49868e-10
      199.400   8.40121e-10
      199.500   8.30481e-10
      199.600   8.20943e-10
      199.700   8.11513e-10
      199.800   8.02188e-10
      199.900   7.92966e-10
      200.000   7.83845e-10
      200.100   7.74878e-10
      200.200   7.65972e-10
      200.300   7.57172e-10
      200.400   7.48469e-10
      200.500   7.39864e-10
      200.600   7.31360e-10
      200.700   7.22951e-10
      200.800   7.14634e-10
      200.900   7.06418e-10
      201.000   6.98296e-10
      201.100   6.90269e-10
      201.200   6.82335e-10
      201.300   6.74490e-10
      201.400   6.66738e-10
      201.500   6.59071e-10
      201.600   6.51492e-10
      201.700   6.44002e-10
      201.800   6.36597e-10
      201.900   6.29275e-10
      202.000   6.22046e-10
      202.100   6.14898e-10
      202.200   6.07834e-10
      202.300   6.00900e-10
      202.400   5.94140e-10
      202.500   5.87484e-10
      202.600   5.80898e-10
      202.700   5.74394e-10
      202.800   5.67965e-10
      202.900   5.61609e-10
      203.000   5.55327e-10
      203.100   5.49122e-10
      203.200   5.42984e-10
      203.300   5.36917e-10
      203.400   5.30919e-10
      203.500   5.24991e-10
      203.600   5.19132e-10
      203.700   5.13343e-10
      203.800   5.07622e-10
      203.900   5.01973e-10
      204.000   4.96387e-10
      204.100   4.90868e-10
      204.200   4.85415e-10
      204.300   4.80025e-10
      204.400   4.74699e-10
      204.500   4.69435e-10
      204.600   4.64232e-10
      204.700   4.59091e-10
      204.800   4.54014e-10
      204.900   4.48998e-10
      205.000   4.44040e-10
      205.100   4.39140e-10
      205.200   4.34297e-10
      205.300   4.29511e-10
      205.400   4.24781e-10
      205.500   4.20105e-10
      205.600   4.15160e-10
      205.700   4.09979e-10
      205.800   4.04822e-10
      205.900   3.99733e-10
      206.000   3.94713e-10
      206.100   3.89755e-10
      206.200   3.84858e-10
      206.300   3.80026e-10
      206.400   3.75255e-10
      206.500   3.70540e-10
      206.600   3.65886e-10
      206.700   3.61291e-10
      206.800   3.56750e-10
      206.900   3.52265e-10
      207.000   3.47837e-10
      207.100   3.43464e-10
      207.200   3.39146e-10
      207.300   3.34880e-10
      207.400   3.30664e-10
      207.500   3.26499e-10
      207.600   3.22385e-10
      207.700   3.18319e-10
      207.800   3.14302e-10
      207.900   3.10332e-10
      208.000   3.06410e-10
      208.100   3.02535e-10
      208.200   2.98706e-10
      208.300   2.94922e-10
      208.400   2.91185e-10
      208.500   2.87493e-10
      208.600   2.83844e-10
      208.700   2.80237e-10
      208.800   2.76674e-10
      208.900   2.72784e-10
      209.000   2.68281e-10
      209.100   2.63690e-10
      209.200   2.59174e-10
      209.300   2.54731e-10
      209.400   2.50362e-10
      209.500   2.46064e-10
      209.600   2.41836e-10
      209.700   2.37679e-10
      209.800   2.33594e-10
      209.900   2.29574e-10
      210.000   2.25622e-10
      210.100   2.21735e-10
      210.200   2.17912e-10
      210.300   2.14152e-10
      210.400   2.10455e-10
      210.500   2.06819e-10
      210.600   2.03245e-10
      210.700   1.99729e-10
      210.800   1.96272e-10
      210.900   1.92873e-10
      211.000   1.89530e-10
      211.100   1.86245e-10
      211.200   1.83013e-10
      211.300   1.79839e-10
      211.400   1.76719e-10
      211.500   1.73650e-10
      211.600   1.70634e-10
      211.700   1.67669e-10
      211.800   1.64752e-10
      211.900   1.61885e-10
      212.000   1.59068e-10
      212.100   1.56297e-10
      212.200   1.53573e-10
      212.300   1.50895e-10
      212.400   1.48263e-10
      212.500   1.45675e-10
      212.600   1.43132e-10
      212.700   1.40631e-10
      212.800   1.38173e-10
      212.900   1.35757e-10
      213.000   1.33382e-10
      213.100   1.31049e-10
      213.200   1.28757e-10
      213.300   1.26503e-10
      213.400   1.24287e-10
      213.500   1.22110e-10
      213.600   1.19970e-10
      213.700   1.17867e-10
      213.800   1.15799e-10
      213.900   1.13768e-10
      214.000   1.11772e-10
      214.100   1.09810e-10
      214.200   1.07883e-10
      214.300   1.05988e-10
      214.400   1.04126e-10
      214.500   1.02297e-10
      214.600   1.00500e-10
      214.700   9.87343e-11
      214.800   9.69994e-11
      214.900   9.52954e-11
      215.000   9.36204e-11
      215.100   9.19755e-11
      215.200   9.03598e-11
      215.300   8.87736e-11
      215.400   8.72146e-11
      215.500   8.56834e-11
      215.600   8.41803e-11
      215.700   8.27025e-11
      215.800   8.12511e-11
      215.900   7.98261e-11
      216.000   7.84258e-11
      216.100   7.70503e-11
      216.200   7.56995e-11
      216.300   7.43728e-11
      216.400   7.30699e-11
      216.500   7.17897e-11
      216.600   7.05326e-11
      216.700   6.92981e-11
      216.800   6.80852e-11
      216.900   6.68941e-11
      217.000   6.57241e-11
      217.100   6.45747e-11
      217.200   6.34460e-11
      217.300   6.23372e-11
      217.400   6.12478e-11
      217.500   6.01783e-11
      217.600   5.91274e-11
      217.700   5.80946e-11
      217.800   5.70804e-11
      217.900   5.60846e-11
      218.000   5.51063e-11
      218.100   5.41449e-11
      218.200   5.32007e-11
      218.300   5.22731e-11
      218.400   5.13619e-11
      218.500   5.04660e-11
      218.600   4.95862e-11
      218.700   4.87214e-11
      218.800   4.78717e-11
      218.900   4.70371e-11
      219.000   4.62167e-11
      219.100   4.54103e-11
      219.200   4.46180e-11
      219.300   4.38392e-11
      219.400   4.30736e-11
      219.500   4.23214e-11
      219.600   4.15821e-11
      219.700   4.08555e-11
      219.800   4.01416e-11
      219.900   3.94397e-11
      220.000   3.87498e-11
      220.100   3.80717e-11
      220.200   3.74052e-11
      220.300   3.67502e-11
      220.400   3.61064e-11
      220.500   3.54737e-11
      220.600   3.48519e-11
      220.700   3.42404e-11
      220.800   3.36393e-11
      220.900   3.30489e-11
      221.000   3.24684e-11
      221.100   3.18976e-11
      221.200   3.13368e-11
      221.300   3.07856e-11
      221.400   3.02438e-11
      221.500   2.97114e-11
      221.600   2.91880e-11
      221.700   2.86735e-11
      221.800   2.81677e-11
      221.900   2.76707e-11
      222.000   2.71823e-11
      222.100   2.67021e-11
      222.200   2.62304e-11
      222.300   2.57665e-11
      222.400   2.53108e-11
      222.500   2.48627e-11
      222.600   2.44225e-11
      222.700   2.39898e-11
      222.800   2.35644e-11
      222.900   2.31464e-11
      223.000   2.27355e-11
      223.100   2.23317e-11
      223.200   2.19349e-11
      223.300   2.15449e-11
      223.400   2.11617e-11
      223.500   2.07849e-11
      223.600   2.04148e-11
      223.700   2.00510e-11
      223.800   1.96934e-11
      223.900   1.93423e-11
      224.000   1.89970e-11
      224.100   1.86577e-11
      224.200   1.83242e-11
      224.300   1.79965e-11
      224.400   1.76745e-11
      224.500   1.73581e-11
      224.600   1.70470e-11
      224.700   1.67415e-11
      224.800   1.64413e-11
      224.900   1.61462e-11
      225.000   1.58562e-11
      225.100   1.55713e-11
      225.200   1.52912e-11
      225.300   1.50162e-11
      225.400   1.47458e-11
      225.500   1.44801e-11
      225.600   1.42191e-11
      225.700   1.39627e-11
      225.800   1.37106e-11
      225.900   1.34630e-11
      226.000   1.32197e-11
      226.100   1.29807e-11
      226.200   1.27459e-11
      226.300   1.25162e-11
      226.400   1.22909e-11
      226.500   1.20692e-11
      226.600   1.18512e-11
      226.700   1.16370e-11
      226.800   1.14263e-11
      226.900   1.12192e-11
      227.000   1.10159e-11
      227.100   1.08160e-11
      227.200   1.06198e-11
      227.300   1.04270e-11
      227.400   1.02377e-11
      227.500   1.00517e-11
      227.600   9.86906e-12
      227.700   9.68967e-12
      227.800   9.51351e-12
      227.900   9.34051e-12
      228.000   9.17063e-12
      228.100   9.00379e-12
      228.200   8.83991e-12
      228.300   8.67902e-12
      228.400   8.52108e-12
      228.500   8.36594e-12
      228.600   8.21364e-12
      228.700   8.06409e-12
      228.800   7.91723e-12
      228.900   7.77312e-12
      229.000   7.63158e-12
      229.100   7.49263e-12
      229.200   7.35621e-12
      229.300   7.22229e-12
      229.400   7.09082e-12
      229.500   6.96176e-12
      229.600   6.83503e-12
      229.700   6.71065e-12
      229.800   6.58853e-12
      229.900   6.46866e-12
      230.000   6.34980e-12
      230.100   6.22490e-12
      230.200   6.10216e-12
      230.300   5.98192e-12
      230.400   5.86403e-12
      230.500   5.74847e-12
      230.600   5.63524e-12
      230.700   5.52422e-12
      230.800   5.41542e-12
      230.900   5.30878e-12
      231.000   5.20422e-12
      231.100   5.10174e-12
      231.200   5.00127e-12
      231.300   4.90281e-12
      231.400   4.80633e-12
      231.500   4.71169e-12
      231.600   4.61890e-12
      231.700   4.52797e-12
      231.800   4.43884e-12
      231.900   4.35146e-12
      232.000   4.26579e-12
      232.100   4.18179e-12
      232.200   4.09947e-12
      232.300   4.01876e-12
      232.400   3.93963e-12
      232.500   3.86203e-12
      232.600   3.78598e-12
      232.700   3.71142e-12
      232.800   3.63832e-12
      232.900   3.56664e-12
      233.000   3.49637e-12
      233.100   3.42749e-12
      233.200   3.35993e-12
      233.300   3.29372e-12
      233.400   3.22880e-12
      233.500   3.16517e-12
      233.600   3.10280e-12
      233.700   3.04162e-12
      233.800   2.97425e-12
      233.900   2.90740e-12
      234.000   2.84199e-12
      234.100   2.77805e-12
      234.200   2.71554e-12
      234.300   2.65441e-12
      234.400   2.59463e-12
      234.500   2.53618e-12
      234.600   2.47901e-12
      234.700   2.42313e-12
      234.800   2.36849e-12
      234.900   2.31505e-12
      235.000   2.26279e-12
      235.100   2.21169e-12
      235.200   2.16174e-12
      235.300   2.11288e-12
      235.400   2.06511e-12
      235.500   2.01840e-12
      235.600   1.97275e-12
      235.700   1.92809e-12
      235.800   1.88448e-12
      235.900   1.84183e-12
      236.000   1.80013e-12
      236.100   1.75935e-12
      236.200   1.71947e-12
      236.300   1.68048e-12
      236.400   1.64236e-12
      236.500   1.60509e-12
      236.600   1.56864e-12
      236.700   1.53300e-12
      236.800   1.49815e-12
      236.900   1.46408e-12
      237.000   1.43076e-12
      237.100   1.39818e-12
      237.200   1.36633e-12
      237.300   1.33518e-12
      237.400   1.30473e-12
      237.500   1.27494e-12
      237.600   1.24582e-12
      237.700   1.21737e-12
      237.800   1.18955e-12
      237.900   1.16235e-12
      238.000   1.13576e-12
      238.100   1.10976e-12
      238.200   1.08433e-12
      238.300   1.05947e-12
      238.400   1.03516e-12
      238.500   1.01138e-12
      238.600   9.88144e-13
      238.700   9.65426e-13
      238.800   9.43208e-13
      238.900   9.21486e-13
      239.000   9.00242e-13
      239.100   8.79476e-13
      239.200   8.59177e-13
      239.300   8.39339e-13
      239.400   8.19961e-13
      239.500   8.01013e-13
      239.600   7.82484e-13
      239.700   7.64380e-13
      239.800   7.46673e-13
      239.900   7.29362e-13
      240.000   7.12439e-13
      240.100   6.95891e-13
      240.200   6.79713e-13
      240.300   6.63900e-13
      240.400   6.48436e-13
      240.500   6.33328e-13
      240.600   6.18559e-13
      240.700   6.04120e-13
      240.800   5.90016e-13
      240.900   5.76239e-13
      241.000   5.62775e-13
      241.100   5.49614e-13
      241.200   5.36751e-13
      241.300   5.24177e-13
      241.400   5.11889e-13
      241.500   4.99879e-13
      241.600   4.88143e-13
      241.700   4.76671e-13
      241.800   4.65459e-13
      241.900   4.54502e-13
      242.000   4.43795e-13
      242.100   4.33335e-13
      242.200   4.23124e-13
      242.300   4.13154e-13
      242.400   4.03409e-13
      242.500   3.93888e-13
      242.600   3.84585e-13
      242.700   3.75495e-13
      242.800   3.66615e-13
      242.900   3.57939e-13
      243.000   3.49463e-13
      243.100   3.41182e-13
      243.200   3.33090e-13
      243.300   3.25186e-13
      243.400   3.17468e-13
      243.500   3.09933e-13
      243.600   3.02582e-13
      243.700   2.95398e-13
      243.800   2.88381e-13
      243.900   2.81529e-13
      244.000   2.74835e-13
      244.100   2.68297e-13
      244.200   2.61911e-13
      244.300   2.55673e-13
      244.400   2.49581e-13
      244.500   2.43631e-13
      244.600   2.37819e-13
      244.700   2.32149e-13
      244.800   2.26618e-13
      244.900   2.21218e-13
      245.000   2.15940e-13
      245.100   2.10788e-13
      245.200   2.05758e-13
      245.300   2.00845e-13
      245.400   1.96046e-13
      245.500   1.91362e-13
      245.600   1.86787e-13
      245.700   1.82318e-13
      245.800   1.77954e-13
      245.900   1.73701e-13
      246.000   1.69551e-13
      246.100   1.65498e-13
      246.200   1.61540e-13
      246.300   1.57674e-13
      246.400   1.53901e-13
      246.500   1.50216e-13
      246.600   1.46617e-13
      246.700   1.43104e-13
      246.800   1.39672e-13
      246.900   1.36322e-13
      247.000   1.33057e-13
      247.100   1.29870e-13
      247.200   1.26759e-13
      247.300   1.23721e-13
      247.400   1.20755e-13
      247.500   1.17858e-13
      247.600   1.15030e-13
      247.700   1.12269e-13
      247.800   1.09573e-13
      247.900   1.06940e-13
      248.000   1.04370e-13
      248.100   1.01868e-13
      248.200   9.94240e-14
      248.300   9.70376e-14
      248.400   9.47076e-14
      248.500   9.24322e-14
      248.600   9.02107e-14
      248.700   8.80421e-14
      248.800   8.59245e-14
      248.900   8.38571e-14
      249.000   8.18388e-14
      249.100   7.98721e-14
      249.200   7.79534e-14
      249.300   7.60791e-14
      249.400   7.42493e-14
      249.500   7.24630e-14
      249.600   7.07186e-14
      249.700   6.90154e-14
      249.800   6.73526e-14
      249.900   6.57291e-14
      250.000   6.41442e-14
      250.100   6.25994e-14
      250.200   6.10918e-14
      250.300   5.96212e-14
      250.400   5.81851e-14
      250.500   5.67833e-14
      250.600   5.54148e-14
      250.700   5.40788e-14
      250.800   5.27744e-14
      250.900   5.15012e-14
      251.000   5.02582e-14
      251.100   4.90447e-14
      251.200   4.78611e-14
      251.300   4.67070e-14
      251.400   4.55805e-14
      251.500   4.44802e-14
      251.600   4.34062e-14
      251.700   4.23584e-14
      251.800   4.13352e-14
      251.900   4.03363e-14
      252.000   3.93609e-14
      252.100   3.84092e-14
      252.200   3.74799e-14
      252.300   3.65737e-14
      252.400   3.56893e-14
      252.500   3.48265e-14
      252.600   3.39839e-14
      252.700   3.31614e-14
      252.800   3.23587e-14
      252.900   3.15750e-14
      253.000   3.08098e-14
      253.100   3.00630e-14
      253.200   2.93340e-14
      253.300   2.86287e-14
      253.400   2.79427e-14
      253.500   2.72735e-14
      253.600   2.66206e-14
      253.700   2.59828e-14
      253.800   2.53603e-14
      253.900   2.47524e-14
      254.000   2.41587e-14
      254.100   2.35788e-14
      254.200   2.30126e-14
      254.300   2.24597e-14
      254.400   2.19198e-14
      254.500   2.13925e-14
      254.600   2.08777e-14
      254.700   2.03750e-14
      254.800   1.98848e-14
      254.900   1.94061e-14
      255.000   1.89388e-14
      255.100   1.84821e-14
      255.200   1.80363e-14
      255.300   1.76010e-14
      255.400   1.71759e-14
      255.500   1.67609e-14
      255.600   1.63556e-14
      255.700   1.59599e-14
      255.800   1.55735e-14
      255.900   1.51961e-14
      256.000   1.48276e-14
      256.100   1.44680e-14
      256.200   1.41171e-14
      256.300   1.37745e-14
      256.400   1.34402e-14
      256.500   1.31135e-14
      256.600   1.27946e-14
      256.700   1.24834e-14
      256.800   1.21793e-14
      256.900   1.18825e-14
      257.000   1.15927e-14
      257.100   1.13098e-14
      257.200   1.10337e-14
      257.300   1.07640e-14
      257.400   1.05353e-14
      257.500   1.03237e-14
      257.600   1.01171e-14
      257.700   9.91458e-15
      257.800   9.71593e-15
      257.900   9.52118e-15
      258.000   9.33019e-15
      258.100   9.14290e-15
      258.200   8.95930e-15
      258.300   8.77933e-15
      258.400   8.60274e-15
      258.500   8.42959e-15
      258.600   8.25990e-15
      258.700   8.09349e-15
      258.800   7.93031e-15
      258.900   7.77043e-15
      259.000   7.61356e-15
      259.100   7.45982e-15
      259.200   7.30910e-15
      259.300   7.16151e-15
      259.400   7.01678e-15
      259.500   6.87484e-15
      259.600   6.73575e-15
      259.700   6.59941e-15
      259.800   6.46571e-15
      259.900   6.33461e-15
      260.000   6.20617e-15
      260.100   6.08026e-15
      260.200   5.95682e-15
      260.300   5.83583e-15
      260.400   5.71725e-15
      260.500   5.60105e-15
      260.600   5.48711e-15
      260.700   5.37542e-15
      260.800   5.26605e-15
      260.900   5.15876e-15
      261.000   5.05369e-15
      261.100   4.95075e-15
      261.200   4.84985e-15
      261.300   4.75095e-15
      261.400   4.65408e-15
      261.500   4.56843e-15
      261.600   4.51448e-15
      261.700   4.46640e-15
      261.800   4.41885e-15
      261.900   4.37176e-15
      262.000   4.32517e-15
      262.100   4.27906e-15
      262.200   4.23346e-15
      262.300   4.18831e-15
      262.400   4.14364e-15
      262.500   4.09945e-15
      262.600   4.05571e-15
      262.700   4.01244e-15
      262.800   3.96962e-15
      262.900   3.92722e-15
      263.000   3.88534e-15
      263.100   3.84387e-15
      263.200   3.80284e-15
      263.300   3.76226e-15
      263.400   3.72210e-15
      263.500   3.68237e-15
      263.600   3.64308e-15
      263.700   3.60420e-15
      263.800   3.56572e-15
      263.900   3.52768e-15
      264.000   3.49004e-15
      264.100   3.45280e-15
      264.200   3.41594e-15
      264.300   3.37951e-15
      264.400   3.34347e-15
      264.500   3.30780e-15
      264.600   3.27251e-15
      264.700   3.23762e-15
      264.800   3.20309e-15
      264.900   3.16897e-15
      265.000   3.13519e-15
      265.100   3.10178e-15
      265.200   3.06873e-15
      265.300   3.03604e-15
      265.400   3.00372e-15
      265.500   2.97175e-15
      265.600   2.94012e-15
      265.700   2.90883e-15
      265.800   2.87793e-15
      265.900   2.84737e-15
      266.000   2.81715e-15
      266.100   2.78728e-15
      266.200   2.75771e-15
      266.300   2.72847e-15
      266.400   2.69955e-15
      266.500   2.67095e-15
      266.600   2.64267e-15
      266.700   2.61469e-15
      266.800   2.58704e-15
      266.900   2.55968e-15
      267.000   2.53263e-15
      267.100   2.50587e-15
      267.200   2.47943e-15
      267.300   2.45327e-15
      267.400   2.42738e-15
      267.500   2.40179e-15
      267.600   2.37648e-15
      267.700   2.35144e-15
      267.800   2.32669e-15
      267.900   2.30221e-15
      268.000   2.27801e-15
      268.100   2.25407e-15
      268.200   2.23040e-15
      268.300   2.20700e-15
      268.400   2.18384e-15
      268.500   2.16095e-15
      268.600   2.13830e-15
      268.700   2.11593e-15
      268.800   2.09378e-15
      268.900   2.07189e-15
      269.000   2.05024e-15
      269.100   2.02882e-15
      269.200   2.00765e-15
      269.300   1.98671e-15
      269.400   1.96600e-15
      269.500   1.94551e-15
      269.600   1.92526e-15
      269.700   1.90523e-15
      269.800   1.88542e-15
      269.900   1.86582e-15
      270.000   1.84646e-15
      270.100   1.82731e-15
      270.200   1.80840e-15
      270.300   1.78969e-15
      270.400   1.77118e-15
      270.500   1.75287e-15
      270.600   1.73476e-15
      270.700   1.71685e-15
      270.800   1.69915e-15
      270.900   1.68162e-15
      271.000   1.66429e-15
      271.100   1.64714e-15
      271.200   1.63018e-15
      271.300   1.61340e-15
      271.400   1.59680e-15
      271.500   1.58040e-15
      271.600   1.56415e-15
      271.700   1.54808e-15
      271.800   1.53218e-15
      271.900   1.51646e-15
      272.000   1.50091e-15
      272.100   1.48551e-15
      272.200   1.47028e-15
      272.300   1.45521e-15
      272.400   1.44029e-15
      272.500   1.42554e-15
      272.600   1.41094e-15
      272.700   1.39650e-15
      272.800   1.38220e-15
      272.900   1.36805e-15
      273.000   1.35406e-15
      273.100   1.34021e-15
      273.200   1.32651e-15
      273.300   1.31294e-15
      273.400   1.29952e-15
      273.500   1.28623e-15
      273.600   1.27308e-15
      273.700   1.26006e-15
      273.800   1.24718e-15
      273.900   1.23444e-15
      274.000   1.22182e-15
      274.100   1.20933e-15
      274.200   1.19697e-15
      274.300   1.18473e-15
      274.400   1.17248e-15
      274.500   1.16006e-15
      274.600   1.14770e-15
      274.700   1.13547e-15
      274.800   1.12337e-15
      274.900   1.11139e-15
      275.000   1.09954e-15
      275.100   1.08781e-15
      275.200   1.07620e-15
      275.300   1.06472e-15
      275.400   1.05335e-15
      275.500   1.04211e-15
      275.600   1.03098e-15
      275.700   1.01996e-15
      275.800   1.00906e-15
      275.900   9.98272e-16
      276.000   9.87598e-16
      276.100   9.77029e-16
      276.200   9.66568e-16
      276.300   9.56216e-16
      276.400   9.45972e-16
      276.500   9.35834e-16
      276.600   9.25802e-16
      276.700   9.15868e-16
      276.800   9.06041e-16
      276.900   8.96309e-16
      277.000   8.86682e-16
      277.100   8.77149e-16
      277.200   8.67718e-16
      277.300   8.58383e-16
      277.400   8.49145e-16
      277.500   8.39994e-16
      277.600   8.30946e-16
      277.700   8.21985e-16
      277.800   8.13112e-16
      277.900   8.04336e-16
      278.000   7.95654e-16
      278.100   7.87058e-16
      278.200   7.78547e-16
      278.300   7.70125e-16
      278.400   7.61792e-16
      278.500   7.53537e-16
      278.600   7.45369e-16
      278.700   7.37289e-16
      278.800   7.29291e-16
      278.900   7.21349e-16
      279.000   7.13483e-16
      279.100   7.05699e-16
      279.200   6.97990e-16
      279.300   6.90368e-16
      279.400   6.82818e-16
      279.500   6.75348e-16
      279.600   6.67957e-16
      279.700   6.60644e-16
      279.800   6.53405e-16
      279.900   6.46239e-16
      280.000   6.39150e-16
      280.100   6.32130e-16
      280.200   6.25188e-16
      280.300   6.18314e-16
      280.400   6.11513e-16
      280.500   6.04788e-16
      280.600   5.98129e-16
      280.700   5.91538e-16
      280.800   5.85018e-16
      280.900   5.78564e-16
      281.000   5.72178e-16
      281.100   5.65858e-16
      281.200   5.59605e-16
      281.300   5.53418e-16
      281.400   5.47299e-16
      281.500   5.41239e-16
      281.600   5.35241e-16
      281.700   5.29310e-16
      281.800   5.23443e-16
      281.900   5.17636e-16
      282.000   5.11890e-16
      282.100   5.06204e-16
      282.200   5.00583e-16
      282.300   4.95017e-16
      282.400   4.89512e-16
      282.500   4.84062e-16
      282.600   4.78673e-16
      282.700   4.73339e-16
      282.800   4.68063e-16
      282.900   4.62847e-16
      283.000   4.57684e-16
      283.100   4.52576e-16
      283.200   4.47526e-16
      283.300   4.42527e-16
      283.400   4.37584e-16
      283.500   4.32696e-16
      283.600   4.27858e-16
      283.700   4.23071e-16
      283.800   4.18337e-16
      283.900   4.13657e-16
      284.000   4.09024e-16
      284.100   4.04440e-16
      284.200   3.99908e-16
      284.300   3.95427e-16
      284.400   3.90993e-16
      284.500   3.86608e-16
      284.600   3.82272e-16
      284.700   3.77983e-16
      284.800   3.73742e-16
      284.900   3.69546e-16
      285.000   3.65394e-16
      285.100   3.61289e-16
      285.200   3.57232e-16
      285.300   3.53217e-16
      285.400   3.49247e-16
      285.500   3.45320e-16
      285.600   3.41441e-16
      285.700   3.37601e-16
      285.800   3.33806e-16
      285.900   3.30051e-16
      286.000   3.26339e-16
      286.100   3.22672e-16
      286.200   3.19043e-16
      286.300   3.15457e-16
      286.400   3.11910e-16
      286.500   3.08402e-16
      286.600   3.04933e-16
      286.700   3.01503e-16
      286.800   2.98114e-16
      286.900   2.94762e-16
      287.000   2.91447e-16
      287.100   2.88169e-16
      287.200   2.84931e-16
      287.300   2.81727e-16
      287.400   2.78560e-16
      287.500   2.75429e-16
      287.600   2.72335e-16
      287.700   2.69275e-16
      287.800   2.66250e-16
      287.900   2.63260e-16
      288.000   2.60304e-16
      288.100   2.57381e-16
      288.200   2.54494e-16
      288.300   2.51640e-16
      288.400   2.48818e-16
      288.500   2.46029e-16
      288.600   2.43270e-16
      288.700   2.40545e-16
      288.800   2.37849e-16
      288.900   2.35187e-16
      289.000   2.32554e-16
      289.100   2.29951e-16
      289.200   2.27378e-16
      289.300   2.24835e-16
      289.400   2.22322e-16
      289.500   2.19836e-16
      289.600   2.17380e-16
      289.700   2.14954e-16
      289.800   2.12553e-16
      289.900   2.10179e-16
      290.000   2.07836e-16
      290.100   2.05517e-16
      290.200   2.03228e-16
      290.300   2.00964e-16
      290.400   1.98726e-16
      290.500   1.96516e-16
      290.600   1.94330e-16
      290.700   1.92169e-16
      290.800   1.90034e-16
      290.900   1.87923e-16
      291.000   1.85835e-16
      291.100   1.83772e-16
      291.200   1.81733e-16
      291.300   1.79717e-16
      291.400   1.77725e-16
      291.500   1.75755e-16
      291.600   1.73808e-16
      291.700   1.71884e-16
      291.800   1.69982e-16
      291.900   1.68102e-16
      292.000   1.66246e-16
      292.100   1.64410e-16
      292.200   1.62595e-16
      292.300   1.60800e-16
      292.400   1.59026e-16
      292.500   1.57271e-16
      292.600   1.55537e-16
      292.700   1.53824e-16
      292.800   1.52129e-16
      292.900   1.50454e-16
      293.000   1.48798e-16
      293.100   1.47161e-16
      293.200   1.45542e-16
      293.300   1.43942e-16
      293.400   1.42361e-16
      293.500   1.40797e-16
      293.600   1.39252e-16
      293.700   1.37724e-16
      293.800   1.36213e-16
      293.900   1.34720e-16
      294.000   1.33243e-16
      294.100   1.31783e-16
      294.200   1.30340e-16
      294.300   1.28914e-16
      294.400   1.27502e-16
      294.500   1.26107e-16
      294.600   1.24727e-16
      294.700   1.23363e-16
      294.800   1.22014e-16
      294.900   1.20680e-16
      295.000   1.19362e-16
      295.100   1.18059e-16
      295.200   1.16770e-16
      295.300   1.15495e-16
      295.400   1.14235e-16
      295.500   1.12989e-16
      295.600   1.11756e-16
      295.700   1.10538e-16
      295.800   1.09332e-16
      295.900   1.08140e-16
      296.000   1.06961e-16
      296.100   1.05794e-16
      296.200   1.04642e-16
      296.300   1.03502e-16
      296.400   1.02375e-16
      296.500   1.01260e-16
      296.600   1.00158e-16
      296.700   9.90671e-17
      296.800   9.79887e-17
      296.900   9.69219e-17
      297.000   9.58667e-17
      297.100   9.48228e-17
      297.200   9.37905e-17
      297.300   9.27695e-17
      297.400   9.17596e-17
      297.500   9.07600e-17
      297.600   8.97724e-17
      297.700   8.87952e-17
      297.800   8.78287e-17
      297.900   8.68730e-17
      298.000   8.59278e-17
      298.100   8.49922e-17
      298.200   8.40668e-17
      298.300   8.31518e-17
      298.400   8.22461e-17
      298.500   8.13500e-17
      298.600   8.04637e-17
      298.700   7.95868e-17
      298.800   7.87190e-17
      298.900   7.78613e-17
      299.000   7.70132e-17
      299.100   7.61741e-17
      299.200   7.53432e-17
      299.300   7.45216e-17
      299.400   7.37087e-17
      299.500   7.29045e-17
      299.600   7.21087e-17
      299.700   7.13213e-17
      299.800   7.05421e-17
      299.900   6.97716e-17
      300.000   6.90091e-17
      300.100   6.82546e-17
      300.192   6.75680e-17
      300.285   6.68799e-17
      300.377   6.62065e-17
      300.470   6.55329e-17
      300.562   6.48725e-17
      300.654   6.42185e-17
      300.747   6.35639e-17
      300.839   6.29230e-17
      300.932   6.22808e-17
      301.025   6.16453e-17
      301.117   6.10231e-17
      301.210   6.03994e-17
      301.303   5.97827e-17
      301.395   5.91787e-17
      301.488   5.85731e-17
      301.581   5.79742e-17
      301.674   5.73809e-17
      301.766   5.67995e-17
      301.859   5.62176e-17
      301.952   5.56417e-17
      302.045   5.50713e-17
      302.138   5.45442e-17
      302.231   5.41072e-17
      302.324   5.36771e-17
      302.417   5.32507e-17
      302.510   5.28267e-17
      302.603   5.24066e-17
      302.696   5.19889e-17
      302.789   5.15742e-17
      302.882   5.11626e-17
      302.976   5.07503e-17
      303.069   5.03449e-17
      303.162   4.99424e-17
      303.255   4.95427e-17
      303.349   4.91418e-17
      303.442   4.87479e-17
      303.535   4.83572e-17
      303.629   4.79650e-17
      303.722   4.75800e-17
      303.816   4.71938e-17
      303.909   4.68141e-17
      304.003   4.64334e-17
      304.096   4.60595e-17
      304.190   4.56843e-17
      304.283   4.53157e-17
      304.377   4.49461e-17
      304.471   4.45790e-17
      304.564   4.42185e-17
      304.658   4.38573e-17
      304.752   4.34981e-17
      304.846   4.31419e-17
      304.939   4.27921e-17
      305.033   4.24410e-17
      305.127   4.20925e-17
      305.221   4.17467e-17
      305.315   4.14037e-17
      305.409   4.10627e-17
      305.503   4.07246e-17
      305.597   4.03893e-17
      305.691   4.00560e-17
      305.785   3.97255e-17
      305.879   3.93972e-17
      305.973   3.90715e-17
      306.067   3.87482e-17
      306.161   3.84274e-17
      306.255   3.81091e-17
      306.350   3.77897e-17
      306.444   3.74760e-17
      306.538   3.71648e-17
      306.633   3.68529e-17
      306.727   3.65464e-17
      306.821   3.62423e-17
      306.916   3.59372e-17
      307.010   3.56419e-17
      307.105   3.53590e-17
      307.199   3.50832e-17
      307.294   3.48063e-17
      307.388   3.45345e-17
      307.483   3.42618e-17
      307.577   3.39938e-17
      307.672   3.37249e-17
      307.767   3.34580e-17
      307.861   3.31957e-17
      307.956   3.29324e-17
      308.051   3.26711e-17
      308.146   3.24119e-17
      308.240   3.21571e-17
      308.335   3.19014e-17
      308.430   3.16474e-17
      308.525   3.13956e-17
      308.620   3.11456e-17
      308.715   3.08974e-17
      308.810   3.06511e-17
      308.905   3.04065e-17
      309.000   3.01636e-17
      309.095   2.99226e-17
      309.190   2.96836e-17
      309.285   2.94463e-17
      309.380   2.92107e-17
      309.476   2.89746e-17
      309.571   2.87425e-17
      309.666   2.85122e-17
      309.761   2.82836e-17
      309.857   2.80545e-17
      309.952   2.78292e-17
      310.047   2.76059e-17
      310.143   2.73819e-17
      310.238   2.71619e-17
      310.334   2.69413e-17
      310.429   2.67247e-17
      310.525   2.65074e-17
      310.620   2.62942e-17
      310.716   2.60803e-17
      310.811   2.58705e-17
      310.907   2.56600e-17
      311.003   2.54511e-17
      311.098   2.52460e-17
      311.194   2.50403e-17
      311.290   2.48365e-17
      311.386   2.46342e-17
      311.481   2.44355e-17
      311.577   2.42363e-17
      311.673   2.40388e-17
      311.769   2.38428e-17
      311.865   2.36483e-17
      311.961   2.34561e-17
      312.057   2.32684e-17
      312.153   2.30831e-17
      312.249   2.28993e-17
      312.345   2.27170e-17
      312.441   2.25360e-17
      312.537   2.23566e-17
      312.633   2.21786e-17
      312.730   2.20000e-17
      312.826   2.18248e-17
      312.922   2.16510e-17
      313.018   2.14786e-17
      313.115   2.13058e-17
      313.211   2.11360e-17
      313.307   2.09678e-17
      313.404   2.07992e-17
      313.500   2.06335e-17
      313.597   2.04677e-17
      313.693   2.03048e-17
      313.790   2.01416e-17
      313.886   1.99814e-17
      313.983   1.98207e-17
      314.079   1.96631e-17
      314.176   1.95051e-17
      314.273   1.93484e-17
      314.369   1.91948e-17
      314.466   1.90408e-17
      314.563   1.88880e-17
      314.660   1.87364e-17
      314.756   1.85877e-17
      314.853   1.84386e-17
      314.950   1.82908e-17
      315.047   1.81443e-17
      315.144   1.79990e-17
      315.241   1.78548e-17
      315.338   1.77119e-17
      315.435   1.75702e-17
      315.532   1.74296e-17
      315.629   1.72902e-17
      315.726   1.71521e-17
      315.823   1.70150e-17
      315.921   1.68777e-17
      316.018   1.67430e-17
      316.115   1.66094e-17
      316.212   1.64769e-17
      316.310   1.63442e-17
      316.407   1.62140e-17
      316.504   1.60848e-17
      316.602   1.59554e-17
      316.699   1.58285e-17
      316.796   1.57026e-17
      316.894   1.55765e-17
      316.991   1.54530e-17
      317.089   1.53314e-17
      317.187   1.52117e-17
      317.284   1.50943e-17
      317.382   1.49766e-17
      317.479   1.48611e-17
      317.577   1.47453e-17
      317.675   1.46306e-17
      317.773   1.45167e-17
      317.870   1.44051e-17
      317.968   1.42931e-17
      318.066   1.41821e-17
      318.164   1.40720e-17
      318.262   1.39628e-17
      318.360   1.38546e-17
      318.458   1.37473e-17
      318.556   1.36409e-17
      318.654   1.35354e-17
      318.752   1.34307e-17
      318.850   1.33269e-17
      318.948   1.32239e-17
      319.046   1.31219e-17
      319.144   1.30206e-17
      319.242   1.29202e-17
      319.341   1.28197e-17
      319.439   1.27210e-17
      319.537   1.26231e-17
      319.635   1.25261e-17
      319.734   1.24288e-17
      319.832   1.23334e-17
      319.930   1.22386e-17
      320.029   1.21438e-17
      320.127   1.20507e-17
      320.226   1.19574e-17
      320.324   1.18658e-17
      320.423   1.17740e-17
      320.522   1.16831e-17
      320.620   1.15939e-17
      320.719   1.15043e-17
      320.818   1.14156e-17
      320.916   1.13285e-17
      321.015   1.12412e-17
      321.114   1.11546e-17
      321.213   1.10688e-17
      321.311   1.09846e-17
      321.410   1.09002e-17
      321.509   1.08164e-17
      321.608   1.07333e-17
      321.707   1.06509e-17
      321.806   1.05692e-17
      321.905   1.04882e-17
      322.004   1.04079e-17
      322.103   1.03282e-17
      322.202   1.02490e-17
      322.301   1.01706e-17
      322.401   1.00921e-17
      322.500   1.00150e-17
      322.599   9.93849e-18
      322.698   9.86256e-18
      322.798   9.78652e-18
      322.897   9.71185e-18
      322.996   9.63780e-18
      323.096   9.56355e-18
      323.195   9.49067e-18
      323.294   9.41833e-18
      323.394   9.34588e-18
      323.493   9.27473e-18
      323.593   9.20349e-18
      323.692   9.13347e-18
      323.792   9.06331e-18
      323.892   8.99369e-18
      323.991   8.92529e-18
      324.091   8.85685e-18
      324.191   8.78891e-18
      324.291   8.72148e-18
      324.390   8.65529e-18
      324.490   8.58894e-18
      324.590   8.52311e-18
      324.690   8.45779e-18
      324.790   8.39300e-18
      324.890   8.32873e-18
      324.990   8.26497e-18
      325.090   8.20168e-18
      325.190   8.13887e-18
      325.290   8.07660e-18
      325.390   8.01474e-18
      325.490   7.95343e-18
      325.590   7.89261e-18
      325.690   7.83215e-18
      325.790   7.77221e-18
      325.891   7.71216e-18
      325.991   7.65315e-18
      326.091   7.59458e-18
      326.192   7.53589e-18
      326.292   7.47823e-18
      326.392   7.42103e-18
      326.493   7.36369e-18
      326.593   7.30732e-18
      326.694   7.25087e-18
      326.794   7.19536e-18
      326.895   7.13973e-18
      326.995   7.08507e-18
      327.096   7.03028e-18
      327.197   6.97591e-18
      327.297   6.92247e-18
      327.398   6.86892e-18
      327.499   6.81578e-18
      327.599   6.76354e-18
      327.700   6.71117e-18
      327.801   6.65917e-18
      327.902   6.60762e-18
      328.003   6.55642e-18
      328.104   6.50561e-18
      328.205   6.45519e-18
      328.306   6.40513e-18
      328.407   6.35545e-18
      328.508   6.30610e-18
      328.609   6.25712e-18
      328.710   6.20850e-18
      328.811   6.16026e-18
      328.912   6.11239e-18
      329.013   6.06483e-18
      329.115   6.01722e-18
      329.216   5.97039e-18
      329.317   5.92386e-18
      329.419   5.87729e-18
      329.520   5.83146e-18
      329.621   5.78593e-18
      329.723   5.74033e-18
      329.824   5.69554e-18
      329.926   5.65061e-18
      330.027   5.60644e-18
      330.129   5.56215e-18
      330.230   5.51864e-18
      330.332   5.47499e-18
      330.434   5.43166e-18
      330.535   5.38909e-18
      330.637   5.34638e-18
      330.739   5.30399e-18
      330.840   5.26231e-18
      330.942   5.22053e-18
      331.044   5.17907e-18
      331.146   5.13788e-18
      331.248   5.09701e-18
      331.350   5.05646e-18
      331.452   5.01622e-18
      331.554   4.97746e-18
      331.656   4.94080e-18
      331.758   4.90440e-18
      331.860   4.86820e-18
      331.962   4.83227e-18
      332.064   4.79658e-18
      332.166   4.76115e-18
      332.268   4.72590e-18
      332.371   4.69058e-18
      332.473   4.65580e-18
      332.575   4.62123e-18
      332.677   4.58692e-18
      332.780   4.55250e-18
      332.882   4.51863e-18
      332.985   4.48467e-18
      333.087   4.45123e-18
      333.190   4.41772e-18
      333.292   4.38415e-18
      333.395   4.34895e-18
      333.497   4.31376e-18
      333.600   4.27850e-18
      333.702   4.24383e-18
      333.805   4.20909e-18
      333.908   4.17458e-18
      334.011   4.14035e-18
      334.113   4.10667e-18
      334.216   4.07292e-18
      334.319   4.03943e-18
      334.422   4.00616e-18
      334.525   3.97315e-18
      334.628   3.94038e-18
      334.731   3.90786e-18
      334.834   3.87559e-18
      334.937   3.84355e-18
      335.040   3.81174e-18
      335.143   3.78018e-18
      335.246   3.74884e-18
      335.349   3.71773e-18
      335.452   3.68686e-18
      335.555   3.65622e-18
      335.659   3.62553e-18
      335.762   3.59535e-18
      335.865   3.56543e-18
      335.969   3.53541e-18
      336.072   3.50588e-18
      336.175   3.47660e-18
      336.279   3.44727e-18
      336.382   3.41845e-18
      336.486   3.38954e-18
      336.589   3.36113e-18
      336.693   3.33270e-18
      336.796   3.30473e-18
      336.900   3.27672e-18
      337.004   3.24890e-18
      337.107   3.22158e-18
      337.211   3.19421e-18
      337.315   3.16708e-18
      337.419   3.14012e-18
      337.523   3.11335e-18
      337.626   3.08707e-18
      337.730   3.06077e-18
      337.834   3.03464e-18
      337.938   3.00874e-18
      338.042   2.98312e-18
      338.146   2.95805e-18
      338.250   2.93322e-18
      338.354   2.90858e-18
      338.458   2.88412e-18
      338.562   2.85986e-18
      338.667   2.83555e-18
      338.771   2.81166e-18
      338.875   2.78796e-18
      338.979   2.76444e-18
      339.084   2.74091e-18
      339.188   2.71776e-18
      339.292   2.69482e-18
      339.397   2.67182e-18
      339.501   2.64924e-18
      339.606   2.62661e-18
      339.710   2.60437e-18
      339.815   2.58211e-18
      339.919   2.56025e-18
      340.024   2.53833e-18
      340.128   2.51682e-18
      340.233   2.49526e-18
      340.338   2.47390e-18
      340.442   2.45289e-18
      340.547   2.43187e-18
      340.652   2.41101e-18
      340.757   2.39032e-18
      340.862   2.36981e-18
      340.966   2.34966e-18
      341.071   2.32946e-18
      341.176   2.30945e-18
      341.281   2.28961e-18
      341.386   2.26994e-18
      341.491   2.25041e-18
      341.596   2.23108e-18
      341.702   2.21172e-18
      341.807   2.19267e-18
      341.912   2.17381e-18
      342.017   2.15512e-18
      342.122   2.13656e-18
      342.228   2.11799e-18
      342.333   2.09976e-18
      342.438   2.08168e-18
      342.544   2.06359e-18
      342.649   2.04581e-18
      342.754   2.02821e-18
      342.860   2.01057e-18
      342.965   1.99324e-18
      343.071   1.97592e-18
      343.176   1.95890e-18
      343.282   1.94186e-18
      343.388   1.92499e-18
      343.493   1.90853e-18
      343.599   1.89305e-18
      343.705   1.87782e-18
      343.810   1.86283e-18
      343.916   1.84783e-18
      344.022   1.83296e-18
      344.128   1.81821e-18
      344.234   1.80357e-18
      344.340   1.78906e-18
      344.446   1.77465e-18
      344.552   1.76037e-18
      344.658   1.74623e-18
      344.764   1.73219e-18
      344.870   1.71827e-18
      344.976   1.70446e-18
      345.082   1.69076e-18
      345.188   1.67719e-18
      345.294   1.66372e-18
      345.401   1.65024e-18
      345.507   1.63700e-18
      345.613   1.62387e-18
      345.719   1.61085e-18
      345.826   1.59782e-18
      345.932   1.58501e-18
      346.039   1.57220e-18
      346.145   1.55960e-18
      346.252   1.54701e-18
      346.358   1.53464e-18
      346.465   1.52225e-18
      346.571   1.51008e-18
      346.678   1.49790e-18
      346.785   1.48582e-18
      346.891   1.47396e-18
      346.998   1.46210e-18
      347.105   1.45034e-18
      347.212   1.43866e-18
      347.319   1.42710e-18
      347.425   1.41573e-18
      347.532   1.40435e-18
      347.639   1.39309e-18
      347.746   1.38190e-18
      347.853   1.37083e-18
      347.960   1.35983e-18
      348.067   1.34895e-18
      348.174   1.33816e-18
      348.281   1.32744e-18
      348.389   1.31674e-18
      348.496   1.30621e-18
      348.603   1.29579e-18
      348.710   1.28544e-18
      348.818   1.27510e-18
      348.925   1.26493e-18
      349.032   1.25486e-18
      349.140   1.24476e-18
      349.247   1.23483e-18
      349.355   1.22491e-18
      349.462   1.21516e-18
      349.570   1.20539e-18
      349.677   1.19581e-18
      349.785   1.18621e-18
      349.892   1.17680e-18
      350.000   1.16738e-18
      350.100   1.15872e-18
      350.193   1.15074e-18
      350.287   1.14273e-18
      350.380   1.13486e-18
      350.473   1.12706e-18
      350.567   1.11922e-18
      350.660   1.11153e-18
      350.754   1.10381e-18
      350.847   1.09625e-18
      350.941   1.08864e-18
      351.034   1.08118e-18
      351.128   1.07370e-18
      351.221   1.06635e-18
      351.315   1.05898e-18
      351.409   1.05165e-18
      351.502   1.04447e-18
      351.596   1.03725e-18
      351.690   1.03010e-18
      351.783   1.02307e-18
      351.877   1.01603e-18
      351.971   1.00903e-18
      352.065   1.00209e-18
      352.159   9.95199e-19
      352.252   9.88430e-19
      352.346   9.81637e-19
      352.440   9.74896e-19
      352.534   9.68215e-19
      352.628   9.61579e-19
      352.722   9.54987e-19
      352.816   9.48445e-19
      352.910   9.41957e-19
      353.004   9.35515e-19
      353.098   9.29116e-19
      353.192   9.22767e-19
      353.287   9.16401e-19
      353.381   9.10147e-19
      353.475   9.03943e-19
      353.569   8.97774e-19
      353.663   8.91656e-19
      353.758   8.85528e-19
      353.852   8.79505e-19
      353.946   8.73524e-19
      354.041   8.67521e-19
      354.135   8.61627e-19
      354.229   8.55774e-19
      354.324   8.49910e-19
      354.418   8.44138e-19
      354.513   8.38353e-19
      354.607   8.32682e-19
      354.702   8.26960e-19
      354.796   8.21275e-19
      354.891   8.15560e-19
      354.985   8.09953e-19
      355.080   8.04323e-19
      355.175   7.98740e-19
      355.269   7.93248e-19
      355.364   7.87744e-19
      355.459   7.82280e-19
      355.553   7.76913e-19
      355.648   7.71528e-19
      355.743   7.66185e-19
      355.838   7.60874e-19
      355.933   7.55611e-19
      356.027   7.50439e-19
      356.122   7.45246e-19
      356.217   7.40091e-19
      356.312   7.34978e-19
      356.407   7.29899e-19
      356.502   7.24858e-19
      356.597   7.19847e-19
      356.692   7.14883e-19
      356.787   7.09949e-19
      356.882   7.05049e-19
      356.977   7.00188e-19
      357.073   6.95312e-19
      357.168   6.90515e-19
      357.263   6.85756e-19
      357.358   6.81032e-19
      357.453   6.76342e-19
      357.549   6.71637e-19
      357.644   6.67013e-19
      357.739   6.62423e-19
      357.835   6.57819e-19
      357.930   6.53293e-19
      358.025   6.48797e-19
      358.121   6.44288e-19
      358.216   6.39856e-19
      358.312   6.35409e-19
      358.407   6.31043e-19
      358.503   6.26659e-19
      358.598   6.22356e-19
      358.694   6.18035e-19
      358.790   6.13743e-19
      358.885   6.09523e-19
      358.981   6.05293e-19
      359.076   6.01134e-19
      359.172   5.96964e-19
      359.268   5.92817e-19
      359.364   5.88700e-19
      359.459   5.84660e-19
      359.555   5.80604e-19
      359.651   5.76572e-19
      359.747   5.72570e-19
      359.843   5.68596e-19
      359.939   5.64648e-19
      360.035   5.60730e-19
      360.131   5.56837e-19
      360.227   5.52970e-19
      360.323   5.49132e-19
      360.419   5.45321e-19
      360.515   5.41536e-19
      360.611   5.37776e-19
      360.707   5.34037e-19
      360.803   5.30329e-19
      360.899   5.26642e-19
      360.995   5.22988e-19
      361.092   5.19316e-19
      361.188   5.15705e-19
      361.284   5.12120e-19
      361.380   5.08561e-19
      361.477   5.04986e-19
      361.573   5.01474e-19
      361.669   4.97985e-19
      361.766   4.94480e-19
      361.862   4.91039e-19
      361.959   4.87586e-19
      362.055   4.84183e-19
      362.152   4.80777e-19
      362.248   4.77424e-19
      362.345   4.74057e-19
      362.441   4.70753e-19
      362.538   4.67436e-19
      362.635   4.64140e-19
      362.731   4.60896e-19
      362.828   4.57640e-19
      362.925   4.54409e-19
      363.021   4.51232e-19
      363.118   4.48044e-19
      363.215   4.44873e-19
      363.312   4.41724e-19
      363.409   4.38600e-19
      363.505   4.35525e-19
      363.602   4.32438e-19
      363.699   4.29375e-19
      363.796   4.26329e-19
      363.893   4.23303e-19
      363.990   4.20298e-19
      364.087   4.17312e-19
      364.184   4.14347e-19
      364.281   4.11400e-19
      364.378   4.08475e-19
      364.475   4.05566e-19
      364.573   4.02646e-19
      364.670   3.99774e-19
      364.767   3.96925e-19
      364.864   3.94093e-19
      364.961   3.91277e-19
      365.059   3.88454e-19
      365.156   3.85677e-19
      365.253   3.82918e-19
      365.351   3.80148e-19
      365.448   3.77424e-19
      365.545   3.74720e-19
      365.643   3.72003e-19
      365.740   3.69332e-19
      365.838   3.66652e-19
      365.935   3.64017e-19
      366.033   3.61373e-19
      366.130   3.58771e-19
      366.228   3.56160e-19
      366.326   3.53568e-19
      366.423   3.51017e-19
      366.521   3.48457e-19
      366.618   3.45938e-19
      366.716   3.43410e-19
      366.814   3.40900e-19
      366.912   3.38408e-19
      367.010   3.35931e-19
      367.107   3.33495e-19
      367.205   3.31049e-19
      367.303   3.28619e-19
      367.401   3.26206e-19
      367.499   3.23808e-19
      367.597   3.21426e-19
      367.695   3.19059e-19
      367.793   3.16709e-19
      367.891   3.14375e-19
      367.989   3.12055e-19
      368.087   3.09751e-19
      368.185   3.07461e-19
      368.283   3.05186e-19
      368.381   3.02926e-19
      368.480   3.00658e-19
      368.578   2.98429e-19
      368.676   2.96215e-19
      368.774   2.94015e-19
      368.873   2.91808e-19
      368.971   2.89637e-19
      369.069   2.87482e-19
      369.168   2.85316e-19
      369.266   2.83187e-19
      369.364   2.81073e-19
      369.463   2.78953e-19
      369.561   2.76868e-19
      369.660   2.74775e-19
      369.758   2.72717e-19
      369.857   2.70653e-19
      369.955   2.68623e-19
      370.054   2.66585e-19
      370.153   2.64561e-19
      370.251   2.62571e-19
      370.350   2.60576e-19
      370.449   2.58595e-19
      370.547   2.56645e-19
      370.646   2.54688e-19
      370.745   2.52746e-19
      370.844   2.50817e-19
      370.943   2.48901e-19
      371.041   2.47018e-19
      371.140   2.45127e-19
      371.239   2.43249e-19
      371.338   2.41386e-19
      371.437   2.39535e-19
      371.536   2.37696e-19
      371.635   2.35870e-19
      371.734   2.34057e-19
      371.833   2.32257e-19
      371.932   2.30469e-19
      372.032   2.28675e-19
      372.131   2.26911e-19
      372.230   2.25161e-19
      372.329   2.23424e-19
      372.428   2.21698e-19
      372.528   2.19967e-19
      372.627   2.18266e-19
      372.726   2.16577e-19
      372.826   2.14884e-19
      372.925   2.13219e-19
      373.024   2.11565e-19
      373.124   2.09905e-19
      373.223   2.08275e-19
      373.323   2.06641e-19
      373.422   2.05034e-19
      373.522   2.03422e-19
      373.621   2.01839e-19
      373.721   2.00250e-19
      373.820   1.98689e-19
      373.920   1.97123e-19
      374.020   1.95567e-19
      374.119   1.94040e-19
      374.219   1.92507e-19
      374.319   1.90987e-19
      374.419   1.89477e-19
      374.518   1.87993e-19
      374.618   1.86505e-19
      374.718   1.85026e-19
      374.818   1.83560e-19
      374.918   1.82105e-19
      375.018   1.80660e-19
      375.118   1.79227e-19
      375.218   1.77802e-19
      375.318   1.76390e-19
      375.418   1.74987e-19
      375.518   1.73595e-19
      375.618   1.72214e-19
      375.718   1.70842e-19
      375.818   1.69481e-19
      375.918   1.68130e-19
      376.019   1.66776e-19
      376.119   1.65446e-19
      376.219   1.64125e-19
      376.319   1.62814e-19
      376.420   1.61501e-19
      376.520   1.60210e-19
      376.620   1.58929e-19
      376.721   1.57645e-19
      376.821   1.56384e-19
      376.922   1.55119e-19
      377.022   1.53877e-19
      377.122   1.52645e-19
      377.223   1.51410e-19
      377.323   1.50196e-19
      377.424   1.48980e-19
      377.525   1.47773e-19
      377.625   1.46587e-19
      377.726   1.45399e-19
      377.827   1.44221e-19
      377.927   1.43062e-19
      378.028   1.41902e-19
      378.129   1.40751e-19
      378.230   1.39765e-19
      378.330   1.39036e-19
      378.431   1.38343e-19
      378.532   1.37654e-19
      378.633   1.36967e-19
      378.734   1.36283e-19
      378.835   1.35603e-19
      378.936   1.34926e-19
      379.037   1.34252e-19
      379.138   1.33580e-19
      379.239   1.32912e-19
      379.340   1.32248e-19
      379.441   1.31587e-19
      379.542   1.30928e-19
      379.643   1.30272e-19
      379.745   1.29614e-19
      379.846   1.28964e-19
      379.947   1.28317e-19
      380.048   1.27674e-19
      380.150   1.27028e-19
      380.251   1.26391e-19
      380.352   1.25757e-19
      380.454   1.25121e-19
      380.555   1.24493e-19
      380.656   1.23867e-19
      380.758   1.23240e-19
      380.859   1.22621e-19
      380.961   1.21999e-19
      381.062   1.21387e-19
      381.164   1.20772e-19
      381.266   1.20159e-19
      381.367   1.19556e-19
      381.469   1.18950e-19
      381.570   1.18353e-19
      381.672   1.17752e-19
      381.774   1.17155e-19
      381.876   1.16561e-19
      381.977   1.15976e-19
      382.079   1.15388e-19
      382.181   1.14803e-19
      382.283   1.14222e-19
      382.385   1.13643e-19
      382.487   1.13068e-19
      382.589   1.12495e-19
      382.691   1.11925e-19
      382.793   1.11358e-19
      382.895   1.10795e-19
      382.997   1.10234e-19
      383.099   1.09676e-19
      383.201   1.09121e-19
      383.303   1.08570e-19
      383.405   1.08020e-19
      383.507   1.07473e-19
      383.610   1.06925e-19
      383.712   1.06385e-19
      383.814   1.05848e-19
      383.916   1.05314e-19
      384.019   1.04777e-19
      384.121   1.04249e-19
      384.223   1.03722e-19
      384.326   1.03213e-19
      384.428   1.02755e-19
      384.531   1.02309e-19
      384.633   1.01869e-19
      384.736   1.01427e-19
      384.838   1.00991e-19
      384.941   1.00553e-19
      385.043   1.00121e-19
      385.146   9.96879e-20
      385.249   9.92560e-20
      385.351   9.88304e-20
      385.454   9.84032e-20
      385.557   9.79779e-20
      385.660   9.75549e-20
      385.762   9.71379e-20
      385.865   9.67189e-20
      385.968   9.63017e-20
      386.071   9.58867e-20
      386.174   9.54737e-20
      386.277   9.50628e-20
      386.380   9.46538e-20
      386.483   9.42467e-20
      386.586   9.38427e-20
      386.689   9.34399e-20
      386.792   9.30390e-20
      386.895   9.26401e-20
      386.998   9.22436e-20
      387.101   9.18486e-20
      387.204   9.14550e-20
      387.308   9.10608e-20
      387.411   9.06720e-20
      387.514   9.02849e-20
      387.617   8.98998e-20
      387.721   8.95130e-20
      387.824   8.91321e-20
      387.927   8.87526e-20
      388.031   8.83715e-20
      388.134   8.79960e-20
      388.238   8.76192e-20
      388.341   8.72473e-20
      388.445   8.68743e-20
      388.548   8.65059e-20
      388.652   8.61370e-20
      388.755   8.57729e-20
      388.859   8.54068e-20
      388.962   8.50462e-20
      389.066   8.46838e-20
      389.170   8.43237e-20
      389.274   8.39655e-20
      389.377   8.36127e-20
      389.481   8.32574e-20
      389.585   8.29044e-20
      389.689   8.25529e-20
      389.793   8.22035e-20
      389.897   8.18558e-20
      390.000   8.15134e-20
      390.104   8.11693e-20
      390.208   8.08266e-20
      390.312   8.04858e-20
      390.416   8.01461e-20
      390.520   7.98072e-20
      390.625   7.94671e-20
      390.729   7.91318e-20
      390.833   7.87982e-20
      390.937   7.84663e-20
      391.041   7.81362e-20
      391.145   7.78072e-20
      391.250   7.74773e-20
      391.354   7.71519e-20
      391.458   7.68280e-20
      391.563   7.65028e-20
      391.667   7.61825e-20
      391.771   7.58638e-20
      391.876   7.55435e-20
      391.980   7.52276e-20
      392.085   7.49105e-20
      392.189   7.45981e-20
      392.294   7.42842e-20
      392.398   7.39748e-20
      392.503   7.36640e-20
      392.607   7.33573e-20
      392.712   7.30500e-20
      392.817   7.27433e-20
      392.921   7.24419e-20
      393.026   7.21385e-20
      393.131   7.18368e-20
      393.236   7.15362e-20
      393.340   7.12406e-20
      393.445   7.09436e-20
      393.550   7.06475e-20
      393.655   7.03532e-20
      393.760   7.00602e-20
      393.865   6.97689e-20
      393.970   6.94786e-20
      394.075   6.91897e-20
      394.180   6.89029e-20
      394.285   6.86171e-20
      394.390   6.83322e-20
      394.495   6.80489e-20
      394.600   6.77672e-20
      394.706   6.74840e-20
      394.811   6.72052e-20
      394.916   6.69267e-20
      395.021   6.66502e-20
      395.126   6.63751e-20
      395.232   6.60983e-20
      395.337   6.58253e-20
      395.443   6.55516e-20
      395.548   6.52812e-20
      395.653   6.50120e-20
      395.759   6.47420e-20
      395.864   6.44758e-20
      395.970   6.42081e-20
      396.075   6.39440e-20
      396.181   6.36786e-20
      396.286   6.34165e-20
      396.392   6.31539e-20
      396.498   6.28925e-20
      396.603   6.26338e-20
      396.709   6.23742e-20
      396.815   6.21152e-20
      396.921   6.18578e-20
      397.026   6.16041e-20
      397.132   6.13492e-20
      397.238   6.10954e-20
      397.344   6.08424e-20
      397.450   6.05910e-20
      397.556   6.03401e-20
      397.662   6.00905e-20
      397.768   5.98421e-20
      397.874   5.95952e-20
      397.980   5.93483e-20
      398.086   5.91032e-20
      398.192   5.88587e-20
      398.298   5.86152e-20
      398.404   5.83735e-20
      398.510   5.81320e-20
      398.617   5.78895e-20
      398.723   5.76502e-20
      398.829   5.74119e-20
      398.935   5.71743e-20
      399.042   5.69363e-20
      399.148   5.67005e-20
      399.255   5.64638e-20
      399.361   5.62304e-20
      399.467   5.59974e-20
      399.574   5.57640e-20
      399.680   5.55329e-20
      399.787   5.53005e-20
      399.893       0.00000
      400.000       0.00000
