Filter Al-med
observation_date 2008-09-22 22:40:45
wavelength effective area
      1.00000   2.66385e-10
      1.10000   7.49527e-10
      1.20000   1.91514e-09
      1.30000   4.48765e-09
      1.40000   9.94645e-09
      1.50000   2.06564e-08
      1.60000   4.05604e-08
      1.70000   7.60809e-08
      1.80000   1.36315e-07
      1.90000   2.34797e-07
      2.00000   3.89515e-07
      2.10000   6.24967e-07
      2.20000   9.74216e-07
      2.30000   1.47336e-06
      2.40000   2.16542e-06
      2.50000   3.08225e-06
      2.60000   4.35748e-06
      2.70000   5.98573e-06
      2.80000   8.02307e-06
      2.90000   1.05770e-05
      3.00000   1.36511e-05
      3.10000   1.72905e-05
      3.20000   2.15301e-05
      3.30000   2.63733e-05
      3.40000   3.17760e-05
      3.50000   3.76877e-05
      3.60000   4.41766e-05
      3.70000   5.09476e-05
      3.80000   5.80955e-05
      3.90000   6.54486e-05
      4.00000   7.28107e-05
      4.10000   8.00899e-05
      4.20000   8.71902e-05
      4.30000   9.39945e-05
      4.40000   0.000100372
      4.50000   0.000106174
      4.60000   0.000111218
      4.70000   0.000115669
      4.80000   0.000119273
      4.90000   0.000120746
      5.00000   0.000124362
      5.10000   0.000125665
      5.20000   0.000126246
      5.30000   0.000125126
      5.40000   0.000122810
      5.50000   0.000119984
      5.60000   0.000112937
      5.70000   0.000111272
      5.80000   9.78659e-05
      5.90000   0.000111673
      6.00000   0.000111549
      6.10000   0.000105292
      6.20000   9.56781e-05
      6.30000   8.26653e-05
      6.40000   6.79354e-05
      6.50000   5.32189e-05
      6.60000   3.95098e-05
      6.70000   2.87849e-05
      6.80000   2.03714e-05
      6.90000   1.87233e-05
      7.00000   1.42068e-05
      7.10000   1.04174e-05
      7.20000   7.49548e-06
      7.30000   5.34507e-06
      7.40000   3.78463e-06
      7.50000   2.63640e-06
      7.60000   1.80423e-06
      7.70000   1.23040e-06
      7.80000   8.20808e-07
      7.90000   5.42350e-07
      8.00000      0.299363
      8.10000      0.315715
      8.20000      0.308693
      8.30000      0.300197
      8.40000      0.291142
      8.50000      0.281809
      8.60000      0.272155
      8.70000      0.262337
      8.80000      0.252327
      8.90000      0.242229
      9.00000      0.232101
      9.10000      0.221985
      9.20000      0.211923
      9.30000      0.201998
      9.40000      0.192204
      9.50000      0.182567
      9.60000      0.173170
      9.70000      0.163984
      9.80000      0.154994
      9.90000      0.146259
      10.0000      0.137779
      10.1000      0.129556
      10.2000      0.121603
      10.3000      0.113976
      10.4000      0.106682
      10.5000     0.0996937
      10.6000     0.0930158
      10.7000     0.0866478
      10.8000     0.0806017
      10.9000     0.0748883
      11.0000     0.0694719
      11.1000     0.0643483
      11.2000     0.0595101
      11.3000     0.0549522
      11.4000     0.0506653
      11.5000     0.0466396
      11.6000     0.0428671
      11.7000     0.0393517
      11.8000     0.0360738
      11.9000     0.0330460
      12.0000     0.0302117
      12.1000     0.0276951
      12.2000     0.0258179
      12.3000     0.0237579
      12.4000     0.0216559
      12.5000     0.0196964
      12.6000     0.0178814
      12.7000     0.0162060
      12.8000     0.0146643
      12.9000     0.0132494
      13.0000     0.0119532
      13.1000     0.0107675
      13.2000    0.00968481
      13.3000    0.00869772
      13.4000    0.00779947
      13.5000    0.00698549
      13.6000    0.00625423
      13.7000    0.00559152
      13.8000    0.00499163
      13.9000    0.00444950
      14.0000    0.00396015
      14.1000    0.00351889
      14.2000    0.00312153
      14.3000    0.00276424
      14.4000    0.00244349
      14.5000    0.00215796
      14.6000    0.00190538
      14.7000    0.00167935
      14.8000    0.00147730
      14.9000    0.00129692
      15.0000    0.00113614
      15.1000   0.000993084
      15.2000   0.000868979
      15.3000   0.000759242
      15.4000   0.000661830
      15.5000   0.000575507
      15.6000   0.000499176
      15.7000   0.000432903
      15.8000   0.000375732
      15.9000   0.000325298
      16.0000   0.000280898
      16.1000   0.000241904
      16.2000   0.000208888
      16.3000   0.000180180
      16.4000   0.000154908
      16.5000   0.000132721
      16.6000   0.000113753
      16.7000   9.76179e-05
      16.8000   8.34328e-05
      16.9000   7.10082e-05
      17.0000   6.04961e-05
      17.1000   5.15993e-05
      17.2000   4.37957e-05
      17.3000   3.69901e-05
      17.4000   3.14614e-05
      17.5000   2.67452e-05
      17.6000   2.26544e-05
      17.7000   1.92000e-05
      17.8000   1.64160e-05
      17.9000   1.39589e-05
      18.0000   1.17935e-05
      18.1000   1.00312e-05
      18.2000   8.47375e-06
      18.3000   7.09140e-06
      18.4000   5.93920e-06
      18.5000   4.95047e-06
      18.6000   4.07670e-06
      18.7000   3.35187e-06
      18.8000   2.75534e-06
      18.9000   2.23941e-06
      19.0000   1.83042e-06
      19.1000   1.49670e-06
      19.2000   1.20940e-06
      19.3000   9.88235e-07
      19.4000   8.05462e-07
      19.5000   6.48381e-07
      19.6000   5.31815e-07
      19.7000   4.32168e-07
      19.8000   3.47518e-07
      19.9000   2.85324e-07
      20.0000   2.30477e-07
      20.1000   1.86230e-07
      20.2000   1.51462e-07
      20.3000   1.21032e-07
      20.4000   9.82303e-08
      20.5000   7.89384e-08
      20.6000   6.27743e-08
      20.7000   5.08365e-08
      20.8000   4.02660e-08
      20.9000   3.22981e-08
      21.0000   2.57359e-08
      21.1000   2.02291e-08
      21.2000   1.62524e-08
      21.3000   1.27122e-08
      21.4000   1.01333e-08
      21.5000   7.97147e-09
      21.6000   6.23205e-09
      21.7000   4.93953e-09
      21.8000   3.79611e-09
      21.9000   3.02613e-09
      22.0000   2.33571e-09
      22.1000   1.82942e-09
      22.2000   1.41658e-09
      22.3000   1.08498e-09
      22.4000   8.33136e-10
      22.5000   6.07286e-10
      22.6000   4.35944e-10
      22.7000   2.93652e-10
      22.8000   2.80702e-10
      22.9000   2.76913e-10
      23.0000   2.80840e-10
      23.1000   2.61081e-10
      23.2000   2.19455e-10
      23.3000   1.78776e-10
      23.4000   1.38654e-10
      23.5000   1.09933e-10
      23.6000   8.40520e-11
      23.7000   6.67435e-11
      23.8000   5.03862e-11
      23.9000   4.00085e-11
      24.0000   3.01725e-11
      24.1000   2.37601e-11
      24.2000   1.78824e-11
      24.3000   1.39893e-11
      24.4000   1.05216e-11
      24.5000   8.18759e-12
      24.6000   6.15481e-12
      24.7000   4.76737e-12
      24.8000   3.58051e-12
      24.9000   2.76880e-12
      25.0000   2.07895e-12
      25.1000   1.60299e-12
      25.2000   1.19969e-12
      25.3000   9.24490e-13
      25.4000   6.89496e-13
      25.5000   5.30798e-13
      25.6000   3.93431e-13
      25.7000   3.02995e-13
      25.8000   2.22948e-13
      25.9000   1.71909e-13
      26.0000   1.25357e-13
      26.1000   9.68853e-14
      26.2000   6.99166e-14
      26.3000   5.42189e-14
      26.4000   3.86650e-14
      26.5000   3.01122e-14
      26.6000   2.15991e-14
      26.7000   1.65881e-14
      26.8000   1.20103e-14
      26.9000   9.06140e-15
      27.0000   6.62962e-15
      27.1000   4.90392e-15
      27.2000   3.62771e-15
      27.3000   2.62994e-15
      27.4000   1.97775e-15
      27.5000   1.40829e-15
      27.6000   1.06923e-15
      27.7000   7.41052e-16
      27.8000   5.69367e-16
      27.9000   3.98466e-16
      28.0000   2.99434e-16
      28.1000   2.14695e-16
      28.2000   1.56183e-16
      28.3000   1.15194e-16
      28.4000   8.14723e-17
      28.5000   6.14059e-17
      28.6000   4.21637e-17
      28.7000   3.27331e-17
      28.8000   2.33464e-17
      28.9000   1.76044e-17
      29.0000   1.29152e-17
      29.1000   9.34229e-18
      29.2000   7.02971e-18
      29.3000   4.89002e-18
      29.4000   3.76408e-18
      29.5000   2.64346e-18
      29.6000   1.98241e-18
      29.7000   1.44404e-18
      29.8000   1.02682e-18
      29.9000   7.71654e-19
      30.0000   5.23009e-19
      30.1000   4.03716e-19
      30.2000   2.84988e-19
      30.3000   2.08829e-19
      30.4000   1.57085e-19
      30.5000   1.10844e-19
      30.6000   8.43589e-20
      30.7000   5.79999e-20
      30.8000   4.27945e-20
      30.9000   3.09749e-20
      31.0000   2.12016e-20
      31.1000   1.59791e-20
      31.2000   1.07816e-20
      31.3000   7.99580e-21
      31.4000   5.73375e-21
      31.5000   3.89196e-21
      31.6000   2.92241e-21
      31.7000   1.95753e-21
      31.8000   1.43725e-21
      31.9000   1.03003e-21
      32.0000   6.84943e-22
      32.1000   5.15766e-22
      32.2000   3.47402e-22
      32.3000   2.48032e-22
      32.4000   1.79231e-22
      32.5000   1.15223e-22
      32.6000   8.75779e-23
      32.7000   6.00643e-23
      32.8000   4.09873e-23
      32.9000   3.01038e-23
      33.0000   1.92730e-23
      33.1000   1.42585e-23
      33.2000   1.00482e-23
      33.3000   6.45960e-24
      33.4000   4.84932e-24
      33.5000   3.24662e-24
      33.6000   2.21230e-24
      33.7000   1.61003e-24
      33.8000   1.01053e-24
      33.9000   7.42522e-25
      34.0000   5.21202e-25
      34.1000   3.24195e-25
      34.2000   2.42870e-25
      34.3000   1.61893e-25
      34.4000   1.04110e-25
      34.5000   7.60614e-26
      34.6000   4.81351e-26
      34.7000   3.25177e-26
      34.8000   2.26373e-26
      34.9000   1.27991e-26
      35.0000   9.15551e-27
      35.1000   6.16366e-27
      35.2000   3.40944e-27
      35.3000   2.52144e-27
      35.4000   1.63726e-27
      35.5000   9.35665e-28
      35.6000   6.79629e-28
      35.7000   4.24694e-28
      35.8000   2.51373e-28
      35.9000   1.79393e-28
      36.0000   1.07723e-28
      36.1000   6.61305e-29
      36.2000   4.64082e-29
      36.3000   2.67708e-29
      36.4000   1.70393e-29
      36.5000   1.17747e-29
      36.6000   6.53310e-30
      36.7000   4.29950e-30
      36.8000   2.93201e-30
      36.9000   1.57050e-30
      37.0000   1.06288e-30
      37.1000   7.17266e-31
      37.2000   3.73139e-31
      37.3000   2.57429e-31
      37.4000   1.72474e-31
      37.5000   8.78914e-32
      37.6000   6.10737e-32
      37.7000   4.07801e-32
      37.8000   2.05756e-32
      37.9000   1.41902e-32
      38.0000   9.48052e-33
      38.1000   4.79127e-33
      38.2000   3.22674e-33
      38.3000   2.16551e-33
      38.4000   1.10889e-33
      38.5000   7.17389e-34
      38.6000   4.85451e-34
      38.7000   2.54523e-34
      38.8000   1.55823e-34
      38.9000   1.06673e-34
      39.0000   5.77347e-35
      39.1000   3.30306e-35
      39.2000   2.29377e-35
      39.3000   1.28884e-35
      39.4000   6.82417e-36
      39.5000   4.81702e-36
      39.6000   2.81869e-36
      39.7000   1.37227e-36
      39.8000   9.86022e-37
      39.9000   6.01445e-37
      40.0000   2.68226e-37
      40.1000   1.96337e-37
      40.2000   1.24759e-37
      40.3000   5.34995e-38
      40.4000   3.79555e-38
      40.5000   2.50799e-38
      40.6000   1.22596e-38
      40.7000   7.11026e-39
      40.8000   4.87296e-39
      40.9000   2.64552e-39
      41.0000   1.28813e-39
      41.1000   9.13075e-40
      41.2000   5.39686e-40
      41.3000   2.25385e-40
      41.4000   1.64765e-40
      41.5000   1.04398e-40
      41.6000   4.42978e-41
      41.7000   2.85977e-41
      41.8000   1.91922e-41
      41.9000   9.82450e-42
      42.0000   4.77002e-42
      42.1000   3.35751e-42
      42.2000   1.95201e-42
      42.3000   7.60905e-43
      42.4000   5.59118e-43
      42.5000   3.57331e-43
      42.6000   1.56945e-43
      42.7000   8.96831e-44
      42.8000   5.74532e-44
      42.9000   3.22299e-44
      43.0000   1.26117e-44
      43.1000   9.80909e-45
      43.2000   7.00649e-45
      43.3000       0.00000
      43.4000   2.80260e-45
      43.5000   2.80260e-45
      43.6000   2.80260e-45
      43.7000       0.00000
      43.8000       0.00000
      43.9000       0.00000
      44.0000       0.00000
      44.1000       0.00000
      44.2000       0.00000
      44.3000       0.00000
      44.4000       0.00000
      44.5000       0.00000
      44.6000       0.00000
      44.7000       0.00000
      44.8000       0.00000
      44.9000       0.00000
      45.0000       0.00000
      45.1000       0.00000
      45.2000       0.00000
      45.3000       0.00000
      45.4000       0.00000
      45.5000       0.00000
      45.6000       0.00000
      45.7000       0.00000
      45.8000       0.00000
      45.9000       0.00000
      46.0000       0.00000
      46.1000       0.00000
      46.2000       0.00000
      46.3000       0.00000
      46.4000       0.00000
      46.5000       0.00000
      46.6000       0.00000
      46.7000       0.00000
      46.8000       0.00000
      46.9000       0.00000
      47.0000       0.00000
      47.1000       0.00000
      47.2000       0.00000
      47.3000       0.00000
      47.4000       0.00000
      47.5000       0.00000
      47.6000       0.00000
      47.7000       0.00000
      47.8000       0.00000
      47.9000       0.00000
      48.0000       0.00000
      48.1000       0.00000
      48.2000       0.00000
      48.3000       0.00000
      48.4000       0.00000
      48.5000       0.00000
      48.6000       0.00000
      48.7000       0.00000
      48.8000       0.00000
      48.9000       0.00000
      49.0000       0.00000
      49.1000       0.00000
      49.2000       0.00000
      49.3000       0.00000
      49.4000       0.00000
      49.5000       0.00000
      49.6000       0.00000
      49.7000       0.00000
      49.8000       0.00000
      49.9000       0.00000
      50.0000       0.00000
      50.1000       0.00000
      50.2000       0.00000
      50.3000       0.00000
      50.4000       0.00000
      50.5000       0.00000
      50.6000       0.00000
      50.7000       0.00000
      50.8000       0.00000
      50.9000       0.00000
      51.0000       0.00000
      51.1000       0.00000
      51.2000       0.00000
      51.3000       0.00000
      51.4000       0.00000
      51.5000       0.00000
      51.6000       0.00000
      51.7000       0.00000
      51.8000       0.00000
      51.9000       0.00000
      52.0000       0.00000
      52.1000       0.00000
      52.2000       0.00000
      52.3000       0.00000
      52.4000       0.00000
      52.5000       0.00000
      52.6000       0.00000
      52.7000       0.00000
      52.8000       0.00000
      52.9000       0.00000
      53.0000       0.00000
      53.1000       0.00000
      53.2000       0.00000
      53.3000       0.00000
      53.4000       0.00000
      53.5000       0.00000
      53.6000       0.00000
      53.7000       0.00000
      53.8000       0.00000
      53.9000       0.00000
      54.0000       0.00000
      54.1000       0.00000
      54.2000       0.00000
      54.3000       0.00000
      54.4000       0.00000
      54.5000       0.00000
      54.6000       0.00000
      54.7000       0.00000
      54.8000       0.00000
      54.9000       0.00000
      55.0000       0.00000
      55.1000       0.00000
      55.2000       0.00000
      55.3000       0.00000
      55.4000       0.00000
      55.5000       0.00000
      55.6000       0.00000
      55.7000       0.00000
      55.8000       0.00000
      55.9000       0.00000
      56.0000       0.00000
      56.1000       0.00000
      56.2000       0.00000
      56.3000       0.00000
      56.4000       0.00000
      56.5000       0.00000
      56.6000       0.00000
      56.7000       0.00000
      56.8000       0.00000
      56.9000       0.00000
      57.0000       0.00000
      57.1000       0.00000
      57.2000       0.00000
      57.3000       0.00000
      57.4000       0.00000
      57.5000       0.00000
      57.6000       0.00000
      57.7000       0.00000
      57.8000       0.00000
      57.9000       0.00000
      58.0000       0.00000
      58.1000       0.00000
      58.2000       0.00000
      58.3000       0.00000
      58.4000       0.00000
      58.5000       0.00000
      58.6000       0.00000
      58.7000       0.00000
      58.8000       0.00000
      58.9000       0.00000
      59.0000       0.00000
      59.1000       0.00000
      59.2000       0.00000
      59.3000       0.00000
      59.4000       0.00000
      59.5000       0.00000
      59.6000       0.00000
      59.7000       0.00000
      59.8000       0.00000
      59.9000       0.00000
      60.0000       0.00000
      60.1000       0.00000
      60.2000       0.00000
      60.3000       0.00000
      60.4000       0.00000
      60.5000       0.00000
      60.6000       0.00000
      60.7000       0.00000
      60.8000       0.00000
      60.9000       0.00000
      61.0000       0.00000
      61.1000       0.00000
      61.2000       0.00000
      61.3000       0.00000
      61.4000       0.00000
      61.5000       0.00000
      61.6000       0.00000
      61.7000       0.00000
      61.8000       0.00000
      61.9000       0.00000
      62.0000       0.00000
      62.1000       0.00000
      62.2000       0.00000
      62.3000       0.00000
      62.4000       0.00000
      62.5000       0.00000
      62.6000       0.00000
      62.7000       0.00000
      62.8000       0.00000
      62.9000       0.00000
      63.0000       0.00000
      63.1000       0.00000
      63.2000       0.00000
      63.3000       0.00000
      63.4000       0.00000
      63.5000       0.00000
      63.6000       0.00000
      63.7000       0.00000
      63.8000       0.00000
      63.9000       0.00000
      64.0000       0.00000
      64.1000       0.00000
      64.2000       0.00000
      64.3000       0.00000
      64.4000       0.00000
      64.5000       0.00000
      64.6000       0.00000
      64.7000       0.00000
      64.8000       0.00000
      64.9000       0.00000
      65.0000       0.00000
      65.1000       0.00000
      65.2000       0.00000
      65.3000       0.00000
      65.4000       0.00000
      65.5000       0.00000
      65.6000       0.00000
      65.7000       0.00000
      65.8000       0.00000
      65.9000       0.00000
      66.0000       0.00000
      66.1000       0.00000
      66.2000       0.00000
      66.3000       0.00000
      66.4000       0.00000
      66.5000       0.00000
      66.6000       0.00000
      66.7000       0.00000
      66.8000       0.00000
      66.9000       0.00000
      67.0000       0.00000
      67.1000       0.00000
      67.2000       0.00000
      67.3000       0.00000
      67.4000       0.00000
      67.5000       0.00000
      67.6000       0.00000
      67.7000       0.00000
      67.8000       0.00000
      67.9000       0.00000
      68.0000       0.00000
      68.1000       0.00000
      68.2000       0.00000
      68.3000       0.00000
      68.4000       0.00000
      68.5000       0.00000
      68.6000       0.00000
      68.7000       0.00000
      68.8000       0.00000
      68.9000       0.00000
      69.0000       0.00000
      69.1000       0.00000
      69.2000       0.00000
      69.3000       0.00000
      69.4000       0.00000
      69.5000       0.00000
      69.6000       0.00000
      69.7000       0.00000
      69.8000       0.00000
      69.9000       0.00000
      70.0000       0.00000
      70.1000       0.00000
      70.2000       0.00000
      70.3000       0.00000
      70.4000       0.00000
      70.5000       0.00000
      70.6000       0.00000
      70.7000       0.00000
      70.8000       0.00000
      70.9000       0.00000
      71.0000       0.00000
      71.1000       0.00000
      71.2000       0.00000
      71.3000       0.00000
      71.4000       0.00000
      71.5000       0.00000
      71.6000       0.00000
      71.7000       0.00000
      71.8000       0.00000
      71.9000       0.00000
      72.0000       0.00000
      72.1000       0.00000
      72.2000       0.00000
      72.3000       0.00000
      72.4000       0.00000
      72.5000       0.00000
      72.6000       0.00000
      72.7000       0.00000
      72.8000       0.00000
      72.9000       0.00000
      73.0000       0.00000
      73.1000       0.00000
      73.2000       0.00000
      73.3000       0.00000
      73.4000       0.00000
      73.5000       0.00000
      73.6000       0.00000
      73.7000       0.00000
      73.8000       0.00000
      73.9000       0.00000
      74.0000       0.00000
      74.1000       0.00000
      74.2000       0.00000
      74.3000       0.00000
      74.4000       0.00000
      74.5000       0.00000
      74.6000       0.00000
      74.7000       0.00000
      74.8000       0.00000
      74.9000       0.00000
      75.0000       0.00000
      75.1000       0.00000
      75.2000       0.00000
      75.3000       0.00000
      75.4000       0.00000
      75.5000       0.00000
      75.6000       0.00000
      75.7000       0.00000
      75.8000       0.00000
      75.9000       0.00000
      76.0000       0.00000
      76.1000       0.00000
      76.2000       0.00000
      76.3000       0.00000
      76.4000       0.00000
      76.5000       0.00000
      76.6000       0.00000
      76.7000       0.00000
      76.8000       0.00000
      76.9000       0.00000
      77.0000       0.00000
      77.1000       0.00000
      77.2000       0.00000
      77.3000       0.00000
      77.4000       0.00000
      77.5000       0.00000
      77.6000       0.00000
      77.7000       0.00000
      77.8000       0.00000
      77.9000       0.00000
      78.0000       0.00000
      78.1000       0.00000
      78.2000       0.00000
      78.3000       0.00000
      78.4000       0.00000
      78.5000       0.00000
      78.6000       0.00000
      78.7000       0.00000
      78.8000       0.00000
      78.9000       0.00000
      79.0000       0.00000
      79.1000       0.00000
      79.2000       0.00000
      79.3000       0.00000
      79.4000       0.00000
      79.5000       0.00000
      79.6000       0.00000
      79.7000       0.00000
      79.8000       0.00000
      79.9000       0.00000
      80.0000       0.00000
      80.1000       0.00000
      80.2000       0.00000
      80.3000       0.00000
      80.4000       0.00000
      80.5000       0.00000
      80.6000       0.00000
      80.7000       0.00000
      80.8000       0.00000
      80.9000       0.00000
      81.0000       0.00000
      81.1000       0.00000
      81.2000       0.00000
      81.3000       0.00000
      81.4000       0.00000
      81.5000       0.00000
      81.6000       0.00000
      81.7000       0.00000
      81.8000       0.00000
      81.9000       0.00000
      82.0000       0.00000
      82.1000       0.00000
      82.2000       0.00000
      82.3000       0.00000
      82.4000       0.00000
      82.5000       0.00000
      82.6000       0.00000
      82.7000       0.00000
      82.8000       0.00000
      82.9000       0.00000
      83.0000       0.00000
      83.1000       0.00000
      83.2000       0.00000
      83.3000       0.00000
      83.4000       0.00000
      83.5000       0.00000
      83.6000       0.00000
      83.7000       0.00000
      83.8000       0.00000
      83.9000       0.00000
      84.0000       0.00000
      84.1000       0.00000
      84.2000       0.00000
      84.3000       0.00000
      84.4000       0.00000
      84.5000       0.00000
      84.6000       0.00000
      84.7000       0.00000
      84.8000       0.00000
      84.9000       0.00000
      85.0000       0.00000
      85.1000       0.00000
      85.2000       0.00000
      85.3000       0.00000
      85.4000       0.00000
      85.5000       0.00000
      85.6000       0.00000
      85.7000       0.00000
      85.8000       0.00000
      85.9000       0.00000
      86.0000       0.00000
      86.1000       0.00000
      86.2000       0.00000
      86.3000       0.00000
      86.4000       0.00000
      86.5000       0.00000
      86.6000       0.00000
      86.7000       0.00000
      86.8000       0.00000
      86.9000       0.00000
      87.0000       0.00000
      87.1000       0.00000
      87.2000       0.00000
      87.3000       0.00000
      87.4000       0.00000
      87.5000       0.00000
      87.6000       0.00000
      87.7000       0.00000
      87.8000       0.00000
      87.9000       0.00000
      88.0000       0.00000
      88.1000       0.00000
      88.2000       0.00000
      88.3000       0.00000
      88.4000       0.00000
      88.5000       0.00000
      88.6000       0.00000
      88.7000       0.00000
      88.8000       0.00000
      88.9000       0.00000
      89.0000       0.00000
      89.1000       0.00000
      89.2000       0.00000
      89.3000       0.00000
      89.4000       0.00000
      89.5000       0.00000
      89.6000       0.00000
      89.7000       0.00000
      89.8000       0.00000
      89.9000       0.00000
      90.0000       0.00000
      90.1000       0.00000
      90.2000       0.00000
      90.3000       0.00000
      90.4000       0.00000
      90.5000       0.00000
      90.6000       0.00000
      90.7000       0.00000
      90.8000       0.00000
      90.9000       0.00000
      91.0000       0.00000
      91.1000       0.00000
      91.2000       0.00000
      91.3000       0.00000
      91.4000       0.00000
      91.5000       0.00000
      91.6000       0.00000
      91.7000       0.00000
      91.8000       0.00000
      91.9000       0.00000
      92.0000       0.00000
      92.1000       0.00000
      92.2000       0.00000
      92.3000       0.00000
      92.4000       0.00000
      92.5000       0.00000
      92.6000       0.00000
      92.7000       0.00000
      92.8000       0.00000
      92.9000       0.00000
      93.0000       0.00000
      93.1000       0.00000
      93.2000       0.00000
      93.3000       0.00000
      93.4000       0.00000
      93.5000       0.00000
      93.6000       0.00000
      93.7000       0.00000
      93.8000       0.00000
      93.9000       0.00000
      94.0000       0.00000
      94.1000       0.00000
      94.2000       0.00000
      94.3000       0.00000
      94.4000       0.00000
      94.5000       0.00000
      94.6000       0.00000
      94.7000       0.00000
      94.8000       0.00000
      94.9000       0.00000
      95.0000       0.00000
      95.1000       0.00000
      95.2000       0.00000
      95.3000       0.00000
      95.4000       0.00000
      95.5000       0.00000
      95.6000       0.00000
      95.7000       0.00000
      95.8000       0.00000
      95.9000       0.00000
      96.0000       0.00000
      96.1000       0.00000
      96.2000       0.00000
      96.3000       0.00000
      96.4000       0.00000
      96.5000       0.00000
      96.6000       0.00000
      96.7000       0.00000
      96.8000       0.00000
      96.9000       0.00000
      97.0000       0.00000
      97.1000       0.00000
      97.2000       0.00000
      97.3000       0.00000
      97.4000       0.00000
      97.5000       0.00000
      97.6000       0.00000
      97.7000       0.00000
      97.8000       0.00000
      97.9000       0.00000
      98.0000       0.00000
      98.1000       0.00000
      98.2000       0.00000
      98.3000       0.00000
      98.4000       0.00000
      98.5000       0.00000
      98.6000       0.00000
      98.7000       0.00000
      98.8000       0.00000
      98.9000       0.00000
      99.0000       0.00000
      99.1000       0.00000
      99.2000       0.00000
      99.3000       0.00000
      99.4000       0.00000
      99.5000       0.00000
      99.6000       0.00000
      99.7000       0.00000
      99.8000       0.00000
      99.9000       0.00000
      100.000       0.00000
      100.100       0.00000
      100.200       0.00000
      100.300       0.00000
      100.400       0.00000
      100.500       0.00000
      100.600       0.00000
      100.700       0.00000
      100.800       0.00000
      100.900       0.00000
      101.000       0.00000
      101.100       0.00000
      101.200       0.00000
      101.300       0.00000
      101.400       0.00000
      101.500       0.00000
      101.600       0.00000
      101.700       0.00000
      101.800       0.00000
      101.900       0.00000
      102.000       0.00000
      102.100       0.00000
      102.200       0.00000
      102.300       0.00000
      102.400       0.00000
      102.500       0.00000
      102.600       0.00000
      102.700       0.00000
      102.800       0.00000
      102.900       0.00000
      103.000       0.00000
      103.100       0.00000
      103.200       0.00000
      103.300       0.00000
      103.400       0.00000
      103.500       0.00000
      103.600       0.00000
      103.700       0.00000
      103.800       0.00000
      103.900       0.00000
      104.000       0.00000
      104.100       0.00000
      104.200       0.00000
      104.300       0.00000
      104.400       0.00000
      104.500       0.00000
      104.600       0.00000
      104.700       0.00000
      104.800       0.00000
      104.900       0.00000
      105.000       0.00000
      105.100       0.00000
      105.200       0.00000
      105.300       0.00000
      105.400       0.00000
      105.500       0.00000
      105.600       0.00000
      105.700       0.00000
      105.800       0.00000
      105.900       0.00000
      106.000       0.00000
      106.100       0.00000
      106.200       0.00000
      106.300       0.00000
      106.400       0.00000
      106.500       0.00000
      106.600       0.00000
      106.700       0.00000
      106.800       0.00000
      106.900       0.00000
      107.000       0.00000
      107.100       0.00000
      107.200       0.00000
      107.300       0.00000
      107.400       0.00000
      107.500       0.00000
      107.600       0.00000
      107.700       0.00000
      107.800       0.00000
      107.900       0.00000
      108.000       0.00000
      108.100       0.00000
      108.200       0.00000
      108.300       0.00000
      108.400       0.00000
      108.500       0.00000
      108.600       0.00000
      108.700       0.00000
      108.800       0.00000
      108.900       0.00000
      109.000       0.00000
      109.100       0.00000
      109.200       0.00000
      109.300       0.00000
      109.400       0.00000
      109.500       0.00000
      109.600       0.00000
      109.700       0.00000
      109.800       0.00000
      109.900       0.00000
      110.000       0.00000
      110.100       0.00000
      110.200       0.00000
      110.300       0.00000
      110.400       0.00000
      110.500       0.00000
      110.600       0.00000
      110.700       0.00000
      110.800       0.00000
      110.900       0.00000
      111.000       0.00000
      111.100       0.00000
      111.200       0.00000
      111.300       0.00000
      111.400       0.00000
      111.500       0.00000
      111.600       0.00000
      111.700       0.00000
      111.800       0.00000
      111.900       0.00000
      112.000       0.00000
      112.100       0.00000
      112.200       0.00000
      112.300       0.00000
      112.400       0.00000
      112.500       0.00000
      112.600       0.00000
      112.700       0.00000
      112.800       0.00000
      112.900       0.00000
      113.000       0.00000
      113.100       0.00000
      113.200       0.00000
      113.300       0.00000
      113.400       0.00000
      113.500       0.00000
      113.600       0.00000
      113.700       0.00000
      113.800       0.00000
      113.900       0.00000
      114.000       0.00000
      114.100       0.00000
      114.200       0.00000
      114.300       0.00000
      114.400       0.00000
      114.500       0.00000
      114.600       0.00000
      114.700       0.00000
      114.800       0.00000
      114.900       0.00000
      115.000       0.00000
      115.100       0.00000
      115.200       0.00000
      115.300       0.00000
      115.400       0.00000
      115.500       0.00000
      115.600       0.00000
      115.700       0.00000
      115.800       0.00000
      115.900       0.00000
      116.000       0.00000
      116.100       0.00000
      116.200       0.00000
      116.300       0.00000
      116.400       0.00000
      116.500       0.00000
      116.600       0.00000
      116.700       0.00000
      116.800       0.00000
      116.900       0.00000
      117.000       0.00000
      117.100       0.00000
      117.200       0.00000
      117.300       0.00000
      117.400       0.00000
      117.500       0.00000
      117.600       0.00000
      117.700       0.00000
      117.800       0.00000
      117.900       0.00000
      118.000       0.00000
      118.100       0.00000
      118.200       0.00000
      118.300       0.00000
      118.400       0.00000
      118.500       0.00000
      118.600       0.00000
      118.700       0.00000
      118.800       0.00000
      118.900       0.00000
      119.000       0.00000
      119.100       0.00000
      119.200       0.00000
      119.300       0.00000
      119.400       0.00000
      119.500       0.00000
      119.600       0.00000
      119.700       0.00000
      119.800       0.00000
      119.900       0.00000
      120.000       0.00000
      120.100       0.00000
      120.200       0.00000
      120.300       0.00000
      120.400       0.00000
      120.500       0.00000
      120.600       0.00000
      120.700       0.00000
      120.800       0.00000
      120.900       0.00000
      121.000       0.00000
      121.100       0.00000
      121.200       0.00000
      121.300       0.00000
      121.400       0.00000
      121.500       0.00000
      121.600       0.00000
      121.700       0.00000
      121.800       0.00000
      121.900       0.00000
      122.000       0.00000
      122.100       0.00000
      122.200       0.00000
      122.300       0.00000
      122.400       0.00000
      122.500       0.00000
      122.600       0.00000
      122.700       0.00000
      122.800       0.00000
      122.900       0.00000
      123.000       0.00000
      123.100       0.00000
      123.200       0.00000
      123.300       0.00000
      123.400       0.00000
      123.500       0.00000
      123.600       0.00000
      123.700       0.00000
      123.800       0.00000
      123.900       0.00000
      124.000       0.00000
      124.100       0.00000
      124.200       0.00000
      124.300       0.00000
      124.400       0.00000
      124.500       0.00000
      124.600       0.00000
      124.700       0.00000
      124.800       0.00000
      124.900       0.00000
      125.000       0.00000
      125.100       0.00000
      125.200       0.00000
      125.300       0.00000
      125.400       0.00000
      125.500       0.00000
      125.600       0.00000
      125.700       0.00000
      125.800       0.00000
      125.900       0.00000
      126.000       0.00000
      126.100       0.00000
      126.200       0.00000
      126.300       0.00000
      126.400       0.00000
      126.500       0.00000
      126.600       0.00000
      126.700       0.00000
      126.800       0.00000
      126.900       0.00000
      127.000       0.00000
      127.100       0.00000
      127.200       0.00000
      127.300       0.00000
      127.400       0.00000
      127.500       0.00000
      127.600       0.00000
      127.700       0.00000
      127.800       0.00000
      127.900       0.00000
      128.000       0.00000
      128.100       0.00000
      128.200       0.00000
      128.300       0.00000
      128.400       0.00000
      128.500       0.00000
      128.600       0.00000
      128.700       0.00000
      128.800       0.00000
      128.900       0.00000
      129.000       0.00000
      129.100       0.00000
      129.200       0.00000
      129.300       0.00000
      129.400       0.00000
      129.500       0.00000
      129.600       0.00000
      129.700       0.00000
      129.800       0.00000
      129.900       0.00000
      130.000       0.00000
      130.100       0.00000
      130.200       0.00000
      130.300       0.00000
      130.400       0.00000
      130.500       0.00000
      130.600       0.00000
      130.700       0.00000
      130.800       0.00000
      130.900       0.00000
      131.000       0.00000
      131.100       0.00000
      131.200       0.00000
      131.300       0.00000
      131.400       0.00000
      131.500       0.00000
      131.600       0.00000
      131.700       0.00000
      131.800       0.00000
      131.900       0.00000
      132.000       0.00000
      132.100       0.00000
      132.200       0.00000
      132.300       0.00000
      132.400       0.00000
      132.500       0.00000
      132.600       0.00000
      132.700       0.00000
      132.800       0.00000
      132.900       0.00000
      133.000       0.00000
      133.100       0.00000
      133.200       0.00000
      133.300       0.00000
      133.400       0.00000
      133.500       0.00000
      133.600       0.00000
      133.700       0.00000
      133.800       0.00000
      133.900       0.00000
      134.000       0.00000
      134.100       0.00000
      134.200       0.00000
      134.300       0.00000
      134.400       0.00000
      134.500       0.00000
      134.600       0.00000
      134.700       0.00000
      134.800       0.00000
      134.900       0.00000
      135.000       0.00000
      135.100       0.00000
      135.200       0.00000
      135.300       0.00000
      135.400       0.00000
      135.500       0.00000
      135.600       0.00000
      135.700       0.00000
      135.800       0.00000
      135.900       0.00000
      136.000       0.00000
      136.100       0.00000
      136.200       0.00000
      136.300       0.00000
      136.400       0.00000
      136.500       0.00000
      136.600       0.00000
      136.700       0.00000
      136.800       0.00000
      136.900       0.00000
      137.000       0.00000
      137.100       0.00000
      137.200       0.00000
      137.300       0.00000
      137.400       0.00000
      137.500       0.00000
      137.600       0.00000
      137.700       0.00000
      137.800       0.00000
      137.900       0.00000
      138.000       0.00000
      138.100       0.00000
      138.200       0.00000
      138.300       0.00000
      138.400       0.00000
      138.500       0.00000
      138.600       0.00000
      138.700       0.00000
      138.800       0.00000
      138.900       0.00000
      139.000       0.00000
      139.100       0.00000
      139.200       0.00000
      139.300       0.00000
      139.400       0.00000
      139.500       0.00000
      139.600       0.00000
      139.700       0.00000
      139.800       0.00000
      139.900       0.00000
      140.000       0.00000
      140.100       0.00000
      140.200       0.00000
      140.300       0.00000
      140.400       0.00000
      140.500       0.00000
      140.600       0.00000
      140.700       0.00000
      140.800       0.00000
      140.900       0.00000
      141.000       0.00000
      141.100       0.00000
      141.200       0.00000
      141.300       0.00000
      141.400       0.00000
      141.500       0.00000
      141.600       0.00000
      141.700       0.00000
      141.800       0.00000
      141.900       0.00000
      142.000       0.00000
      142.100       0.00000
      142.200       0.00000
      142.300       0.00000
      142.400       0.00000
      142.500       0.00000
      142.600       0.00000
      142.700       0.00000
      142.800       0.00000
      142.900       0.00000
      143.000       0.00000
      143.100       0.00000
      143.200       0.00000
      143.300       0.00000
      143.400       0.00000
      143.500       0.00000
      143.600       0.00000
      143.700       0.00000
      143.800       0.00000
      143.900       0.00000
      144.000       0.00000
      144.100       0.00000
      144.200       0.00000
      144.300       0.00000
      144.400       0.00000
      144.500       0.00000
      144.600       0.00000
      144.700       0.00000
      144.800       0.00000
      144.900       0.00000
      145.000       0.00000
      145.100       0.00000
      145.200       0.00000
      145.300       0.00000
      145.400       0.00000
      145.500       0.00000
      145.600       0.00000
      145.700       0.00000
      145.800       0.00000
      145.900       0.00000
      146.000       0.00000
      146.100       0.00000
      146.200       0.00000
      146.300       0.00000
      146.400       0.00000
      146.500       0.00000
      146.600       0.00000
      146.700       0.00000
      146.800       0.00000
      146.900       0.00000
      147.000       0.00000
      147.100       0.00000
      147.200       0.00000
      147.300       0.00000
      147.400       0.00000
      147.500       0.00000
      147.600       0.00000
      147.700       0.00000
      147.800       0.00000
      147.900       0.00000
      148.000       0.00000
      148.100       0.00000
      148.200       0.00000
      148.300       0.00000
      148.400       0.00000
      148.500       0.00000
      148.600       0.00000
      148.700       0.00000
      148.800       0.00000
      148.900       0.00000
      149.000       0.00000
      149.100       0.00000
      149.200       0.00000
      149.300       0.00000
      149.400       0.00000
      149.500       0.00000
      149.600       0.00000
      149.700       0.00000
      149.800       0.00000
      149.900       0.00000
      150.000       0.00000
      150.100       0.00000
      150.200       0.00000
      150.300       0.00000
      150.400       0.00000
      150.500       0.00000
      150.600       0.00000
      150.700       0.00000
      150.800       0.00000
      150.900       0.00000
      151.000       0.00000
      151.100       0.00000
      151.200       0.00000
      151.300       0.00000
      151.400       0.00000
      151.500       0.00000
      151.600       0.00000
      151.700       0.00000
      151.800       0.00000
      151.900       0.00000
      152.000       0.00000
      152.100       0.00000
      152.200       0.00000
      152.300       0.00000
      152.400       0.00000
      152.500       0.00000
      152.600       0.00000
      152.700       0.00000
      152.800       0.00000
      152.900       0.00000
      153.000       0.00000
      153.100       0.00000
      153.200       0.00000
      153.300       0.00000
      153.400       0.00000
      153.500       0.00000
      153.600       0.00000
      153.700       0.00000
      153.800       0.00000
      153.900       0.00000
      154.000       0.00000
      154.100       0.00000
      154.200       0.00000
      154.300       0.00000
      154.400       0.00000
      154.500       0.00000
      154.600       0.00000
      154.700       0.00000
      154.800       0.00000
      154.900       0.00000
      155.000       0.00000
      155.100       0.00000
      155.200       0.00000
      155.300       0.00000
      155.400       0.00000
      155.500       0.00000
      155.600       0.00000
      155.700       0.00000
      155.800       0.00000
      155.900       0.00000
      156.000       0.00000
      156.100       0.00000
      156.200       0.00000
      156.300       0.00000
      156.400       0.00000
      156.500       0.00000
      156.600       0.00000
      156.700       0.00000
      156.800       0.00000
      156.900       0.00000
      157.000       0.00000
      157.100       0.00000
      157.200       0.00000
      157.300       0.00000
      157.400       0.00000
      157.500       0.00000
      157.600       0.00000
      157.700       0.00000
      157.800       0.00000
      157.900       0.00000
      158.000       0.00000
      158.100       0.00000
      158.200       0.00000
      158.300       0.00000
      158.400       0.00000
      158.500       0.00000
      158.600       0.00000
      158.700       0.00000
      158.800       0.00000
      158.900       0.00000
      159.000       0.00000
      159.100       0.00000
      159.200       0.00000
      159.300       0.00000
      159.400       0.00000
      159.500       0.00000
      159.600       0.00000
      159.700       0.00000
      159.800       0.00000
      159.900       0.00000
      160.000       0.00000
      160.100       0.00000
      160.200       0.00000
      160.300       0.00000
      160.400       0.00000
      160.500       0.00000
      160.600       0.00000
      160.700       0.00000
      160.800       0.00000
      160.900       0.00000
      161.000       0.00000
      161.100       0.00000
      161.200       0.00000
      161.300       0.00000
      161.400       0.00000
      161.500       0.00000
      161.600       0.00000
      161.700       0.00000
      161.800       0.00000
      161.900       0.00000
      162.000       0.00000
      162.100       0.00000
      162.200       0.00000
      162.300       0.00000
      162.400       0.00000
      162.500       0.00000
      162.600       0.00000
      162.700       0.00000
      162.800       0.00000
      162.900       0.00000
      163.000       0.00000
      163.100       0.00000
      163.200       0.00000
      163.300       0.00000
      163.400       0.00000
      163.500       0.00000
      163.600       0.00000
      163.700       0.00000
      163.800       0.00000
      163.900       0.00000
      164.000       0.00000
      164.100       0.00000
      164.200       0.00000
      164.300       0.00000
      164.400       0.00000
      164.500       0.00000
      164.600       0.00000
      164.700       0.00000
      164.800       0.00000
      164.900       0.00000
      165.000       0.00000
      165.100       0.00000
      165.200       0.00000
      165.300       0.00000
      165.400       0.00000
      165.500       0.00000
      165.600       0.00000
      165.700       0.00000
      165.800       0.00000
      165.900       0.00000
      166.000       0.00000
      166.100       0.00000
      166.200       0.00000
      166.300       0.00000
      166.400       0.00000
      166.500       0.00000
      166.600       0.00000
      166.700       0.00000
      166.800       0.00000
      166.900       0.00000
      167.000       0.00000
      167.100       0.00000
      167.200       0.00000
      167.300       0.00000
      167.400       0.00000
      167.500       0.00000
      167.600       0.00000
      167.700       0.00000
      167.800       0.00000
      167.900       0.00000
      168.000       0.00000
      168.100       0.00000
      168.200       0.00000
      168.300       0.00000
      168.400       0.00000
      168.500       0.00000
      168.600       0.00000
      168.700       0.00000
      168.800       0.00000
      168.900       0.00000
      169.000       0.00000
      169.100       0.00000
      169.200       0.00000
      169.300       0.00000
      169.400       0.00000
      169.500       0.00000
      169.600       0.00000
      169.700       0.00000
      169.800       0.00000
      169.900       0.00000
      170.000       0.00000
      170.100       0.00000
      170.200       0.00000
      170.300       0.00000
      170.400       0.00000
      170.500   3.00939e-31
      170.600   1.38995e-19
      170.700   1.46966e-12
      170.800   1.24627e-10
      170.900   2.03804e-10
      171.000   2.05634e-10
      171.100   2.07465e-10
      171.200   2.09295e-10
      171.300   2.11128e-10
      171.400   2.12958e-10
      171.500   2.14787e-10
      171.600   2.16617e-10
      171.700   2.18449e-10
      171.800   2.20285e-10
      171.900   2.22124e-10
      172.000   2.23970e-10
      172.100   2.25828e-10
      172.200   2.27695e-10
      172.300   2.29565e-10
      172.400   2.31406e-10
      172.500   2.33251e-10
      172.600   2.35111e-10
      172.700   2.36985e-10
      172.800   2.38872e-10
      172.900   2.40778e-10
      173.000   2.42697e-10
      173.100   2.44631e-10
      173.200   2.46581e-10
      173.300   2.48549e-10
      173.400   2.50535e-10
      173.500   2.52536e-10
      173.600   2.54554e-10
      173.700   2.56589e-10
      173.800   2.58644e-10
      173.900   2.60711e-10
      174.000   2.62795e-10
      174.100   2.64900e-10
      174.200   2.67017e-10
      174.300   2.69148e-10
      174.400   2.71297e-10
      174.500   2.73458e-10
      174.600   2.75637e-10
      174.700   2.77829e-10
      174.800   2.80033e-10
      174.900   2.82251e-10
      175.000   2.84484e-10
      175.100   2.86725e-10
      175.200   2.88993e-10
      175.300   2.91268e-10
      175.400   2.93559e-10
      175.500   2.95862e-10
      175.600   2.98175e-10
      175.700   3.00501e-10
      175.800   3.02843e-10
      175.900   3.05196e-10
      176.000   3.07558e-10
      176.100   3.09934e-10
      176.200   3.12323e-10
      176.300   3.14727e-10
      176.400   3.17141e-10
      176.500   3.19567e-10
      176.600   3.22009e-10
      176.700   3.24462e-10
      176.800   3.26926e-10
      176.900   3.29402e-10
      177.000   3.31893e-10
      177.100   3.34397e-10
      177.200   3.36910e-10
      177.300   3.39435e-10
      177.400   3.41974e-10
      177.500   3.44524e-10
      177.600   3.47085e-10
      177.700   3.49655e-10
      177.800   3.52236e-10
      177.900   3.54829e-10
      178.000   3.57458e-10
      178.100   3.60095e-10
      178.200   3.62746e-10
      178.300   3.65409e-10
      178.400   3.68081e-10
      178.500   3.70763e-10
      178.600   3.73456e-10
      178.700   3.76165e-10
      178.800   3.78881e-10
      178.900   3.81606e-10
      179.000   3.84341e-10
      179.100   3.87089e-10
      179.200   3.89853e-10
      179.300   3.92624e-10
      179.400   3.95409e-10
      179.500   3.98206e-10
      179.600   4.01024e-10
      179.700   4.03849e-10
      179.800   4.06688e-10
      179.900   4.09542e-10
      180.000   4.12418e-10
      180.100   4.15303e-10
      180.200   4.18207e-10
      180.300   4.21126e-10
      180.400   4.24068e-10
      180.500   4.27028e-10
      180.600   4.30001e-10
      180.700   4.32994e-10
      180.800   4.36043e-10
      180.900   4.39176e-10
      181.000   4.42358e-10
      181.100   4.45556e-10
      181.200   4.48781e-10
      181.300   4.52031e-10
      181.400   4.55298e-10
      181.500   4.58586e-10
      181.600   4.61898e-10
      181.700   4.65236e-10
      181.800   4.68590e-10
      181.900   4.71968e-10
      182.000   4.75370e-10
      182.100   4.78788e-10
      182.200   4.82238e-10
      182.300   4.85702e-10
      182.400   4.89187e-10
      182.500   4.92693e-10
      182.600   4.96226e-10
      182.700   4.99773e-10
      182.800   5.03337e-10
      182.900   5.06926e-10
      183.000   5.10534e-10
      183.100   5.14160e-10
      183.200   5.17804e-10
      183.300   5.21469e-10
      183.400   5.25155e-10
      183.500   5.28858e-10
      183.600   5.32579e-10
      183.700   5.36471e-10
      183.800   5.41029e-10
      183.900   5.46012e-10
      184.000   5.51023e-10
      184.100   5.56081e-10
      184.200   5.61171e-10
      184.300   5.66306e-10
      184.400   5.71476e-10
      184.500   5.76680e-10
      184.600   5.81922e-10
      184.700   5.87208e-10
      184.800   5.92530e-10
      184.900   5.97888e-10
      185.000   6.03283e-10
      185.100   6.08721e-10
      185.200   6.14201e-10
      185.300   6.19712e-10
      185.400   6.25262e-10
      185.500   6.30848e-10
      185.600   6.36475e-10
      185.700   6.42148e-10
      185.800   6.47856e-10
      185.900   6.53597e-10
      186.000   6.59387e-10
      186.100   6.65207e-10
      186.200   6.71059e-10
      186.300   6.76947e-10
      186.400   6.82876e-10
      186.500   6.88842e-10
      186.600   6.94838e-10
      186.700   7.00861e-10
      186.800   7.06918e-10
      186.900   7.13013e-10
      187.000   7.19142e-10
      187.100   7.25295e-10
      187.200   7.31488e-10
      187.300   7.37719e-10
      187.400   7.43979e-10
      187.500   7.50270e-10
      187.600   7.56592e-10
      187.700   7.62946e-10
      187.800   7.69341e-10
      187.900   7.75769e-10
      188.000   7.82224e-10
      188.100   7.88710e-10
      188.200   7.95235e-10
      188.300   8.01799e-10
      188.400   8.08401e-10
      188.500   8.15036e-10
      188.600   8.21708e-10
      188.700   8.28429e-10
      188.800   8.35182e-10
      188.900   8.41972e-10
      189.000   8.48802e-10
      189.100   8.55684e-10
      189.200   8.62605e-10
      189.300   8.69563e-10
      189.400   8.76565e-10
      189.500   8.83614e-10
      189.600   8.90718e-10
      189.700   8.97858e-10
      189.800   9.05122e-10
      189.900   9.12446e-10
      190.000   9.19832e-10
      190.100   9.27260e-10
      190.200   9.34739e-10
      190.300   9.42266e-10
      190.400   9.49851e-10
      190.500   9.57488e-10
      190.600   9.65172e-10
      190.700   9.72908e-10
      190.800   9.80695e-10
      190.900   9.88535e-10
      191.000   9.96444e-10
      191.100   1.00440e-09
      191.200   1.01240e-09
      191.300   1.02046e-09
      191.400   1.02858e-09
      191.500   1.03675e-09
      191.600   1.04497e-09
      191.700   1.05324e-09
      191.800   1.06157e-09
      191.900   1.06995e-09
      192.000   1.07838e-09
      192.100   1.08686e-09
      192.200   1.09541e-09
      192.300   1.10401e-09
      192.400   1.11267e-09
      192.500   1.12139e-09
      192.600   1.13015e-09
      192.700   1.13897e-09
      192.800   1.14740e-09
      192.900   1.15476e-09
      193.000   1.16205e-09
      193.100   1.16938e-09
      193.200   1.17676e-09
      193.300   1.18417e-09
      193.400   1.19161e-09
      193.500   1.19909e-09
      193.600   1.20662e-09
      193.700   1.21418e-09
      193.800   1.22179e-09
      193.900   1.22942e-09
      194.000   1.23710e-09
      194.100   1.24484e-09
      194.200   1.25260e-09
      194.300   1.26041e-09
      194.400   1.26825e-09
      194.500   1.27615e-09
      194.600   1.28408e-09
      194.700   1.29204e-09
      194.800   1.30005e-09
      194.900   1.30809e-09
      195.000   1.31618e-09
      195.100   1.32432e-09
      195.200   1.33248e-09
      195.300   1.34067e-09
      195.400   1.34891e-09
      195.500   1.35718e-09
      195.600   1.36549e-09
      195.700   1.37381e-09
      195.800   1.38209e-09
      195.900   1.38973e-09
      196.000   1.37465e-09
      196.100   1.35944e-09
      196.200   1.34438e-09
      196.300   1.32948e-09
      196.400   1.31473e-09
      196.500   1.30013e-09
      196.600   1.28568e-09
      196.700   1.27137e-09
      196.800   1.25722e-09
      196.900   1.24321e-09
      197.000   1.22935e-09
      197.100   1.21562e-09
      197.200   1.20204e-09
      197.300   1.18858e-09
      197.400   1.17526e-09
      197.500   1.16207e-09
      197.600   1.14902e-09
      197.700   1.13611e-09
      197.800   1.12334e-09
      197.900   1.11069e-09
      198.000   1.09817e-09
      198.100   1.08577e-09
      198.200   1.07351e-09
      198.300   1.06137e-09
      198.400   1.04935e-09
      198.500   1.03747e-09
      198.600   1.02572e-09
      198.700   1.01410e-09
      198.800   1.00259e-09
      198.900   9.91216e-10
      199.000   9.79954e-10
      199.100   9.68812e-10
      199.200   9.57795e-10
      199.300   9.46910e-10
      199.400   9.36148e-10
      199.500   9.25504e-10
      199.600   9.14972e-10
      199.700   9.04557e-10
      199.800   8.94259e-10
      199.900   8.84072e-10
      200.000   8.73998e-10
      200.100   8.64092e-10
      200.200   8.54252e-10
      200.300   8.44530e-10
      200.400   8.34913e-10
      200.500   8.25404e-10
      200.600   8.16006e-10
      200.700   8.06713e-10
      200.800   7.97520e-10
      200.900   7.88439e-10
      201.000   7.79460e-10
      201.100   7.70586e-10
      201.200   7.61813e-10
      201.300   7.53138e-10
      201.400   7.44566e-10
      201.500   7.36087e-10
      201.600   7.27705e-10
      201.700   7.19420e-10
      201.800   7.11229e-10
      201.900   7.03129e-10
      202.000   6.95132e-10
      202.100   6.87223e-10
      202.200   6.79405e-10
      202.300   6.71730e-10
      202.400   6.64244e-10
      202.500   6.56871e-10
      202.600   6.49576e-10
      202.700   6.42371e-10
      202.800   6.35247e-10
      202.900   6.28205e-10
      203.000   6.21245e-10
      203.100   6.14368e-10
      203.200   6.07566e-10
      203.300   6.00842e-10
      203.400   5.94194e-10
      203.500   5.87623e-10
      203.600   5.81128e-10
      203.700   5.74710e-10
      203.800   5.68367e-10
      203.900   5.62103e-10
      204.000   5.55910e-10
      204.100   5.49789e-10
      204.200   5.43741e-10
      204.300   5.37763e-10
      204.400   5.31855e-10
      204.500   5.26016e-10
      204.600   5.20244e-10
      204.700   5.14540e-10
      204.800   5.08907e-10
      204.900   5.03341e-10
      205.000   4.97839e-10
      205.100   4.92401e-10
      205.200   4.87025e-10
      205.300   4.81713e-10
      205.400   4.76462e-10
      205.500   4.71271e-10
      205.600   4.65776e-10
      205.700   4.60014e-10
      205.800   4.54277e-10
      205.900   4.48617e-10
      206.000   4.43031e-10
      206.100   4.37515e-10
      206.200   4.32066e-10
      206.300   4.26689e-10
      206.400   4.21378e-10
      206.500   4.16131e-10
      206.600   4.10950e-10
      206.700   4.05835e-10
      206.800   4.00779e-10
      206.900   3.95785e-10
      207.000   3.90854e-10
      207.100   3.85984e-10
      207.200   3.81175e-10
      207.300   3.76423e-10
      207.400   3.71727e-10
      207.500   3.67086e-10
      207.600   3.62502e-10
      207.700   3.57971e-10
      207.800   3.53494e-10
      207.900   3.49069e-10
      208.000   3.44697e-10
      208.100   3.40378e-10
      208.200   3.36108e-10
      208.300   3.31889e-10
      208.400   3.27722e-10
      208.500   3.23604e-10
      208.600   3.19533e-10
      208.700   3.15510e-10
      208.800   3.11535e-10
      208.900   3.07190e-10
      209.000   3.02155e-10
      209.100   2.97019e-10
      209.200   2.91967e-10
      209.300   2.86995e-10
      209.400   2.82105e-10
      209.500   2.77294e-10
      209.600   2.72562e-10
      209.700   2.67908e-10
      209.800   2.63335e-10
      209.900   2.58834e-10
      210.000   2.54408e-10
      210.100   2.50055e-10
      210.200   2.45773e-10
      210.300   2.41561e-10
      210.400   2.37419e-10
      210.500   2.33345e-10
      210.600   2.29339e-10
      210.700   2.25399e-10
      210.800   2.21524e-10
      210.900   2.17713e-10
      211.000   2.13966e-10
      211.100   2.10282e-10
      211.200   2.06658e-10
      211.300   2.03098e-10
      211.400   1.99598e-10
      211.500   1.96156e-10
      211.600   1.92772e-10
      211.700   1.89445e-10
      211.800   1.86172e-10
      211.900   1.82953e-10
      212.000   1.79791e-10
      212.100   1.76681e-10
      212.200   1.73622e-10
      212.300   1.70615e-10
      212.400   1.67659e-10
      212.500   1.64752e-10
      212.600   1.61895e-10
      212.700   1.59086e-10
      212.800   1.56324e-10
      212.900   1.53610e-10
      213.000   1.50940e-10
      213.100   1.48318e-10
      213.200   1.45741e-10
      213.300   1.43207e-10
      213.400   1.40716e-10
      213.500   1.38267e-10
      213.600   1.35860e-10
      213.700   1.33495e-10
      213.800   1.31169e-10
      213.900   1.28884e-10
      214.000   1.26637e-10
      214.100   1.24429e-10
      214.200   1.22260e-10
      214.300   1.20127e-10
      214.400   1.18031e-10
      214.500   1.15972e-10
      214.600   1.13949e-10
      214.700   1.11960e-10
      214.800   1.10006e-10
      214.900   1.08086e-10
      215.000   1.06199e-10
      215.100   1.04346e-10
      215.200   1.02525e-10
      215.300   1.00737e-10
      215.400   9.89802e-11
      215.500   9.72540e-11
      215.600   9.55593e-11
      215.700   9.38930e-11
      215.800   9.22562e-11
      215.900   9.06490e-11
      216.000   8.90695e-11
      216.100   8.75178e-11
      216.200   8.59937e-11
      216.300   8.44966e-11
      216.400   8.30262e-11
      216.500   8.15813e-11
      216.600   8.01622e-11
      216.700   7.87685e-11
      216.800   7.73992e-11
      216.900   7.60541e-11
      217.000   7.47327e-11
      217.100   7.34344e-11
      217.200   7.21594e-11
      217.300   7.09067e-11
      217.400   6.96758e-11
      217.500   6.84672e-11
      217.600   6.72795e-11
      217.700   6.61120e-11
      217.800   6.49656e-11
      217.900   6.38396e-11
      218.000   6.27335e-11
      218.100   6.16462e-11
      218.200   6.05783e-11
      218.300   5.95290e-11
      218.400   5.84982e-11
      218.500   5.74846e-11
      218.600   5.64889e-11
      218.700   5.55103e-11
      218.800   5.45486e-11
      218.900   5.36038e-11
      219.000   5.26749e-11
      219.100   5.17618e-11
      219.200   5.08646e-11
      219.300   4.99826e-11
      219.400   4.91154e-11
      219.500   4.82632e-11
      219.600   4.74256e-11
      219.700   4.66023e-11
      219.800   4.57932e-11
      219.900   4.49977e-11
      220.000   4.42156e-11
      220.100   4.34469e-11
      220.200   4.26912e-11
      220.300   4.19484e-11
      220.400   4.12182e-11
      220.500   4.05006e-11
      220.600   3.97952e-11
      220.700   3.91015e-11
      220.800   3.84194e-11
      220.900   3.77494e-11
      221.000   3.70905e-11
      221.100   3.64426e-11
      221.200   3.58060e-11
      221.300   3.51802e-11
      221.400   3.45649e-11
      221.500   3.39602e-11
      221.600   3.33657e-11
      221.700   3.27813e-11
      221.800   3.22066e-11
      221.900   3.16419e-11
      222.000   3.10870e-11
      222.100   3.05412e-11
      222.200   3.00050e-11
      222.300   2.94776e-11
      222.400   2.89595e-11
      222.500   2.84500e-11
      222.600   2.79494e-11
      222.700   2.74573e-11
      222.800   2.69734e-11
      222.900   2.64978e-11
      223.000   2.60303e-11
      223.100   2.55708e-11
      223.200   2.51192e-11
      223.300   2.46753e-11
      223.400   2.42391e-11
      223.500   2.38101e-11
      223.600   2.33887e-11
      223.700   2.29744e-11
      223.800   2.25672e-11
      223.900   2.21672e-11
      224.000   2.17739e-11
      224.100   2.13873e-11
      224.200   2.10073e-11
      224.300   2.06340e-11
      224.400   2.02669e-11
      224.500   1.99063e-11
      224.600   1.95517e-11
      224.700   1.92034e-11
      224.800   1.88610e-11
      224.900   1.85245e-11
      225.000   1.81938e-11
      225.100   1.78687e-11
      225.200   1.75492e-11
      225.300   1.72355e-11
      225.400   1.69269e-11
      225.500   1.66237e-11
      225.600   1.63258e-11
      225.700   1.60331e-11
      225.800   1.57453e-11
      225.900   1.54626e-11
      226.000   1.51849e-11
      226.100   1.49119e-11
      226.200   1.46438e-11
      226.300   1.43813e-11
      226.400   1.41239e-11
      226.500   1.38707e-11
      226.600   1.36216e-11
      226.700   1.33768e-11
      226.800   1.31360e-11
      226.900   1.28993e-11
      227.000   1.26668e-11
      227.100   1.24383e-11
      227.200   1.22140e-11
      227.300   1.19935e-11
      227.400   1.17770e-11
      227.500   1.15643e-11
      227.600   1.13553e-11
      227.700   1.11501e-11
      227.800   1.09485e-11
      227.900   1.07505e-11
      228.000   1.05561e-11
      228.100   1.03651e-11
      228.200   1.01776e-11
      228.300   9.99337e-12
      228.400   9.81253e-12
      228.500   9.63488e-12
      228.600   9.46046e-12
      228.700   9.28918e-12
      228.800   9.12096e-12
      228.900   8.95587e-12
      229.000   8.79370e-12
      229.100   8.63449e-12
      229.200   8.47816e-12
      229.300   8.32467e-12
      229.400   8.17398e-12
      229.500   8.02604e-12
      229.600   7.88075e-12
      229.700   7.73814e-12
      229.800   7.59811e-12
      229.900   7.46064e-12
      230.000   7.32431e-12
      230.100   7.18102e-12
      230.200   7.04020e-12
      230.300   6.90223e-12
      230.400   6.76694e-12
      230.500   6.63431e-12
      230.600   6.50434e-12
      230.700   6.37689e-12
      230.800   6.25198e-12
      230.900   6.12954e-12
      231.000   6.00947e-12
      231.100   5.89177e-12
      231.200   5.77637e-12
      231.300   5.66327e-12
      231.400   5.55243e-12
      231.500   5.44368e-12
      231.600   5.33706e-12
      231.700   5.23256e-12
      231.800   5.13012e-12
      231.900   5.02968e-12
      232.000   4.93119e-12
      232.100   4.83462e-12
      232.200   4.73995e-12
      232.300   4.64715e-12
      232.400   4.55614e-12
      232.500   4.46688e-12
      232.600   4.37939e-12
      232.700   4.29361e-12
      232.800   4.20950e-12
      232.900   4.12702e-12
      233.000   4.04614e-12
      233.100   3.96686e-12
      233.200   3.88910e-12
      233.300   3.81288e-12
      233.400   3.73813e-12
      233.500   3.66486e-12
      233.600   3.59303e-12
      233.700   3.52257e-12
      233.800   3.44495e-12
      233.900   3.36791e-12
      234.000   3.29253e-12
      234.100   3.21883e-12
      234.200   3.14676e-12
      234.300   3.07628e-12
      234.400   3.00735e-12
      234.500   2.93995e-12
      234.600   2.87402e-12
      234.700   2.80955e-12
      234.800   2.74653e-12
      234.900   2.68487e-12
      235.000   2.62457e-12
      235.100   2.56560e-12
      235.200   2.50794e-12
      235.300   2.45155e-12
      235.400   2.39641e-12
      235.500   2.34248e-12
      235.600   2.28976e-12
      235.700   2.23819e-12
      235.800   2.18782e-12
      235.900   2.13856e-12
      236.000   2.09038e-12
      236.100   2.04327e-12
      236.200   1.99719e-12
      236.300   1.95213e-12
      236.400   1.90808e-12
      236.500   1.86500e-12
      236.600   1.82286e-12
      236.700   1.78166e-12
      236.800   1.74136e-12
      236.900   1.70196e-12
      237.000   1.66342e-12
      237.100   1.62573e-12
      237.200   1.58889e-12
      237.300   1.55285e-12
      237.400   1.51761e-12
      237.500   1.48315e-12
      237.600   1.44944e-12
      237.700   1.41651e-12
      237.800   1.38431e-12
      237.900   1.35281e-12
      238.000   1.32203e-12
      238.100   1.29191e-12
      238.200   1.26246e-12
      238.300   1.23366e-12
      238.400   1.20550e-12
      238.500   1.17795e-12
      238.600   1.15102e-12
      238.700   1.12470e-12
      238.800   1.09895e-12
      238.900   1.07377e-12
      239.000   1.04914e-12
      239.100   1.02506e-12
      239.200   1.00152e-12
      239.300   9.78516e-13
      239.400   9.56040e-13
      239.500   9.34062e-13
      239.600   9.12565e-13
      239.700   8.91559e-13
      239.800   8.71012e-13
      239.900   8.50922e-13
      240.000   8.31280e-13
      240.100   8.12070e-13
      240.200   7.93289e-13
      240.300   7.74927e-13
      240.400   7.56970e-13
      240.500   7.39424e-13
      240.600   7.22269e-13
      240.700   7.05496e-13
      240.800   6.89109e-13
      240.900   6.73101e-13
      241.000   6.57455e-13
      241.100   6.42158e-13
      241.200   6.27207e-13
      241.300   6.12589e-13
      241.400   5.98303e-13
      241.500   5.84338e-13
      241.600   5.70689e-13
      241.700   5.57347e-13
      241.800   5.44305e-13
      241.900   5.31557e-13
      242.000   5.19100e-13
      242.100   5.06928e-13
      242.200   4.95044e-13
      242.300   4.83440e-13
      242.400   4.72097e-13
      242.500   4.61011e-13
      242.600   4.50180e-13
      242.700   4.39594e-13
      242.800   4.29252e-13
      242.900   4.19147e-13
      243.000   4.09273e-13
      243.100   3.99625e-13
      243.200   3.90195e-13
      243.300   3.80984e-13
      243.400   3.71989e-13
      243.500   3.63206e-13
      243.600   3.54637e-13
      243.700   3.46260e-13
      243.800   3.38078e-13
      243.900   3.30088e-13
      244.000   3.22279e-13
      244.100   3.14653e-13
      244.200   3.07203e-13
      244.300   2.99924e-13
      244.400   2.92815e-13
      244.500   2.85871e-13
      244.600   2.79088e-13
      244.700   2.72469e-13
      244.800   2.66011e-13
      244.900   2.59705e-13
      245.000   2.53542e-13
      245.100   2.47524e-13
      245.200   2.41649e-13
      245.300   2.35910e-13
      245.400   2.30303e-13
      245.500   2.24829e-13
      245.600   2.19482e-13
      245.700   2.14259e-13
      245.800   2.09157e-13
      245.900   2.04185e-13
      246.000   1.99333e-13
      246.100   1.94592e-13
      246.200   1.89963e-13
      246.300   1.85442e-13
      246.400   1.81028e-13
      246.500   1.76716e-13
      246.600   1.72505e-13
      246.700   1.68394e-13
      246.800   1.64377e-13
      246.900   1.60455e-13
      247.000   1.56633e-13
      247.100   1.52901e-13
      247.200   1.49258e-13
      247.300   1.45700e-13
      247.400   1.42226e-13
      247.500   1.38833e-13
      247.600   1.35519e-13
      247.700   1.32283e-13
      247.800   1.29124e-13
      247.900   1.26038e-13
      248.000   1.23025e-13
      248.100   1.20091e-13
      248.200   1.17226e-13
      248.300   1.14428e-13
      248.400   1.11695e-13
      248.500   1.09026e-13
      248.600   1.06420e-13
      248.700   1.03875e-13
      248.800   1.01391e-13
      248.900   9.89643e-14
      249.000   9.65952e-14
      249.100   9.42865e-14
      249.200   9.20339e-14
      249.300   8.98332e-14
      249.400   8.76843e-14
      249.500   8.55863e-14
      249.600   8.35372e-14
      249.700   8.15363e-14
      249.800   7.95826e-14
      249.900   7.76747e-14
      250.000   7.58119e-14
      250.100   7.39962e-14
      250.200   7.22239e-14
      250.300   7.04949e-14
      250.400   6.88061e-14
      250.500   6.71575e-14
      250.600   6.55479e-14
      250.700   6.39762e-14
      250.800   6.24417e-14
      250.900   6.09435e-14
      251.000   5.94807e-14
      251.100   5.80524e-14
      251.200   5.66592e-14
      251.300   5.53005e-14
      251.400   5.39741e-14
      251.500   5.26783e-14
      251.600   5.14134e-14
      251.700   5.01792e-14
      251.800   4.89737e-14
      251.900   4.77967e-14
      252.000   4.66474e-14
      252.100   4.55258e-14
      252.200   4.44303e-14
      252.300   4.33620e-14
      252.400   4.23193e-14
      252.500   4.13019e-14
      252.600   4.03082e-14
      252.700   3.93381e-14
      252.800   3.83911e-14
      252.900   3.74664e-14
      253.000   3.65636e-14
      253.100   3.56822e-14
      253.200   3.48217e-14
      253.300   3.39890e-14
      253.400   3.31790e-14
      253.500   3.23886e-14
      253.600   3.16174e-14
      253.700   3.08641e-14
      253.800   3.01285e-14
      253.900   2.94103e-14
      254.000   2.87086e-14
      254.100   2.80233e-14
      254.200   2.73539e-14
      254.300   2.67003e-14
      254.400   2.60619e-14
      254.500   2.54384e-14
      254.600   2.48294e-14
      254.700   2.42349e-14
      254.800   2.36550e-14
      254.900   2.30886e-14
      255.000   2.25355e-14
      255.100   2.19951e-14
      255.200   2.14673e-14
      255.300   2.09521e-14
      255.400   2.04488e-14
      255.500   1.99573e-14
      255.600   1.94774e-14
      255.700   1.90087e-14
      255.800   1.85509e-14
      255.900   1.81037e-14
      256.000   1.76671e-14
      256.100   1.72410e-14
      256.200   1.68251e-14
      256.300   1.64190e-14
      256.400   1.60226e-14
      256.500   1.56352e-14
      256.600   1.52571e-14
      256.700   1.48879e-14
      256.800   1.45273e-14
      256.900   1.41751e-14
      257.000   1.38313e-14
      257.100   1.34955e-14
      257.200   1.31678e-14
      257.300   1.28477e-14
      257.400   1.25763e-14
      257.500   1.23255e-14
      257.600   1.20804e-14
      257.700   1.18401e-14
      257.800   1.16043e-14
      257.900   1.13732e-14
      258.000   1.11466e-14
      258.100   1.09243e-14
      258.200   1.07063e-14
      258.300   1.04926e-14
      258.400   1.02829e-14
      258.500   1.00773e-14
      258.600   9.87571e-15
      258.700   9.67803e-15
      258.800   9.48415e-15
      258.900   9.29417e-15
      259.000   9.10773e-15
      259.100   8.92499e-15
      259.200   8.74583e-15
      259.300   8.57035e-15
      259.400   8.39826e-15
      259.500   8.22946e-15
      259.600   8.06403e-15
      259.700   7.90184e-15
      259.800   7.74278e-15
      259.900   7.58678e-15
      260.000   7.43393e-15
      260.100   7.28407e-15
      260.200   7.13713e-15
      260.300   6.99309e-15
      260.400   6.85190e-15
      260.500   6.71352e-15
      260.600   6.57782e-15
      260.700   6.44478e-15
      260.800   6.31448e-15
      260.900   6.18665e-15
      261.000   6.06144e-15
      261.100   5.93875e-15
      261.200   5.81849e-15
      261.300   5.70059e-15
      261.400   5.58508e-15
      261.500   5.48302e-15
      261.600   5.41899e-15
      261.700   5.36198e-15
      261.800   5.30560e-15
      261.900   5.24975e-15
      262.000   5.19449e-15
      262.100   5.13979e-15
      262.200   5.08568e-15
      262.300   5.03211e-15
      262.400   4.97910e-15
      262.500   4.92664e-15
      262.600   4.87472e-15
      262.700   4.82335e-15
      262.800   4.77251e-15
      262.900   4.72215e-15
      263.000   4.67241e-15
      263.100   4.62315e-15
      263.200   4.57441e-15
      263.300   4.52618e-15
      263.400   4.47845e-15
      263.500   4.43124e-15
      263.600   4.38454e-15
      263.700   4.33831e-15
      263.800   4.29255e-15
      263.900   4.24733e-15
      264.000   4.20256e-15
      264.100   4.15826e-15
      264.200   4.11441e-15
      264.300   4.07107e-15
      264.400   4.02818e-15
      264.500   3.98574e-15
      264.600   3.94373e-15
      264.700   3.90219e-15
      264.800   3.86109e-15
      264.900   3.82045e-15
      265.000   3.78023e-15
      265.100   3.74043e-15
      265.200   3.70106e-15
      265.300   3.66212e-15
      265.400   3.62361e-15
      265.500   3.58551e-15
      265.600   3.54782e-15
      265.700   3.51052e-15
      265.800   3.47369e-15
      265.900   3.43724e-15
      266.000   3.40121e-15
      266.100   3.36558e-15
      266.200   3.33032e-15
      266.300   3.29544e-15
      266.400   3.26094e-15
      266.500   3.22682e-15
      266.600   3.19307e-15
      266.700   3.15967e-15
      266.800   3.12667e-15
      266.900   3.09401e-15
      267.000   3.06171e-15
      267.100   3.02976e-15
      267.200   2.99818e-15
      267.300   2.96693e-15
      267.400   2.93601e-15
      267.500   2.90543e-15
      267.600   2.87519e-15
      267.700   2.84528e-15
      267.800   2.81569e-15
      267.900   2.78643e-15
      268.000   2.75750e-15
      268.100   2.72888e-15
      268.200   2.70058e-15
      268.300   2.67259e-15
      268.400   2.64490e-15
      268.500   2.61751e-15
      268.600   2.59042e-15
      268.700   2.56364e-15
      268.800   2.53714e-15
      268.900   2.51094e-15
      269.000   2.48503e-15
      269.100   2.45939e-15
      269.200   2.43405e-15
      269.300   2.40897e-15
      269.400   2.38417e-15
      269.500   2.35962e-15
      269.600   2.33538e-15
      269.700   2.31137e-15
      269.800   2.28765e-15
      269.900   2.26416e-15
      270.000   2.24096e-15
      270.100   2.21800e-15
      270.200   2.19534e-15
      270.300   2.17290e-15
      270.400   2.15070e-15
      270.500   2.12875e-15
      270.600   2.10703e-15
      270.700   2.08556e-15
      270.800   2.06431e-15
      270.900   2.04329e-15
      271.000   2.02249e-15
      271.100   2.00191e-15
      271.200   1.98155e-15
      271.300   1.96142e-15
      271.400   1.94149e-15
      271.500   1.92179e-15
      271.600   1.90228e-15
      271.700   1.88298e-15
      271.800   1.86389e-15
      271.900   1.84500e-15
      272.000   1.82631e-15
      272.100   1.80782e-15
      272.200   1.78951e-15
      272.300   1.77139e-15
      272.400   1.75347e-15
      272.500   1.73574e-15
      272.600   1.71818e-15
      272.700   1.70081e-15
      272.800   1.68362e-15
      272.900   1.66660e-15
      273.000   1.64977e-15
      273.100   1.63311e-15
      273.200   1.61662e-15
      273.300   1.60029e-15
      273.400   1.58413e-15
      273.500   1.56814e-15
      273.600   1.55231e-15
      273.700   1.53664e-15
      273.800   1.52112e-15
      273.900   1.50578e-15
      274.000   1.49058e-15
      274.100   1.47554e-15
      274.200   1.46064e-15
      274.300   1.44590e-15
      274.400   1.43114e-15
      274.500   1.41618e-15
      274.600   1.40130e-15
      274.700   1.38657e-15
      274.800   1.37200e-15
      274.900   1.35757e-15
      275.000   1.34329e-15
      275.100   1.32916e-15
      275.200   1.31517e-15
      275.300   1.30132e-15
      275.400   1.28763e-15
      275.500   1.27407e-15
      275.600   1.26064e-15
      275.700   1.24736e-15
      275.800   1.23421e-15
      275.900   1.22120e-15
      276.000   1.20832e-15
      276.100   1.19557e-15
      276.200   1.18294e-15
      276.300   1.17044e-15
      276.400   1.15808e-15
      276.500   1.14584e-15
      276.600   1.13372e-15
      276.700   1.12172e-15
      276.800   1.10985e-15
      276.900   1.09809e-15
      277.000   1.08646e-15
      277.100   1.07494e-15
      277.200   1.06354e-15
      277.300   1.05225e-15
      277.400   1.04108e-15
      277.500   1.03002e-15
      277.600   1.01907e-15
      277.700   1.00824e-15
      277.800   9.97499e-16
      277.900   9.86880e-16
      278.000   9.76374e-16
      278.100   9.65969e-16
      278.200   9.55667e-16
      278.300   9.45470e-16
      278.400   9.35378e-16
      278.500   9.25381e-16
      278.600   9.15487e-16
      278.700   9.05698e-16
      278.800   8.96008e-16
      278.900   8.86384e-16
      279.000   8.76851e-16
      279.100   8.67417e-16
      279.200   8.58072e-16
      279.300   8.48830e-16
      279.400   8.39674e-16
      279.500   8.30615e-16
      279.600   8.21650e-16
      279.700   8.12778e-16
      279.800   8.03994e-16
      279.900   7.95298e-16
      280.000   7.86693e-16
      280.100   7.78172e-16
      280.200   7.69743e-16
      280.300   7.61396e-16
      280.400   7.53136e-16
      280.500   7.44968e-16
      280.600   7.36878e-16
      280.700   7.28870e-16
      280.800   7.20946e-16
      280.900   7.13102e-16
      281.000   7.05339e-16
      281.100   6.97656e-16
      281.200   6.90052e-16
      281.300   6.82528e-16
      281.400   6.75085e-16
      281.500   6.67713e-16
      281.600   6.60416e-16
      281.700   6.53197e-16
      281.800   6.46057e-16
      281.900   6.38988e-16
      282.000   6.31993e-16
      282.100   6.25070e-16
      282.200   6.18224e-16
      282.300   6.11445e-16
      282.400   6.04738e-16
      282.500   5.98099e-16
      282.600   5.91532e-16
      282.700   5.85030e-16
      282.800   5.78600e-16
      282.900   5.72241e-16
      283.000   5.65945e-16
      283.100   5.59717e-16
      283.200   5.53557e-16
      283.300   5.47459e-16
      283.400   5.41428e-16
      283.500   5.35464e-16
      283.600   5.29560e-16
      283.700   5.23717e-16
      283.800   5.17938e-16
      283.900   5.12224e-16
      284.000   5.06567e-16
      284.100   5.00969e-16
      284.200   4.95432e-16
      284.300   4.89958e-16
      284.400   4.84540e-16
      284.500   4.79182e-16
      284.600   4.73882e-16
      284.700   4.68640e-16
      284.800   4.63454e-16
      284.900   4.58324e-16
      285.000   4.53246e-16
      285.100   4.48226e-16
      285.200   4.43262e-16
      285.300   4.38351e-16
      285.400   4.33492e-16
      285.500   4.28686e-16
      285.600   4.23938e-16
      285.700   4.19237e-16
      285.800   4.14590e-16
      285.900   4.09993e-16
      286.000   4.05446e-16
      286.100   4.00954e-16
      286.200   3.96508e-16
      286.300   3.92114e-16
      286.400   3.87768e-16
      286.500   3.83468e-16
      286.600   3.79216e-16
      286.700   3.75011e-16
      286.800   3.70855e-16
      286.900   3.66744e-16
      287.000   3.62679e-16
      287.100   3.58658e-16
      287.200   3.54684e-16
      287.300   3.50753e-16
      287.400   3.46866e-16
      287.500   3.43024e-16
      287.600   3.39225e-16
      287.700   3.35468e-16
      287.800   3.31753e-16
      287.900   3.28081e-16
      288.000   3.24451e-16
      288.100   3.20860e-16
      288.200   3.17312e-16
      288.300   3.13805e-16
      288.400   3.10337e-16
      288.500   3.06909e-16
      288.600   3.03517e-16
      288.700   3.00166e-16
      288.800   2.96851e-16
      288.900   2.93577e-16
      289.000   2.90339e-16
      289.100   2.87136e-16
      289.200   2.83970e-16
      289.300   2.80841e-16
      289.400   2.77747e-16
      289.500   2.74688e-16
      289.600   2.71663e-16
      289.700   2.68676e-16
      289.800   2.65720e-16
      289.900   2.62796e-16
      290.000   2.59910e-16
      290.100   2.57052e-16
      290.200   2.54232e-16
      290.300   2.51442e-16
      290.400   2.48683e-16
      290.500   2.45959e-16
      290.600   2.43263e-16
      290.700   2.40598e-16
      290.800   2.37966e-16
      290.900   2.35362e-16
      291.000   2.32787e-16
      291.100   2.30241e-16
      291.200   2.27725e-16
      291.300   2.25237e-16
      291.400   2.22779e-16
      291.500   2.20347e-16
      291.600   2.17943e-16
      291.700   2.15567e-16
      291.800   2.13217e-16
      291.900   2.10896e-16
      292.000   2.08602e-16
      292.100   2.06333e-16
      292.200   2.04091e-16
      292.300   2.01872e-16
      292.400   1.99679e-16
      292.500   1.97511e-16
      292.600   1.95367e-16
      292.700   1.93247e-16
      292.800   1.91151e-16
      292.900   1.89079e-16
      293.000   1.87030e-16
      293.100   1.85005e-16
      293.200   1.83002e-16
      293.300   1.81020e-16
      293.400   1.79063e-16
      293.500   1.77128e-16
      293.600   1.75214e-16
      293.700   1.73321e-16
      293.800   1.71450e-16
      293.900   1.69600e-16
      294.000   1.67770e-16
      294.100   1.65961e-16
      294.200   1.64173e-16
      294.300   1.62405e-16
      294.400   1.60655e-16
      294.500   1.58925e-16
      294.600   1.57213e-16
      294.700   1.55521e-16
      294.800   1.53848e-16
      294.900   1.52193e-16
      295.000   1.50557e-16
      295.100   1.48940e-16
      295.200   1.47341e-16
      295.300   1.45758e-16
      295.400   1.44193e-16
      295.500   1.42646e-16
      295.600   1.41115e-16
      295.700   1.39601e-16
      295.800   1.38103e-16
      295.900   1.36621e-16
      296.000   1.35157e-16
      296.100   1.33707e-16
      296.200   1.32274e-16
      296.300   1.30856e-16
      296.400   1.29455e-16
      296.500   1.28068e-16
      296.600   1.26697e-16
      296.700   1.25340e-16
      296.800   1.23998e-16
      296.900   1.22670e-16
      297.000   1.21357e-16
      297.100   1.20057e-16
      297.200   1.18772e-16
      297.300   1.17500e-16
      297.400   1.16242e-16
      297.500   1.14997e-16
      297.600   1.13767e-16
      297.700   1.12549e-16
      297.800   1.11344e-16
      297.900   1.10153e-16
      298.000   1.08974e-16
      298.100   1.07808e-16
      298.200   1.06654e-16
      298.300   1.05512e-16
      298.400   1.04382e-16
      298.500   1.03264e-16
      298.600   1.02158e-16
      298.700   1.01063e-16
      298.800   9.99800e-17
      298.900   9.89090e-17
      299.000   9.78499e-17
      299.100   9.68018e-17
      299.200   9.57638e-17
      299.300   9.47372e-17
      299.400   9.37213e-17
      299.500   9.27161e-17
      299.600   9.17213e-17
      299.700   9.07367e-17
      299.800   8.97622e-17
      299.900   8.87985e-17
      300.000   8.78446e-17
      300.100   8.69006e-17
      300.192   8.60413e-17
      300.285   8.51801e-17
      300.377   8.43372e-17
      300.470   8.34938e-17
      300.562   8.26669e-17
      300.654   8.18478e-17
      300.747   8.10278e-17
      300.839   8.02248e-17
      300.932   7.94201e-17
      301.025   7.86237e-17
      301.117   7.78437e-17
      301.210   7.70618e-17
      301.303   7.62886e-17
      301.395   7.55310e-17
      301.488   7.47715e-17
      301.581   7.40201e-17
      301.674   7.32758e-17
      301.766   7.25461e-17
      301.859   7.18157e-17
      301.952   7.10928e-17
      302.045   7.03766e-17
      302.138   6.97156e-17
      302.231   6.91694e-17
      302.324   6.86320e-17
      302.417   6.80989e-17
      302.510   6.75688e-17
      302.603   6.70436e-17
      302.696   6.65212e-17
      302.789   6.60026e-17
      302.882   6.54877e-17
      302.976   6.49718e-17
      303.069   6.44644e-17
      303.162   6.39607e-17
      303.255   6.34602e-17
      303.349   6.29584e-17
      303.442   6.24651e-17
      303.535   6.19756e-17
      303.629   6.14843e-17
      303.722   6.10019e-17
      303.816   6.05180e-17
      303.909   6.00421e-17
      304.003   5.95648e-17
      304.096   5.90959e-17
      304.190   5.86254e-17
      304.283   5.81630e-17
      304.377   5.76994e-17
      304.471   5.72387e-17
      304.564   5.67863e-17
      304.658   5.63329e-17
      304.752   5.58820e-17
      304.846   5.54347e-17
      304.939   5.49953e-17
      305.033   5.45543e-17
      305.127   5.41165e-17
      305.221   5.36819e-17
      305.315   5.32509e-17
      305.409   5.28222e-17
      305.503   5.23971e-17
      305.597   5.19754e-17
      305.691   5.15563e-17
      305.785   5.11405e-17
      305.879   5.07274e-17
      305.973   5.03175e-17
      306.067   4.99105e-17
      306.161   4.95067e-17
      306.255   4.91058e-17
      306.350   4.87037e-17
      306.444   4.83085e-17
      306.538   4.79165e-17
      306.633   4.75234e-17
      306.727   4.71371e-17
      306.821   4.67537e-17
      306.916   4.63691e-17
      307.010   4.59968e-17
      307.105   4.56405e-17
      307.199   4.52931e-17
      307.294   4.49443e-17
      307.388   4.46018e-17
      307.483   4.42581e-17
      307.577   4.39204e-17
      307.672   4.35814e-17
      307.767   4.32448e-17
      307.861   4.29141e-17
      307.956   4.25819e-17
      308.051   4.22522e-17
      308.146   4.19252e-17
      308.240   4.16035e-17
      308.335   4.12807e-17
      308.430   4.09601e-17
      308.525   4.06421e-17
      308.620   4.03263e-17
      308.715   4.00127e-17
      308.810   3.97015e-17
      308.905   3.93924e-17
      309.000   3.90854e-17
      309.095   3.87807e-17
      309.190   3.84785e-17
      309.285   3.81783e-17
      309.380   3.78803e-17
      309.476   3.75815e-17
      309.571   3.72878e-17
      309.666   3.69962e-17
      309.761   3.67069e-17
      309.857   3.64168e-17
      309.952   3.61315e-17
      310.047   3.58486e-17
      310.143   3.55648e-17
      310.238   3.52860e-17
      310.334   3.50064e-17
      310.429   3.47318e-17
      310.525   3.44564e-17
      310.620   3.41859e-17
      310.716   3.39146e-17
      310.811   3.36484e-17
      310.907   3.33814e-17
      311.003   3.31162e-17
      311.098   3.28558e-17
      311.194   3.25947e-17
      311.290   3.23359e-17
      311.386   3.20790e-17
      311.481   3.18266e-17
      311.577   3.15735e-17
      311.673   3.13224e-17
      311.769   3.10733e-17
      311.865   3.08260e-17
      311.961   3.05816e-17
      312.057   3.03428e-17
      312.153   3.01071e-17
      312.249   2.98731e-17
      312.345   2.96411e-17
      312.441   2.94107e-17
      312.537   2.91822e-17
      312.633   2.89555e-17
      312.730   2.87280e-17
      312.826   2.85048e-17
      312.922   2.82833e-17
      313.018   2.80635e-17
      313.115   2.78433e-17
      313.211   2.76268e-17
      313.307   2.74123e-17
      313.404   2.71972e-17
      313.500   2.69859e-17
      313.597   2.67743e-17
      313.693   2.65664e-17
      313.790   2.63581e-17
      313.886   2.61536e-17
      313.983   2.59484e-17
      314.079   2.57471e-17
      314.176   2.55453e-17
      314.273   2.53451e-17
      314.369   2.51489e-17
      314.466   2.49520e-17
      314.563   2.47567e-17
      314.660   2.45629e-17
      314.756   2.43727e-17
      314.853   2.41820e-17
      314.950   2.39930e-17
      315.047   2.38055e-17
      315.144   2.36196e-17
      315.241   2.34351e-17
      315.338   2.32522e-17
      315.435   2.30707e-17
      315.532   2.28907e-17
      315.629   2.27122e-17
      315.726   2.25352e-17
      315.823   2.23595e-17
      315.921   2.21836e-17
      316.018   2.20110e-17
      316.115   2.18398e-17
      316.212   2.16699e-17
      316.310   2.14997e-17
      316.407   2.13326e-17
      316.504   2.11669e-17
      316.602   2.10009e-17
      316.699   2.08380e-17
      316.796   2.06763e-17
      316.894   2.05145e-17
      316.991   2.03560e-17
      317.089   2.01997e-17
      317.187   2.00459e-17
      317.284   1.98950e-17
      317.382   1.97438e-17
      317.479   1.95952e-17
      317.577   1.94463e-17
      317.675   1.92987e-17
      317.773   1.91523e-17
      317.870   1.90086e-17
      317.968   1.88646e-17
      318.066   1.87217e-17
      318.164   1.85799e-17
      318.262   1.84394e-17
      318.360   1.83000e-17
      318.458   1.81618e-17
      318.556   1.80248e-17
      318.654   1.78888e-17
      318.752   1.77539e-17
      318.850   1.76202e-17
      318.948   1.74875e-17
      319.046   1.73559e-17
      319.144   1.72253e-17
      319.242   1.70958e-17
      319.341   1.69661e-17
      319.439   1.68387e-17
      319.537   1.67125e-17
      319.635   1.65872e-17
      319.734   1.64617e-17
      319.832   1.63384e-17
      319.930   1.62161e-17
      320.029   1.60936e-17
      320.127   1.59734e-17
      320.226   1.58529e-17
      320.324   1.57345e-17
      320.423   1.56158e-17
      320.522   1.54984e-17
      320.620   1.53829e-17
      320.719   1.52671e-17
      320.818   1.51524e-17
      320.916   1.50397e-17
      321.015   1.49268e-17
      321.114   1.48147e-17
      321.213   1.47036e-17
      321.311   1.45946e-17
      321.410   1.44853e-17
      321.509   1.43767e-17
      321.608   1.42692e-17
      321.707   1.41625e-17
      321.806   1.40566e-17
      321.905   1.39516e-17
      322.004   1.38474e-17
      322.103   1.37441e-17
      322.202   1.36415e-17
      322.301   1.35398e-17
      322.401   1.34380e-17
      322.500   1.33379e-17
      322.599   1.32386e-17
      322.698   1.31401e-17
      322.798   1.30413e-17
      322.897   1.29444e-17
      322.996   1.28482e-17
      323.096   1.27518e-17
      323.195   1.26571e-17
      323.294   1.25631e-17
      323.394   1.24689e-17
      323.493   1.23765e-17
      323.593   1.22838e-17
      323.692   1.21928e-17
      323.792   1.21015e-17
      323.892   1.20110e-17
      323.991   1.19220e-17
      324.091   1.18329e-17
      324.191   1.17445e-17
      324.291   1.16567e-17
      324.390   1.15705e-17
      324.490   1.14841e-17
      324.590   1.13983e-17
      324.690   1.13132e-17
      324.790   1.12287e-17
      324.890   1.11450e-17
      324.990   1.10619e-17
      325.090   1.09793e-17
      325.190   1.08974e-17
      325.290   1.08162e-17
      325.390   1.07355e-17
      325.490   1.06555e-17
      325.590   1.05761e-17
      325.690   1.04971e-17
      325.790   1.04189e-17
      325.891   1.03404e-17
      325.991   1.02633e-17
      326.091   1.01868e-17
      326.192   1.01101e-17
      326.292   1.00347e-17
      326.392   9.95995e-18
      326.493   9.88497e-18
      326.593   9.81124e-18
      326.694   9.73739e-18
      326.794   9.66476e-18
      326.895   9.59195e-18
      326.995   9.52039e-18
      327.096   9.44866e-18
      327.197   9.37744e-18
      327.297   9.30746e-18
      327.398   9.23730e-18
      327.499   9.16766e-18
      327.599   9.09919e-18
      327.700   9.03052e-18
      327.801   8.96234e-18
      327.902   8.89473e-18
      328.003   8.82755e-18
      328.104   8.76089e-18
      328.205   8.69472e-18
      328.306   8.62901e-18
      328.407   8.56377e-18
      328.508   8.49896e-18
      328.609   8.43463e-18
      328.710   8.37075e-18
      328.811   8.30735e-18
      328.912   8.24443e-18
      329.013   8.18191e-18
      329.115   8.11930e-18
      329.216   8.05771e-18
      329.317   7.99649e-18
      329.419   7.93521e-18
      329.520   7.87490e-18
      329.621   7.81495e-18
      329.723   7.75491e-18
      329.824   7.69592e-18
      329.926   7.63673e-18
      330.027   7.57853e-18
      330.129   7.52016e-18
      330.230   7.46281e-18
      330.332   7.40526e-18
      330.434   7.34812e-18
      330.535   7.29195e-18
      330.637   7.23560e-18
      330.739   7.17966e-18
      330.840   7.12464e-18
      330.942   7.06949e-18
      331.044   7.01473e-18
      331.146   6.96032e-18
      331.248   6.90633e-18
      331.350   6.85273e-18
      331.452   6.79955e-18
      331.554   6.74834e-18
      331.656   6.69997e-18
      331.758   6.65192e-18
      331.860   6.60413e-18
      331.962   6.55669e-18
      332.064   6.50953e-18
      332.166   6.46273e-18
      332.268   6.41615e-18
      332.371   6.36947e-18
      332.473   6.32348e-18
      332.575   6.27777e-18
      332.677   6.23238e-18
      332.780   6.18684e-18
      332.882   6.14203e-18
      332.985   6.09707e-18
      333.087   6.05280e-18
      333.190   6.00842e-18
      333.292   5.96394e-18
      333.395   5.91722e-18
      333.497   5.87050e-18
      333.600   5.82367e-18
      333.702   5.77761e-18
      333.805   5.73143e-18
      333.908   5.68557e-18
      334.011   5.64005e-18
      334.113   5.59527e-18
      334.216   5.55038e-18
      334.319   5.50583e-18
      334.422   5.46155e-18
      334.525   5.41762e-18
      334.628   5.37399e-18
      334.731   5.33069e-18
      334.834   5.28771e-18
      334.937   5.24503e-18
      335.040   5.20263e-18
      335.143   5.16057e-18
      335.246   5.11879e-18
      335.349   5.07731e-18
      335.452   5.03613e-18
      335.555   4.99526e-18
      335.659   4.95430e-18
      335.762   4.91403e-18
      335.865   4.87407e-18
      335.969   4.83399e-18
      336.072   4.79455e-18
      336.175   4.75544e-18
      336.279   4.71625e-18
      336.382   4.67772e-18
      336.486   4.63908e-18
      336.589   4.60109e-18
      336.693   4.56306e-18
      336.796   4.52566e-18
      336.900   4.48817e-18
      337.004   4.45094e-18
      337.107   4.41437e-18
      337.211   4.37772e-18
      337.315   4.34138e-18
      337.419   4.30526e-18
      337.523   4.26940e-18
      337.626   4.23418e-18
      337.730   4.19893e-18
      337.834   4.16388e-18
      337.938   4.12915e-18
      338.042   4.09479e-18
      338.146   4.06115e-18
      338.250   4.02783e-18
      338.354   3.99476e-18
      338.458   3.96192e-18
      338.562   3.92934e-18
      338.667   3.89670e-18
      338.771   3.86459e-18
      338.875   3.83275e-18
      338.979   3.80114e-18
      339.084   3.76951e-18
      339.188   3.73838e-18
      339.292   3.70753e-18
      339.397   3.67658e-18
      339.501   3.64620e-18
      339.606   3.61574e-18
      339.710   3.58581e-18
      339.815   3.55585e-18
      339.919   3.52640e-18
      340.024   3.49688e-18
      340.128   3.46790e-18
      340.233   3.43885e-18
      340.338   3.41006e-18
      340.442   3.38173e-18
      340.547   3.35339e-18
      340.652   3.32526e-18
      340.757   3.29735e-18
      340.862   3.26967e-18
      340.966   3.24248e-18
      341.071   3.21522e-18
      341.176   3.18820e-18
      341.281   3.16140e-18
      341.386   3.13484e-18
      341.491   3.10846e-18
      341.596   3.08234e-18
      341.702   3.05616e-18
      341.807   3.03042e-18
      341.912   3.00492e-18
      342.017   2.97964e-18
      342.122   2.95454e-18
      342.228   2.92941e-18
      342.333   2.90474e-18
      342.438   2.88027e-18
      342.544   2.85579e-18
      342.649   2.83171e-18
      342.754   2.80787e-18
      342.860   2.78397e-18
      342.965   2.76049e-18
      343.071   2.73703e-18
      343.176   2.71396e-18
      343.282   2.69086e-18
      343.388   2.66798e-18
      343.493   2.64566e-18
      343.599   2.62466e-18
      343.705   2.60400e-18
      343.810   2.58366e-18
      343.916   2.56330e-18
      344.022   2.54313e-18
      344.128   2.52310e-18
      344.234   2.50322e-18
      344.340   2.48352e-18
      344.446   2.46395e-18
      344.552   2.44455e-18
      344.658   2.42534e-18
      344.764   2.40626e-18
      344.870   2.38733e-18
      344.976   2.36855e-18
      345.082   2.34993e-18
      345.188   2.33148e-18
      345.294   2.31315e-18
      345.401   2.29481e-18
      345.507   2.27679e-18
      345.613   2.25892e-18
      345.719   2.24120e-18
      345.826   2.22345e-18
      345.932   2.20601e-18
      346.039   2.18857e-18
      346.145   2.17141e-18
      346.252   2.15425e-18
      346.358   2.13739e-18
      346.465   2.12050e-18
      346.571   2.10391e-18
      346.678   2.08731e-18
      346.785   2.07084e-18
      346.891   2.05466e-18
      346.998   2.03847e-18
      347.105   2.02242e-18
      347.212   2.00650e-18
      347.319   1.99071e-18
      347.425   1.97518e-18
      347.532   1.95966e-18
      347.639   1.94427e-18
      347.746   1.92899e-18
      347.853   1.91386e-18
      347.960   1.89884e-18
      348.067   1.88397e-18
      348.174   1.86922e-18
      348.281   1.85457e-18
      348.389   1.83994e-18
      348.496   1.82553e-18
      348.603   1.81128e-18
      348.710   1.79712e-18
      348.818   1.78298e-18
      348.925   1.76906e-18
      349.032   1.75528e-18
      349.140   1.74144e-18
      349.247   1.72785e-18
      349.355   1.71427e-18
      349.462   1.70091e-18
      349.570   1.68753e-18
      349.677   1.67441e-18
      349.785   1.66126e-18
      349.892   1.64835e-18
      350.000   1.63544e-18
      350.100   1.62357e-18
      350.193   1.61263e-18
      350.287   1.60164e-18
      350.380   1.59085e-18
      350.473   1.58014e-18
      350.567   1.56939e-18
      350.660   1.55884e-18
      350.754   1.54825e-18
      350.847   1.53786e-18
      350.941   1.52743e-18
      351.034   1.51718e-18
      351.128   1.50690e-18
      351.221   1.49680e-18
      351.315   1.48668e-18
      351.409   1.47662e-18
      351.502   1.46675e-18
      351.596   1.45684e-18
      351.690   1.44700e-18
      351.783   1.43734e-18
      351.877   1.42767e-18
      351.971   1.41804e-18
      352.065   1.40849e-18
      352.159   1.39902e-18
      352.252   1.38970e-18
      352.346   1.38036e-18
      352.440   1.37108e-18
      352.534   1.36189e-18
      352.628   1.35275e-18
      352.722   1.34368e-18
      352.816   1.33467e-18
      352.910   1.32574e-18
      353.004   1.31687e-18
      353.098   1.30805e-18
      353.192   1.29930e-18
      353.287   1.29053e-18
      353.381   1.28192e-18
      353.475   1.27337e-18
      353.569   1.26486e-18
      353.663   1.25643e-18
      353.758   1.24798e-18
      353.852   1.23967e-18
      353.946   1.23142e-18
      354.041   1.22314e-18
      354.135   1.21501e-18
      354.229   1.20694e-18
      354.324   1.19884e-18
      354.418   1.19088e-18
      354.513   1.18289e-18
      354.607   1.17506e-18
      354.702   1.16716e-18
      354.796   1.15931e-18
      354.891   1.15142e-18
      354.985   1.14368e-18
      355.080   1.13590e-18
      355.175   1.12819e-18
      355.269   1.12060e-18
      355.364   1.11300e-18
      355.459   1.10545e-18
      355.553   1.09803e-18
      355.648   1.09058e-18
      355.743   1.08320e-18
      355.838   1.07585e-18
      355.933   1.06857e-18
      356.027   1.06142e-18
      356.122   1.05423e-18
      356.217   1.04710e-18
      356.312   1.04003e-18
      356.407   1.03300e-18
      356.502   1.02602e-18
      356.597   1.01908e-18
      356.692   1.01221e-18
      356.787   1.00537e-18
      356.882   9.98586e-19
      356.977   9.91852e-19
      357.073   9.85097e-19
      357.168   9.78449e-19
      357.263   9.71854e-19
      357.358   9.65305e-19
      357.453   9.58803e-19
      357.549   9.52280e-19
      357.644   9.45867e-19
      357.739   9.39501e-19
      357.835   9.33113e-19
      357.930   9.26835e-19
      358.025   9.20596e-19
      358.121   9.14337e-19
      358.216   9.08186e-19
      358.312   9.02012e-19
      358.407   8.95950e-19
      358.503   8.89861e-19
      358.598   8.83886e-19
      358.694   8.77883e-19
      358.790   8.71920e-19
      358.885   8.66056e-19
      358.981   8.60178e-19
      359.076   8.54396e-19
      359.172   8.48600e-19
      359.268   8.42833e-19
      359.364   8.37108e-19
      359.459   8.31489e-19
      359.555   8.25847e-19
      359.651   8.20237e-19
      359.747   8.14668e-19
      359.843   8.09138e-19
      359.939   8.03642e-19
      360.035   7.98187e-19
      360.131   7.92768e-19
      360.227   7.87383e-19
      360.323   7.82038e-19
      360.419   7.76729e-19
      360.515   7.71455e-19
      360.611   7.66215e-19
      360.707   7.61005e-19
      360.803   7.55837e-19
      360.899   7.50697e-19
      360.995   7.45601e-19
      361.092   7.40481e-19
      361.188   7.35445e-19
      361.284   7.30444e-19
      361.380   7.25478e-19
      361.477   7.20490e-19
      361.573   7.15589e-19
      361.669   7.10718e-19
      361.766   7.05824e-19
      361.862   7.01020e-19
      361.959   6.96197e-19
      362.055   6.91445e-19
      362.152   6.86686e-19
      362.248   6.82001e-19
      362.345   6.77297e-19
      362.441   6.72680e-19
      362.538   6.68042e-19
      362.635   6.63434e-19
      362.731   6.58898e-19
      362.828   6.54344e-19
      362.925   6.49824e-19
      363.021   6.45381e-19
      363.118   6.40919e-19
      363.215   6.36482e-19
      363.312   6.32075e-19
      363.409   6.27701e-19
      363.505   6.23395e-19
      363.602   6.19072e-19
      363.699   6.14784e-19
      363.796   6.10516e-19
      363.893   6.06277e-19
      363.990   6.02065e-19
      364.087   5.97880e-19
      364.184   5.93724e-19
      364.281   5.89593e-19
      364.378   5.85491e-19
      364.475   5.81412e-19
      364.573   5.77316e-19
      364.670   5.73288e-19
      364.767   5.69289e-19
      364.864   5.65315e-19
      364.961   5.61363e-19
      365.059   5.57400e-19
      365.156   5.53501e-19
      365.253   5.49626e-19
      365.351   5.45736e-19
      365.448   5.41910e-19
      365.545   5.38111e-19
      365.643   5.34294e-19
      365.740   5.30539e-19
      365.838   5.26772e-19
      365.935   5.23067e-19
      366.033   5.19350e-19
      366.130   5.15690e-19
      366.228   5.12018e-19
      366.326   5.08371e-19
      366.423   5.04781e-19
      366.521   5.01179e-19
      366.618   4.97633e-19
      366.716   4.94075e-19
      366.814   4.90541e-19
      366.912   4.87031e-19
      367.010   4.83543e-19
      367.107   4.80111e-19
      367.205   4.76665e-19
      367.303   4.73241e-19
      367.401   4.69839e-19
      367.499   4.66459e-19
      367.597   4.63101e-19
      367.695   4.59763e-19
      367.793   4.56449e-19
      367.891   4.53157e-19
      367.989   4.49883e-19
      368.087   4.46632e-19
      368.185   4.43400e-19
      368.283   4.40189e-19
      368.381   4.36998e-19
      368.480   4.33796e-19
      368.578   4.30648e-19
      368.676   4.27520e-19
      368.774   4.24413e-19
      368.873   4.21295e-19
      368.971   4.18227e-19
      369.069   4.15180e-19
      369.168   4.12119e-19
      369.266   4.09108e-19
      369.364   4.06119e-19
      369.463   4.03121e-19
      369.561   4.00171e-19
      369.660   3.97210e-19
      369.758   3.94297e-19
      369.857   3.91376e-19
      369.955   3.88503e-19
      370.054   3.85617e-19
      370.153   3.82751e-19
      370.251   3.79933e-19
      370.350   3.77107e-19
      370.449   3.74300e-19
      370.547   3.71537e-19
      370.646   3.68763e-19
      370.745   3.66011e-19
      370.844   3.63276e-19
      370.943   3.60559e-19
      371.041   3.57888e-19
      371.140   3.55206e-19
      371.239   3.52542e-19
      371.338   3.49899e-19
      371.437   3.47272e-19
      371.536   3.44662e-19
      371.635   3.42069e-19
      371.734   3.39496e-19
      371.833   3.36939e-19
      371.932   3.34400e-19
      372.032   3.31852e-19
      372.131   3.29345e-19
      372.230   3.26859e-19
      372.329   3.24390e-19
      372.428   3.21936e-19
      372.528   3.19476e-19
      372.627   3.17058e-19
      372.726   3.14655e-19
      372.826   3.12247e-19
      372.925   3.09878e-19
      373.024   3.07524e-19
      373.124   3.05163e-19
      373.223   3.02843e-19
      373.323   3.00517e-19
      373.422   2.98228e-19
      373.522   2.95932e-19
      373.621   2.93677e-19
      373.721   2.91414e-19
      373.820   2.89190e-19
      373.920   2.86958e-19
      374.020   2.84742e-19
      374.119   2.82564e-19
      374.219   2.80378e-19
      374.319   2.78211e-19
      374.419   2.76058e-19
      374.518   2.73941e-19
      374.618   2.71818e-19
      374.718   2.69708e-19
      374.818   2.67616e-19
      374.918   2.65539e-19
      375.018   2.63476e-19
      375.118   2.61430e-19
      375.218   2.59396e-19
      375.318   2.57378e-19
      375.418   2.55374e-19
      375.518   2.53386e-19
      375.618   2.51412e-19
      375.718   2.49451e-19
      375.818   2.47505e-19
      375.918   2.45574e-19
      376.019   2.43638e-19
      376.119   2.41736e-19
      376.219   2.39847e-19
      376.319   2.37971e-19
      376.420   2.36092e-19
      376.520   2.34244e-19
      376.620   2.32412e-19
      376.721   2.30574e-19
      376.821   2.28768e-19
      376.922   2.26957e-19
      377.022   2.25177e-19
      377.122   2.23413e-19
      377.223   2.21643e-19
      377.323   2.19904e-19
      377.424   2.18161e-19
      377.525   2.16432e-19
      377.625   2.14731e-19
      377.726   2.13028e-19
      377.827   2.11338e-19
      377.927   2.09676e-19
      378.028   2.08012e-19
      378.129   2.06360e-19
      378.230   2.04951e-19
      378.330   2.03916e-19
      378.431   2.02935e-19
      378.532   2.01959e-19
      378.633   2.00987e-19
      378.734   2.00019e-19
      378.835   1.99055e-19
      378.936   1.98096e-19
      379.037   1.97141e-19
      379.138   1.96189e-19
      379.239   1.95242e-19
      379.340   1.94301e-19
      379.441   1.93363e-19
      379.542   1.92428e-19
      379.643   1.91499e-19
      379.745   1.90565e-19
      379.846   1.89644e-19
      379.947   1.88725e-19
      380.048   1.87813e-19
      380.150   1.86896e-19
      380.251   1.85991e-19
      380.352   1.85092e-19
      380.454   1.84188e-19
      380.555   1.83296e-19
      380.656   1.82408e-19
      380.758   1.81516e-19
      380.859   1.80636e-19
      380.961   1.79753e-19
      381.062   1.78883e-19
      381.164   1.78008e-19
      381.266   1.77138e-19
      381.367   1.76280e-19
      381.469   1.75418e-19
      381.570   1.74569e-19
      381.672   1.73715e-19
      381.774   1.72866e-19
      381.876   1.72020e-19
      381.977   1.71188e-19
      382.079   1.70351e-19
      382.181   1.69518e-19
      382.283   1.68691e-19
      382.385   1.67866e-19
      382.487   1.67047e-19
      382.589   1.66231e-19
      382.691   1.65419e-19
      382.793   1.64611e-19
      382.895   1.63809e-19
      382.997   1.63010e-19
      383.099   1.62214e-19
      383.201   1.61423e-19
      383.303   1.60637e-19
      383.405   1.59854e-19
      383.507   1.59074e-19
      383.610   1.58292e-19
      383.712   1.57522e-19
      383.814   1.56755e-19
      383.916   1.55994e-19
      384.019   1.55228e-19
      384.121   1.54473e-19
      384.223   1.53722e-19
      384.326   1.52995e-19
      384.428   1.52346e-19
      384.531   1.51713e-19
      384.633   1.51089e-19
      384.736   1.50461e-19
      384.838   1.49842e-19
      384.941   1.49221e-19
      385.043   1.48608e-19
      385.146   1.47993e-19
      385.249   1.47380e-19
      385.351   1.46776e-19
      385.454   1.46169e-19
      385.557   1.45565e-19
      385.660   1.44964e-19
      385.762   1.44372e-19
      385.865   1.43777e-19
      385.968   1.43184e-19
      386.071   1.42595e-19
      386.174   1.42008e-19
      386.277   1.41423e-19
      386.380   1.40842e-19
      386.483   1.40263e-19
      386.586   1.39689e-19
      386.689   1.39116e-19
      386.792   1.38546e-19
      386.895   1.37979e-19
      386.998   1.37415e-19
      387.101   1.36853e-19
      387.204   1.36293e-19
      387.308   1.35732e-19
      387.411   1.35179e-19
      387.514   1.34628e-19
      387.617   1.34080e-19
      387.721   1.33530e-19
      387.824   1.32987e-19
      387.927   1.32447e-19
      388.031   1.31904e-19
      388.134   1.31370e-19
      388.238   1.30833e-19
      388.341   1.30303e-19
      388.445   1.29772e-19
      388.548   1.29247e-19
      388.652   1.28722e-19
      388.755   1.28203e-19
      388.859   1.27681e-19
      388.962   1.27167e-19
      389.066   1.26651e-19
      389.170   1.26137e-19
      389.274   1.25627e-19
      389.377   1.25124e-19
      389.481   1.24617e-19
      389.585   1.24114e-19
      389.689   1.23612e-19
      389.793   1.23114e-19
      389.897   1.22618e-19
      390.000   1.22130e-19
      390.104   1.21639e-19
      390.208   1.21150e-19
      390.312   1.20663e-19
      390.416   1.20178e-19
      390.520   1.19695e-19
      390.625   1.19209e-19
      390.729   1.18730e-19
      390.833   1.18254e-19
      390.937   1.17780e-19
      391.041   1.17308e-19
      391.145   1.16838e-19
      391.250   1.16367e-19
      391.354   1.15902e-19
      391.458   1.15439e-19
      391.563   1.14974e-19
      391.667   1.14517e-19
      391.771   1.14061e-19
      391.876   1.13603e-19
      391.980   1.13152e-19
      392.085   1.12698e-19
      392.189   1.12251e-19
      392.294   1.11802e-19
      392.398   1.11360e-19
      392.503   1.10915e-19
      392.607   1.10477e-19
      392.712   1.10037e-19
      392.817   1.09598e-19
      392.921   1.09167e-19
      393.026   1.08732e-19
      393.131   1.08301e-19
      393.236   1.07870e-19
      393.340   1.07447e-19
      393.445   1.07022e-19
      393.550   1.06598e-19
      393.655   1.06176e-19
      393.760   1.05756e-19
      393.865   1.05339e-19
      393.970   1.04923e-19
      394.075   1.04509e-19
      394.180   1.04098e-19
      394.285   1.03689e-19
      394.390   1.03280e-19
      394.495   1.02874e-19
      394.600   1.02470e-19
      394.706   1.02064e-19
      394.811   1.01665e-19
      394.916   1.01265e-19
      395.021   1.00869e-19
      395.126   1.00474e-19
      395.232   1.00077e-19
      395.337   9.96851e-20
      395.443   9.92922e-20
      395.548   9.89041e-20
      395.653   9.85177e-20
      395.759   9.81302e-20
      395.864   9.77479e-20
      395.970   9.73635e-20
      396.075   9.69843e-20
      396.181   9.66031e-20
      396.286   9.62265e-20
      396.392   9.58493e-20
      396.498   9.54736e-20
      396.603   9.51019e-20
      396.709   9.47287e-20
      396.815   9.43563e-20
      396.921   9.39862e-20
      397.026   9.36213e-20
      397.132   9.32548e-20
      397.238   9.28897e-20
      397.344   9.25257e-20
      397.450   9.21640e-20
      397.556   9.18030e-20
      397.662   9.14436e-20
      397.768   9.10861e-20
      397.874   9.07307e-20
      397.980   9.03751e-20
      398.086   9.00222e-20
      398.192   8.96699e-20
      398.298   8.93191e-20
      398.404   8.89710e-20
      398.510   8.86230e-20
      398.617   8.82734e-20
      398.723   8.79285e-20
      398.829   8.75849e-20
      398.935   8.72423e-20
      399.042   8.68990e-20
      399.148   8.65588e-20
      399.255   8.62174e-20
      399.361   8.58805e-20
      399.467   8.55443e-20
      399.574   8.52074e-20
      399.680   8.48737e-20
      399.787   8.45380e-20
      399.893       0.00000
      400.000       0.00000
