Filter: Al-poly/Al-thick
observation_date 22-Sept-2010 22:40:45
wavelength effective area 
      1.00000   2.52640e-10
      1.10000   6.98661e-10
      1.20000   1.74871e-09
      1.30000   3.99964e-09
      1.40000   8.61946e-09
      1.50000   1.73340e-08
      1.60000   3.28176e-08
      1.70000   5.90780e-08
      1.80000   1.01108e-07
      1.90000   1.65516e-07
      2.00000   2.59620e-07
      2.10000   3.91726e-07
      2.20000   5.70956e-07
      2.30000   8.02707e-07
      2.40000   1.09021e-06
      2.50000   1.42525e-06
      2.60000   1.83875e-06
      2.70000   2.29007e-06
      2.80000   2.76528e-06
      2.90000   3.26042e-06
      3.00000   3.73832e-06
      3.10000   4.17694e-06
      3.20000   4.55501e-06
      3.30000   4.85073e-06
      3.40000   5.04358e-06
      3.50000   5.12414e-06
      3.60000   5.10412e-06
      3.70000   4.96552e-06
      3.80000   4.73780e-06
      3.90000   4.43148e-06
      4.00000   4.06096e-06
      4.10000   3.64998e-06
      4.20000   3.22086e-06
      4.30000   2.79155e-06
      4.40000   2.37724e-06
      4.50000   1.98893e-06
      4.60000   1.63383e-06
      4.70000   1.32222e-06
      4.80000   1.05246e-06
      4.90000   8.14657e-07
      5.00000   6.37299e-07
      5.10000   4.84276e-07
      5.20000   3.63670e-07
      5.30000   2.66581e-07
      5.40000   1.92267e-07
      5.50000   1.36999e-07
      5.60000   9.31059e-08
      5.70000   6.55766e-08
      5.80000   4.10059e-08
      5.90000   3.30597e-08
      6.00000   2.31519e-08
      6.10000   1.52004e-08
      6.20000   9.62273e-09
      6.30000   5.74061e-09
      6.40000   3.22402e-09
      6.50000   1.71051e-09
      6.60000   8.51783e-10
      6.70000   4.08565e-10
      6.80000   1.89842e-10
      6.90000   1.13699e-10
      7.00000   5.64428e-11
      7.10000   2.67298e-11
      7.20000   1.22560e-11
      7.30000   5.53954e-12
      7.40000   2.55043e-12
      7.50000   1.12437e-12
      7.60000   4.73035e-13
      7.70000   2.05295e-13
      7.80000   8.40997e-14
      7.90000   3.36656e-14
      8.00000     0.0673072
      8.10000     0.0671985
      8.20000     0.0621148
      8.30000     0.0570212
      8.40000     0.0522982
      8.50000     0.0478230
      8.60000     0.0436268
      8.70000     0.0396622
      8.80000     0.0359680
      8.90000     0.0324990
      9.00000     0.0292811
      9.10000     0.0263059
      9.20000     0.0235452
      9.30000     0.0210371
      9.40000     0.0187326
      9.50000     0.0166199
      9.60000     0.0147255
      9.70000     0.0130032
      9.80000     0.0114361
      9.90000     0.0100312
      10.0000    0.00877266
      10.1000    0.00764193
      10.2000    0.00663044
      10.3000    0.00574001
      10.4000    0.00495897
      10.5000    0.00426959
      10.6000    0.00366351
      10.7000    0.00313268
      10.8000    0.00267190
      10.9000    0.00227575
      11.0000    0.00193202
      11.1000    0.00163487
      11.2000    0.00137890
      11.3000    0.00115926
      11.4000   0.000971467
      11.5000   0.000811452
      11.6000   0.000675615
      11.7000   0.000561874
      11.8000   0.000465941
      11.9000   0.000386006
      12.0000   0.000318948
      12.1000   0.000263995
      12.2000   0.000222041
      12.3000   0.000183777
      12.4000   0.000150282
      12.5000   0.000122405
      12.6000   9.93445e-05
      12.7000   8.03484e-05
      12.8000   6.47714e-05
      12.9000   5.20523e-05
      13.0000   4.16992e-05
      13.1000   3.32967e-05
      13.2000   2.64995e-05
      13.3000   2.10184e-05
      13.4000   1.66138e-05
      13.5000   1.30937e-05
      13.6000   1.03345e-05
      13.7000   8.13105e-06
      13.8000   6.37604e-06
      13.9000   4.98245e-06
      14.0000   3.87908e-06
      14.1000   3.00816e-06
      14.2000   2.32302e-06
      14.3000   1.78607e-06
      14.4000   1.36701e-06
      14.5000   1.04591e-06
      14.6000   8.02578e-07
      14.7000   6.12865e-07
      14.8000   4.65536e-07
      14.9000   3.51627e-07
      15.0000   2.64002e-07
      15.1000   1.96965e-07
      15.2000   1.48375e-07
      15.3000   1.11364e-07
      15.4000   8.29748e-08
      15.5000   6.13508e-08
      15.6000   4.50033e-08
      15.7000   3.31465e-08
      15.8000   2.45702e-08
      15.9000   1.80451e-08
      16.0000   1.31302e-08
      16.1000   9.46618e-09
      16.2000   6.93664e-09
      16.3000   5.06917e-09
      16.4000   3.65902e-09
      16.5000   2.60919e-09
      16.6000   1.87379e-09
      16.7000   1.35760e-09
      16.8000   9.68019e-10
      16.9000   6.79745e-10
      17.0000   4.82430e-10
      17.1000   3.45112e-10
      17.2000   2.42054e-10
      17.3000   1.66717e-10
      17.4000   1.18744e-10
      17.5000   8.40399e-11
      17.6000   5.84404e-11
      17.7000   4.07718e-11
      17.8000   2.94026e-11
      17.9000   2.07054e-11
      18.0000   1.42423e-11
      18.1000   1.01925e-11
      18.2000   7.10485e-12
      18.3000   4.79070e-12
      18.4000   3.30538e-12
      18.5000   2.24735e-12
      18.6000   1.46280e-12
      18.7000   9.69295e-13
      18.8000   6.40820e-13
      18.9000   4.04377e-13
      19.0000   2.64987e-13
      19.1000   1.73104e-13
      19.2000   1.07559e-13
      19.3000   7.08244e-14
      19.4000   4.57723e-14
      19.5000   2.80950e-14
      19.6000   1.88113e-14
      19.7000   1.20020e-14
      19.8000   7.36837e-15
      19.9000   4.96231e-15
      20.0000   3.09853e-15
      20.1000   1.96520e-15
      20.2000   1.27731e-15
      20.3000   7.70793e-16
      20.4000   5.05347e-16
      20.5000   3.14515e-16
      20.6000   1.89618e-16
      20.7000   1.23939e-16
      20.8000   7.34440e-17
      20.9000   4.68688e-17
      21.0000   2.87230e-17
      21.1000   1.68496e-17
      21.2000   1.08807e-17
      21.3000   6.24866e-18
      21.4000   3.97493e-18
      21.5000   2.35496e-18
      21.6000   1.39142e-18
      21.7000   8.63086e-19
      21.8000   4.72673e-19
      21.9000   3.07748e-19
      22.0000   1.72854e-19
      22.1000   1.06438e-19
      22.2000   6.16135e-20
      22.3000   3.53802e-20
      22.4000   2.11679e-20
      22.5000   1.08217e-20
      22.6000   6.51360e-21
      22.7000   3.06117e-21
      22.8000   2.59051e-21
      22.9000   2.11964e-21
      23.0000   1.63370e-21
      23.1000   1.17365e-21
      23.2000   7.38917e-22
      23.3000   4.60516e-22
      23.4000   2.59088e-22
      23.5000   1.59341e-22
      23.6000   8.46210e-23
      23.7000   5.38534e-23
      23.8000   2.73520e-23
      23.9000   1.77530e-23
      24.0000   9.03320e-24
      24.1000   5.74059e-24
      24.2000   2.91969e-24
      24.3000   1.82200e-24
      24.4000   9.28197e-25
      24.5000   5.70759e-25
      24.6000   2.91292e-25
      24.7000   1.76942e-25
      24.8000   9.01880e-26
      24.9000   5.44978e-26
      25.0000   2.77978e-26
      25.1000   1.67116e-26
      25.2000   8.44070e-27
      25.3000   5.08030e-27
      25.4000   2.53834e-27
      25.5000   1.53207e-27
      25.6000   7.50270e-28
      25.7000   4.56207e-28
      25.8000   2.18121e-28
      25.9000   1.34045e-28
      26.0000   6.22166e-29
      26.1000   3.87738e-29
      26.2000   1.74001e-29
      26.3000   1.10256e-29
      26.4000   4.76499e-30
      26.5000   3.07631e-30
      26.6000   1.40559e-30
      26.7000   8.40640e-31
      26.8000   4.09966e-31
      26.9000   2.24721e-31
      27.0000   1.16658e-31
      27.1000   5.86652e-32
      27.2000   3.22771e-32
      27.3000   1.49313e-32
      27.4000   8.69543e-33
      27.5000   3.73800e-33
      27.6000   2.28152e-33
      27.7000   9.03520e-34
      27.8000   5.76089e-34
      27.9000   2.52262e-34
      28.0000   1.40358e-34
      28.1000   7.01170e-35
      28.2000   3.32651e-35
      28.3000   1.85272e-35
      28.4000   7.85987e-36
      28.5000   4.73494e-36
      28.6000   1.81507e-36
      28.7000   1.17746e-36
      28.8000   5.47119e-37
      28.9000   2.99038e-37
      29.0000   1.60300e-37
      29.1000   7.30729e-38
      29.2000   4.33719e-38
      29.3000   1.72041e-38
      29.4000   1.10202e-38
      29.5000   4.90872e-39
      29.6000   2.65342e-39
      29.7000   1.41720e-39
      29.8000   6.08845e-40
      29.9000   3.65970e-40
      30.0000   1.33604e-40
      30.1000   8.72827e-41
      30.2000   4.15191e-41
      30.3000   1.97163e-41
      30.4000   1.15467e-41
      30.5000   4.79524e-42
      30.6000   3.03802e-42
      30.7000   1.29760e-42
      30.8000   6.64215e-43
      30.9000   3.57331e-43
      31.0000   1.37327e-43
      31.1000   8.26766e-44
      31.2000   3.50325e-44
      31.3000   1.96182e-44
      31.4000   9.80909e-45
      31.5000   2.80260e-45
      31.6000   2.80260e-45
      31.7000  -2.80260e-45
      31.8000       0.00000
      31.9000       0.00000
      32.0000       0.00000
      32.1000       0.00000
      32.2000       0.00000
      32.3000       0.00000
      32.4000       0.00000
      32.5000       0.00000
      32.6000       0.00000
      32.7000       0.00000
      32.8000       0.00000
      32.9000       0.00000
      33.0000       0.00000
      33.1000       0.00000
      33.2000       0.00000
      33.3000       0.00000
      33.4000       0.00000
      33.5000       0.00000
      33.6000       0.00000
      33.7000       0.00000
      33.8000       0.00000
      33.9000       0.00000
      34.0000       0.00000
      34.1000       0.00000
      34.2000       0.00000
      34.3000       0.00000
      34.4000       0.00000
      34.5000       0.00000
      34.6000       0.00000
      34.7000       0.00000
      34.8000       0.00000
      34.9000       0.00000
      35.0000       0.00000
      35.1000       0.00000
      35.2000       0.00000
      35.3000       0.00000
      35.4000       0.00000
      35.5000       0.00000
      35.6000       0.00000
      35.7000       0.00000
      35.8000       0.00000
      35.9000       0.00000
      36.0000       0.00000
      36.1000       0.00000
      36.2000       0.00000
      36.3000       0.00000
      36.4000       0.00000
      36.5000       0.00000
      36.6000       0.00000
      36.7000       0.00000
      36.8000       0.00000
      36.9000       0.00000
      37.0000       0.00000
      37.1000       0.00000
      37.2000       0.00000
      37.3000       0.00000
      37.4000       0.00000
      37.5000       0.00000
      37.6000       0.00000
      37.7000       0.00000
      37.8000       0.00000
      37.9000       0.00000
      38.0000       0.00000
      38.1000       0.00000
      38.2000       0.00000
      38.3000       0.00000
      38.4000       0.00000
      38.5000       0.00000
      38.6000       0.00000
      38.7000       0.00000
      38.8000       0.00000
      38.9000       0.00000
      39.0000       0.00000
      39.1000       0.00000
      39.2000       0.00000
      39.3000       0.00000
      39.4000       0.00000
      39.5000       0.00000
      39.6000       0.00000
      39.7000       0.00000
      39.8000       0.00000
      39.9000       0.00000
      40.0000       0.00000
      40.1000       0.00000
      40.2000       0.00000
      40.3000       0.00000
      40.4000       0.00000
      40.5000       0.00000
      40.6000       0.00000
      40.7000       0.00000
      40.8000       0.00000
      40.9000       0.00000
      41.0000       0.00000
      41.1000       0.00000
      41.2000       0.00000
      41.3000       0.00000
      41.4000       0.00000
      41.5000       0.00000
      41.6000       0.00000
      41.7000       0.00000
      41.8000       0.00000
      41.9000       0.00000
      42.0000       0.00000
      42.1000       0.00000
      42.2000       0.00000
      42.3000       0.00000
      42.4000       0.00000
      42.5000       0.00000
      42.6000       0.00000
      42.7000       0.00000
      42.8000       0.00000
      42.9000       0.00000
      43.0000       0.00000
      43.1000       0.00000
      43.2000       0.00000
      43.3000       0.00000
      43.4000       0.00000
      43.5000       0.00000
      43.6000       0.00000
      43.7000       0.00000
      43.8000       0.00000
      43.9000       0.00000
      44.0000       0.00000
      44.1000       0.00000
      44.2000       0.00000
      44.3000       0.00000
      44.4000       0.00000
      44.5000       0.00000
      44.6000       0.00000
      44.7000       0.00000
      44.8000       0.00000
      44.9000       0.00000
      45.0000       0.00000
      45.1000       0.00000
      45.2000       0.00000
      45.3000       0.00000
      45.4000       0.00000
      45.5000       0.00000
      45.6000       0.00000
      45.7000       0.00000
      45.8000       0.00000
      45.9000       0.00000
      46.0000       0.00000
      46.1000       0.00000
      46.2000       0.00000
      46.3000       0.00000
      46.4000       0.00000
      46.5000       0.00000
      46.6000       0.00000
      46.7000       0.00000
      46.8000       0.00000
      46.9000       0.00000
      47.0000       0.00000
      47.1000       0.00000
      47.2000       0.00000
      47.3000       0.00000
      47.4000       0.00000
      47.5000       0.00000
      47.6000       0.00000
      47.7000       0.00000
      47.8000       0.00000
      47.9000       0.00000
      48.0000       0.00000
      48.1000       0.00000
      48.2000       0.00000
      48.3000       0.00000
      48.4000       0.00000
      48.5000       0.00000
      48.6000       0.00000
      48.7000       0.00000
      48.8000       0.00000
      48.9000       0.00000
      49.0000       0.00000
      49.1000       0.00000
      49.2000       0.00000
      49.3000       0.00000
      49.4000       0.00000
      49.5000       0.00000
      49.6000       0.00000
      49.7000       0.00000
      49.8000       0.00000
      49.9000       0.00000
      50.0000       0.00000
      50.1000       0.00000
      50.2000       0.00000
      50.3000       0.00000
      50.4000       0.00000
      50.5000       0.00000
      50.6000       0.00000
      50.7000       0.00000
      50.8000       0.00000
      50.9000       0.00000
      51.0000       0.00000
      51.1000       0.00000
      51.2000       0.00000
      51.3000       0.00000
      51.4000       0.00000
      51.5000       0.00000
      51.6000       0.00000
      51.7000       0.00000
      51.8000       0.00000
      51.9000       0.00000
      52.0000       0.00000
      52.1000       0.00000
      52.2000       0.00000
      52.3000       0.00000
      52.4000       0.00000
      52.5000       0.00000
      52.6000       0.00000
      52.7000       0.00000
      52.8000       0.00000
      52.9000       0.00000
      53.0000       0.00000
      53.1000       0.00000
      53.2000       0.00000
      53.3000       0.00000
      53.4000       0.00000
      53.5000       0.00000
      53.6000       0.00000
      53.7000       0.00000
      53.8000       0.00000
      53.9000       0.00000
      54.0000       0.00000
      54.1000       0.00000
      54.2000       0.00000
      54.3000       0.00000
      54.4000       0.00000
      54.5000       0.00000
      54.6000       0.00000
      54.7000       0.00000
      54.8000       0.00000
      54.9000       0.00000
      55.0000       0.00000
      55.1000       0.00000
      55.2000       0.00000
      55.3000       0.00000
      55.4000       0.00000
      55.5000       0.00000
      55.6000       0.00000
      55.7000       0.00000
      55.8000       0.00000
      55.9000       0.00000
      56.0000       0.00000
      56.1000       0.00000
      56.2000       0.00000
      56.3000       0.00000
      56.4000       0.00000
      56.5000       0.00000
      56.6000       0.00000
      56.7000       0.00000
      56.8000       0.00000
      56.9000       0.00000
      57.0000       0.00000
      57.1000       0.00000
      57.2000       0.00000
      57.3000       0.00000
      57.4000       0.00000
      57.5000       0.00000
      57.6000       0.00000
      57.7000       0.00000
      57.8000       0.00000
      57.9000       0.00000
      58.0000       0.00000
      58.1000       0.00000
      58.2000       0.00000
      58.3000       0.00000
      58.4000       0.00000
      58.5000       0.00000
      58.6000       0.00000
      58.7000       0.00000
      58.8000       0.00000
      58.9000       0.00000
      59.0000       0.00000
      59.1000       0.00000
      59.2000       0.00000
      59.3000       0.00000
      59.4000       0.00000
      59.5000       0.00000
      59.6000       0.00000
      59.7000       0.00000
      59.8000       0.00000
      59.9000       0.00000
      60.0000       0.00000
      60.1000       0.00000
      60.2000       0.00000
      60.3000       0.00000
      60.4000       0.00000
      60.5000       0.00000
      60.6000       0.00000
      60.7000       0.00000
      60.8000       0.00000
      60.9000       0.00000
      61.0000       0.00000
      61.1000       0.00000
      61.2000       0.00000
      61.3000       0.00000
      61.4000       0.00000
      61.5000       0.00000
      61.6000       0.00000
      61.7000       0.00000
      61.8000       0.00000
      61.9000       0.00000
      62.0000       0.00000
      62.1000       0.00000
      62.2000       0.00000
      62.3000       0.00000
      62.4000       0.00000
      62.5000       0.00000
      62.6000       0.00000
      62.7000       0.00000
      62.8000       0.00000
      62.9000       0.00000
      63.0000       0.00000
      63.1000       0.00000
      63.2000       0.00000
      63.3000       0.00000
      63.4000       0.00000
      63.5000       0.00000
      63.6000       0.00000
      63.7000       0.00000
      63.8000       0.00000
      63.9000       0.00000
      64.0000       0.00000
      64.1000       0.00000
      64.2000       0.00000
      64.3000       0.00000
      64.4000       0.00000
      64.5000       0.00000
      64.6000       0.00000
      64.7000       0.00000
      64.8000       0.00000
      64.9000       0.00000
      65.0000       0.00000
      65.1000       0.00000
      65.2000       0.00000
      65.3000       0.00000
      65.4000       0.00000
      65.5000       0.00000
      65.6000       0.00000
      65.7000       0.00000
      65.8000       0.00000
      65.9000       0.00000
      66.0000       0.00000
      66.1000       0.00000
      66.2000       0.00000
      66.3000       0.00000
      66.4000       0.00000
      66.5000       0.00000
      66.6000       0.00000
      66.7000       0.00000
      66.8000       0.00000
      66.9000       0.00000
      67.0000       0.00000
      67.1000       0.00000
      67.2000       0.00000
      67.3000       0.00000
      67.4000       0.00000
      67.5000       0.00000
      67.6000       0.00000
      67.7000       0.00000
      67.8000       0.00000
      67.9000       0.00000
      68.0000       0.00000
      68.1000       0.00000
      68.2000       0.00000
      68.3000       0.00000
      68.4000       0.00000
      68.5000       0.00000
      68.6000       0.00000
      68.7000       0.00000
      68.8000       0.00000
      68.9000       0.00000
      69.0000       0.00000
      69.1000       0.00000
      69.2000       0.00000
      69.3000       0.00000
      69.4000       0.00000
      69.5000       0.00000
      69.6000       0.00000
      69.7000       0.00000
      69.8000       0.00000
      69.9000       0.00000
      70.0000       0.00000
      70.1000       0.00000
      70.2000       0.00000
      70.3000       0.00000
      70.4000       0.00000
      70.5000       0.00000
      70.6000       0.00000
      70.7000       0.00000
      70.8000       0.00000
      70.9000       0.00000
      71.0000       0.00000
      71.1000       0.00000
      71.2000       0.00000
      71.3000       0.00000
      71.4000       0.00000
      71.5000       0.00000
      71.6000       0.00000
      71.7000       0.00000
      71.8000       0.00000
      71.9000       0.00000
      72.0000       0.00000
      72.1000       0.00000
      72.2000       0.00000
      72.3000       0.00000
      72.4000       0.00000
      72.5000       0.00000
      72.6000       0.00000
      72.7000       0.00000
      72.8000       0.00000
      72.9000       0.00000
      73.0000       0.00000
      73.1000       0.00000
      73.2000       0.00000
      73.3000       0.00000
      73.4000       0.00000
      73.5000       0.00000
      73.6000       0.00000
      73.7000       0.00000
      73.8000       0.00000
      73.9000       0.00000
      74.0000       0.00000
      74.1000       0.00000
      74.2000       0.00000
      74.3000       0.00000
      74.4000       0.00000
      74.5000       0.00000
      74.6000       0.00000
      74.7000       0.00000
      74.8000       0.00000
      74.9000       0.00000
      75.0000       0.00000
      75.1000       0.00000
      75.2000       0.00000
      75.3000       0.00000
      75.4000       0.00000
      75.5000       0.00000
      75.6000       0.00000
      75.7000       0.00000
      75.8000       0.00000
      75.9000       0.00000
      76.0000       0.00000
      76.1000       0.00000
      76.2000       0.00000
      76.3000       0.00000
      76.4000       0.00000
      76.5000       0.00000
      76.6000       0.00000
      76.7000       0.00000
      76.8000       0.00000
      76.9000       0.00000
      77.0000       0.00000
      77.1000       0.00000
      77.2000       0.00000
      77.3000       0.00000
      77.4000       0.00000
      77.5000       0.00000
      77.6000       0.00000
      77.7000       0.00000
      77.8000       0.00000
      77.9000       0.00000
      78.0000       0.00000
      78.1000       0.00000
      78.2000       0.00000
      78.3000       0.00000
      78.4000       0.00000
      78.5000       0.00000
      78.6000       0.00000
      78.7000       0.00000
      78.8000       0.00000
      78.9000       0.00000
      79.0000       0.00000
      79.1000       0.00000
      79.2000       0.00000
      79.3000       0.00000
      79.4000       0.00000
      79.5000       0.00000
      79.6000       0.00000
      79.7000       0.00000
      79.8000       0.00000
      79.9000       0.00000
      80.0000       0.00000
      80.1000       0.00000
      80.2000       0.00000
      80.3000       0.00000
      80.4000       0.00000
      80.5000       0.00000
      80.6000       0.00000
      80.7000       0.00000
      80.8000       0.00000
      80.9000       0.00000
      81.0000       0.00000
      81.1000       0.00000
      81.2000       0.00000
      81.3000       0.00000
      81.4000       0.00000
      81.5000       0.00000
      81.6000       0.00000
      81.7000       0.00000
      81.8000       0.00000
      81.9000       0.00000
      82.0000       0.00000
      82.1000       0.00000
      82.2000       0.00000
      82.3000       0.00000
      82.4000       0.00000
      82.5000       0.00000
      82.6000       0.00000
      82.7000       0.00000
      82.8000       0.00000
      82.9000       0.00000
      83.0000       0.00000
      83.1000       0.00000
      83.2000       0.00000
      83.3000       0.00000
      83.4000       0.00000
      83.5000       0.00000
      83.6000       0.00000
      83.7000       0.00000
      83.8000       0.00000
      83.9000       0.00000
      84.0000       0.00000
      84.1000       0.00000
      84.2000       0.00000
      84.3000       0.00000
      84.4000       0.00000
      84.5000       0.00000
      84.6000       0.00000
      84.7000       0.00000
      84.8000       0.00000
      84.9000       0.00000
      85.0000       0.00000
      85.1000       0.00000
      85.2000       0.00000
      85.3000       0.00000
      85.4000       0.00000
      85.5000       0.00000
      85.6000       0.00000
      85.7000       0.00000
      85.8000       0.00000
      85.9000       0.00000
      86.0000       0.00000
      86.1000       0.00000
      86.2000       0.00000
      86.3000       0.00000
      86.4000       0.00000
      86.5000       0.00000
      86.6000       0.00000
      86.7000       0.00000
      86.8000       0.00000
      86.9000       0.00000
      87.0000       0.00000
      87.1000       0.00000
      87.2000       0.00000
      87.3000       0.00000
      87.4000       0.00000
      87.5000       0.00000
      87.6000       0.00000
      87.7000       0.00000
      87.8000       0.00000
      87.9000       0.00000
      88.0000       0.00000
      88.1000       0.00000
      88.2000       0.00000
      88.3000       0.00000
      88.4000       0.00000
      88.5000       0.00000
      88.6000       0.00000
      88.7000       0.00000
      88.8000       0.00000
      88.9000       0.00000
      89.0000       0.00000
      89.1000       0.00000
      89.2000       0.00000
      89.3000       0.00000
      89.4000       0.00000
      89.5000       0.00000
      89.6000       0.00000
      89.7000       0.00000
      89.8000       0.00000
      89.9000       0.00000
      90.0000       0.00000
      90.1000       0.00000
      90.2000       0.00000
      90.3000       0.00000
      90.4000       0.00000
      90.5000       0.00000
      90.6000       0.00000
      90.7000       0.00000
      90.8000       0.00000
      90.9000       0.00000
      91.0000       0.00000
      91.1000       0.00000
      91.2000       0.00000
      91.3000       0.00000
      91.4000       0.00000
      91.5000       0.00000
      91.6000       0.00000
      91.7000       0.00000
      91.8000       0.00000
      91.9000       0.00000
      92.0000       0.00000
      92.1000       0.00000
      92.2000       0.00000
      92.3000       0.00000
      92.4000       0.00000
      92.5000       0.00000
      92.6000       0.00000
      92.7000       0.00000
      92.8000       0.00000
      92.9000       0.00000
      93.0000       0.00000
      93.1000       0.00000
      93.2000       0.00000
      93.3000       0.00000
      93.4000       0.00000
      93.5000       0.00000
      93.6000       0.00000
      93.7000       0.00000
      93.8000       0.00000
      93.9000       0.00000
      94.0000       0.00000
      94.1000       0.00000
      94.2000       0.00000
      94.3000       0.00000
      94.4000       0.00000
      94.5000       0.00000
      94.6000       0.00000
      94.7000       0.00000
      94.8000       0.00000
      94.9000       0.00000
      95.0000       0.00000
      95.1000       0.00000
      95.2000       0.00000
      95.3000       0.00000
      95.4000       0.00000
      95.5000       0.00000
      95.6000       0.00000
      95.7000       0.00000
      95.8000       0.00000
      95.9000       0.00000
      96.0000       0.00000
      96.1000       0.00000
      96.2000       0.00000
      96.3000       0.00000
      96.4000       0.00000
      96.5000       0.00000
      96.6000       0.00000
      96.7000       0.00000
      96.8000       0.00000
      96.9000       0.00000
      97.0000       0.00000
      97.1000       0.00000
      97.2000       0.00000
      97.3000       0.00000
      97.4000       0.00000
      97.5000       0.00000
      97.6000       0.00000
      97.7000       0.00000
      97.8000       0.00000
      97.9000       0.00000
      98.0000       0.00000
      98.1000       0.00000
      98.2000       0.00000
      98.3000       0.00000
      98.4000       0.00000
      98.5000       0.00000
      98.6000       0.00000
      98.7000       0.00000
      98.8000       0.00000
      98.9000       0.00000
      99.0000       0.00000
      99.1000       0.00000
      99.2000       0.00000
      99.3000       0.00000
      99.4000       0.00000
      99.5000       0.00000
      99.6000       0.00000
      99.7000       0.00000
      99.8000       0.00000
      99.9000       0.00000
      100.000       0.00000
      100.100       0.00000
      100.200       0.00000
      100.300       0.00000
      100.400       0.00000
      100.500       0.00000
      100.600       0.00000
      100.700       0.00000
      100.800       0.00000
      100.900       0.00000
      101.000       0.00000
      101.100       0.00000
      101.200       0.00000
      101.300       0.00000
      101.400       0.00000
      101.500       0.00000
      101.600       0.00000
      101.700       0.00000
      101.800       0.00000
      101.900       0.00000
      102.000       0.00000
      102.100       0.00000
      102.200       0.00000
      102.300       0.00000
      102.400       0.00000
      102.500       0.00000
      102.600       0.00000
      102.700       0.00000
      102.800       0.00000
      102.900       0.00000
      103.000       0.00000
      103.100       0.00000
      103.200       0.00000
      103.300       0.00000
      103.400       0.00000
      103.500       0.00000
      103.600       0.00000
      103.700       0.00000
      103.800       0.00000
      103.900       0.00000
      104.000       0.00000
      104.100       0.00000
      104.200       0.00000
      104.300       0.00000
      104.400       0.00000
      104.500       0.00000
      104.600       0.00000
      104.700       0.00000
      104.800       0.00000
      104.900       0.00000
      105.000       0.00000
      105.100       0.00000
      105.200       0.00000
      105.300       0.00000
      105.400       0.00000
      105.500       0.00000
      105.600       0.00000
      105.700       0.00000
      105.800       0.00000
      105.900       0.00000
      106.000       0.00000
      106.100       0.00000
      106.200       0.00000
      106.300       0.00000
      106.400       0.00000
      106.500       0.00000
      106.600       0.00000
      106.700       0.00000
      106.800       0.00000
      106.900       0.00000
      107.000       0.00000
      107.100       0.00000
      107.200       0.00000
      107.300       0.00000
      107.400       0.00000
      107.500       0.00000
      107.600       0.00000
      107.700       0.00000
      107.800       0.00000
      107.900       0.00000
      108.000       0.00000
      108.100       0.00000
      108.200       0.00000
      108.300       0.00000
      108.400       0.00000
      108.500       0.00000
      108.600       0.00000
      108.700       0.00000
      108.800       0.00000
      108.900       0.00000
      109.000       0.00000
      109.100       0.00000
      109.200       0.00000
      109.300       0.00000
      109.400       0.00000
      109.500       0.00000
      109.600       0.00000
      109.700       0.00000
      109.800       0.00000
      109.900       0.00000
      110.000       0.00000
      110.100       0.00000
      110.200       0.00000
      110.300       0.00000
      110.400       0.00000
      110.500       0.00000
      110.600       0.00000
      110.700       0.00000
      110.800       0.00000
      110.900       0.00000
      111.000       0.00000
      111.100       0.00000
      111.200       0.00000
      111.300       0.00000
      111.400       0.00000
      111.500       0.00000
      111.600       0.00000
      111.700       0.00000
      111.800       0.00000
      111.900       0.00000
      112.000       0.00000
      112.100       0.00000
      112.200       0.00000
      112.300       0.00000
      112.400       0.00000
      112.500       0.00000
      112.600       0.00000
      112.700       0.00000
      112.800       0.00000
      112.900       0.00000
      113.000       0.00000
      113.100       0.00000
      113.200       0.00000
      113.300       0.00000
      113.400       0.00000
      113.500       0.00000
      113.600       0.00000
      113.700       0.00000
      113.800       0.00000
      113.900       0.00000
      114.000       0.00000
      114.100       0.00000
      114.200       0.00000
      114.300       0.00000
      114.400       0.00000
      114.500       0.00000
      114.600       0.00000
      114.700       0.00000
      114.800       0.00000
      114.900       0.00000
      115.000       0.00000
      115.100       0.00000
      115.200       0.00000
      115.300       0.00000
      115.400       0.00000
      115.500       0.00000
      115.600       0.00000
      115.700       0.00000
      115.800       0.00000
      115.900       0.00000
      116.000       0.00000
      116.100       0.00000
      116.200       0.00000
      116.300       0.00000
      116.400       0.00000
      116.500       0.00000
      116.600       0.00000
      116.700       0.00000
      116.800       0.00000
      116.900       0.00000
      117.000       0.00000
      117.100       0.00000
      117.200       0.00000
      117.300       0.00000
      117.400       0.00000
      117.500       0.00000
      117.600       0.00000
      117.700       0.00000
      117.800       0.00000
      117.900       0.00000
      118.000       0.00000
      118.100       0.00000
      118.200       0.00000
      118.300       0.00000
      118.400       0.00000
      118.500       0.00000
      118.600       0.00000
      118.700       0.00000
      118.800       0.00000
      118.900       0.00000
      119.000       0.00000
      119.100       0.00000
      119.200       0.00000
      119.300       0.00000
      119.400       0.00000
      119.500       0.00000
      119.600       0.00000
      119.700       0.00000
      119.800       0.00000
      119.900       0.00000
      120.000       0.00000
      120.100       0.00000
      120.200       0.00000
      120.300       0.00000
      120.400       0.00000
      120.500       0.00000
      120.600       0.00000
      120.700       0.00000
      120.800       0.00000
      120.900       0.00000
      121.000       0.00000
      121.100       0.00000
      121.200       0.00000
      121.300       0.00000
      121.400       0.00000
      121.500       0.00000
      121.600       0.00000
      121.700       0.00000
      121.800       0.00000
      121.900       0.00000
      122.000       0.00000
      122.100       0.00000
      122.200       0.00000
      122.300       0.00000
      122.400       0.00000
      122.500       0.00000
      122.600       0.00000
      122.700       0.00000
      122.800       0.00000
      122.900       0.00000
      123.000       0.00000
      123.100       0.00000
      123.200       0.00000
      123.300       0.00000
      123.400       0.00000
      123.500       0.00000
      123.600       0.00000
      123.700       0.00000
      123.800       0.00000
      123.900       0.00000
      124.000       0.00000
      124.100       0.00000
      124.200       0.00000
      124.300       0.00000
      124.400       0.00000
      124.500       0.00000
      124.600       0.00000
      124.700       0.00000
      124.800       0.00000
      124.900       0.00000
      125.000       0.00000
      125.100       0.00000
      125.200       0.00000
      125.300       0.00000
      125.400       0.00000
      125.500       0.00000
      125.600       0.00000
      125.700       0.00000
      125.800       0.00000
      125.900       0.00000
      126.000       0.00000
      126.100       0.00000
      126.200       0.00000
      126.300       0.00000
      126.400       0.00000
      126.500       0.00000
      126.600       0.00000
      126.700       0.00000
      126.800       0.00000
      126.900       0.00000
      127.000       0.00000
      127.100       0.00000
      127.200       0.00000
      127.300       0.00000
      127.400       0.00000
      127.500       0.00000
      127.600       0.00000
      127.700       0.00000
      127.800       0.00000
      127.900       0.00000
      128.000       0.00000
      128.100       0.00000
      128.200       0.00000
      128.300       0.00000
      128.400       0.00000
      128.500       0.00000
      128.600       0.00000
      128.700       0.00000
      128.800       0.00000
      128.900       0.00000
      129.000       0.00000
      129.100       0.00000
      129.200       0.00000
      129.300       0.00000
      129.400       0.00000
      129.500       0.00000
      129.600       0.00000
      129.700       0.00000
      129.800       0.00000
      129.900       0.00000
      130.000       0.00000
      130.100       0.00000
      130.200       0.00000
      130.300       0.00000
      130.400       0.00000
      130.500       0.00000
      130.600       0.00000
      130.700       0.00000
      130.800       0.00000
      130.900       0.00000
      131.000       0.00000
      131.100       0.00000
      131.200       0.00000
      131.300       0.00000
      131.400       0.00000
      131.500       0.00000
      131.600       0.00000
      131.700       0.00000
      131.800       0.00000
      131.900       0.00000
      132.000       0.00000
      132.100       0.00000
      132.200       0.00000
      132.300       0.00000
      132.400       0.00000
      132.500       0.00000
      132.600       0.00000
      132.700       0.00000
      132.800       0.00000
      132.900       0.00000
      133.000       0.00000
      133.100       0.00000
      133.200       0.00000
      133.300       0.00000
      133.400       0.00000
      133.500       0.00000
      133.600       0.00000
      133.700       0.00000
      133.800       0.00000
      133.900       0.00000
      134.000       0.00000
      134.100       0.00000
      134.200       0.00000
      134.300       0.00000
      134.400       0.00000
      134.500       0.00000
      134.600       0.00000
      134.700       0.00000
      134.800       0.00000
      134.900       0.00000
      135.000       0.00000
      135.100       0.00000
      135.200       0.00000
      135.300       0.00000
      135.400       0.00000
      135.500       0.00000
      135.600       0.00000
      135.700       0.00000
      135.800       0.00000
      135.900       0.00000
      136.000       0.00000
      136.100       0.00000
      136.200       0.00000
      136.300       0.00000
      136.400       0.00000
      136.500       0.00000
      136.600       0.00000
      136.700       0.00000
      136.800       0.00000
      136.900       0.00000
      137.000       0.00000
      137.100       0.00000
      137.200       0.00000
      137.300       0.00000
      137.400       0.00000
      137.500       0.00000
      137.600       0.00000
      137.700       0.00000
      137.800       0.00000
      137.900       0.00000
      138.000       0.00000
      138.100       0.00000
      138.200       0.00000
      138.300       0.00000
      138.400       0.00000
      138.500       0.00000
      138.600       0.00000
      138.700       0.00000
      138.800       0.00000
      138.900       0.00000
      139.000       0.00000
      139.100       0.00000
      139.200       0.00000
      139.300       0.00000
      139.400       0.00000
      139.500       0.00000
      139.600       0.00000
      139.700       0.00000
      139.800       0.00000
      139.900       0.00000
      140.000       0.00000
      140.100       0.00000
      140.200       0.00000
      140.300       0.00000
      140.400       0.00000
      140.500       0.00000
      140.600       0.00000
      140.700       0.00000
      140.800       0.00000
      140.900       0.00000
      141.000       0.00000
      141.100       0.00000
      141.200       0.00000
      141.300       0.00000
      141.400       0.00000
      141.500       0.00000
      141.600       0.00000
      141.700       0.00000
      141.800       0.00000
      141.900       0.00000
      142.000       0.00000
      142.100       0.00000
      142.200       0.00000
      142.300       0.00000
      142.400       0.00000
      142.500       0.00000
      142.600       0.00000
      142.700       0.00000
      142.800       0.00000
      142.900       0.00000
      143.000       0.00000
      143.100       0.00000
      143.200       0.00000
      143.300       0.00000
      143.400       0.00000
      143.500       0.00000
      143.600       0.00000
      143.700       0.00000
      143.800       0.00000
      143.900       0.00000
      144.000       0.00000
      144.100       0.00000
      144.200       0.00000
      144.300       0.00000
      144.400       0.00000
      144.500       0.00000
      144.600       0.00000
      144.700       0.00000
      144.800       0.00000
      144.900       0.00000
      145.000       0.00000
      145.100       0.00000
      145.200       0.00000
      145.300       0.00000
      145.400       0.00000
      145.500       0.00000
      145.600       0.00000
      145.700       0.00000
      145.800       0.00000
      145.900       0.00000
      146.000       0.00000
      146.100       0.00000
      146.200       0.00000
      146.300       0.00000
      146.400       0.00000
      146.500       0.00000
      146.600       0.00000
      146.700       0.00000
      146.800       0.00000
      146.900       0.00000
      147.000       0.00000
      147.100       0.00000
      147.200       0.00000
      147.300       0.00000
      147.400       0.00000
      147.500       0.00000
      147.600       0.00000
      147.700       0.00000
      147.800       0.00000
      147.900       0.00000
      148.000       0.00000
      148.100       0.00000
      148.200       0.00000
      148.300       0.00000
      148.400       0.00000
      148.500       0.00000
      148.600       0.00000
      148.700       0.00000
      148.800       0.00000
      148.900       0.00000
      149.000       0.00000
      149.100       0.00000
      149.200       0.00000
      149.300       0.00000
      149.400       0.00000
      149.500       0.00000
      149.600       0.00000
      149.700       0.00000
      149.800       0.00000
      149.900       0.00000
      150.000       0.00000
      150.100       0.00000
      150.200       0.00000
      150.300       0.00000
      150.400       0.00000
      150.500       0.00000
      150.600       0.00000
      150.700       0.00000
      150.800       0.00000
      150.900       0.00000
      151.000       0.00000
      151.100       0.00000
      151.200       0.00000
      151.300       0.00000
      151.400       0.00000
      151.500       0.00000
      151.600       0.00000
      151.700       0.00000
      151.800       0.00000
      151.900       0.00000
      152.000       0.00000
      152.100       0.00000
      152.200       0.00000
      152.300       0.00000
      152.400       0.00000
      152.500       0.00000
      152.600       0.00000
      152.700       0.00000
      152.800       0.00000
      152.900       0.00000
      153.000       0.00000
      153.100       0.00000
      153.200       0.00000
      153.300       0.00000
      153.400       0.00000
      153.500       0.00000
      153.600       0.00000
      153.700       0.00000
      153.800       0.00000
      153.900       0.00000
      154.000       0.00000
      154.100       0.00000
      154.200       0.00000
      154.300       0.00000
      154.400       0.00000
      154.500       0.00000
      154.600       0.00000
      154.700       0.00000
      154.800       0.00000
      154.900       0.00000
      155.000       0.00000
      155.100       0.00000
      155.200       0.00000
      155.300       0.00000
      155.400       0.00000
      155.500       0.00000
      155.600       0.00000
      155.700       0.00000
      155.800       0.00000
      155.900       0.00000
      156.000       0.00000
      156.100       0.00000
      156.200       0.00000
      156.300       0.00000
      156.400       0.00000
      156.500       0.00000
      156.600       0.00000
      156.700       0.00000
      156.800       0.00000
      156.900       0.00000
      157.000       0.00000
      157.100       0.00000
      157.200       0.00000
      157.300       0.00000
      157.400       0.00000
      157.500       0.00000
      157.600       0.00000
      157.700       0.00000
      157.800       0.00000
      157.900       0.00000
      158.000       0.00000
      158.100       0.00000
      158.200       0.00000
      158.300       0.00000
      158.400       0.00000
      158.500       0.00000
      158.600       0.00000
      158.700       0.00000
      158.800       0.00000
      158.900       0.00000
      159.000       0.00000
      159.100       0.00000
      159.200       0.00000
      159.300       0.00000
      159.400       0.00000
      159.500       0.00000
      159.600       0.00000
      159.700       0.00000
      159.800       0.00000
      159.900       0.00000
      160.000       0.00000
      160.100       0.00000
      160.200       0.00000
      160.300       0.00000
      160.400       0.00000
      160.500       0.00000
      160.600       0.00000
      160.700       0.00000
      160.800       0.00000
      160.900       0.00000
      161.000       0.00000
      161.100       0.00000
      161.200       0.00000
      161.300       0.00000
      161.400       0.00000
      161.500       0.00000
      161.600       0.00000
      161.700       0.00000
      161.800       0.00000
      161.900       0.00000
      162.000       0.00000
      162.100       0.00000
      162.200       0.00000
      162.300       0.00000
      162.400       0.00000
      162.500       0.00000
      162.600       0.00000
      162.700       0.00000
      162.800       0.00000
      162.900       0.00000
      163.000       0.00000
      163.100       0.00000
      163.200       0.00000
      163.300       0.00000
      163.400       0.00000
      163.500       0.00000
      163.600       0.00000
      163.700       0.00000
      163.800       0.00000
      163.900       0.00000
      164.000       0.00000
      164.100       0.00000
      164.200       0.00000
      164.300       0.00000
      164.400       0.00000
      164.500       0.00000
      164.600       0.00000
      164.700       0.00000
      164.800       0.00000
      164.900       0.00000
      165.000       0.00000
      165.100       0.00000
      165.200       0.00000
      165.300       0.00000
      165.400       0.00000
      165.500       0.00000
      165.600       0.00000
      165.700       0.00000
      165.800       0.00000
      165.900       0.00000
      166.000       0.00000
      166.100       0.00000
      166.200       0.00000
      166.300       0.00000
      166.400       0.00000
      166.500       0.00000
      166.600       0.00000
      166.700       0.00000
      166.800       0.00000
      166.900       0.00000
      167.000       0.00000
      167.100       0.00000
      167.200       0.00000
      167.300       0.00000
      167.400       0.00000
      167.500       0.00000
      167.600       0.00000
      167.700       0.00000
      167.800       0.00000
      167.900       0.00000
      168.000       0.00000
      168.100       0.00000
      168.200       0.00000
      168.300       0.00000
      168.400       0.00000
      168.500       0.00000
      168.600       0.00000
      168.700       0.00000
      168.800       0.00000
      168.900       0.00000
      169.000       0.00000
      169.100       0.00000
      169.200       0.00000
      169.300       0.00000
      169.400       0.00000
      169.500       0.00000
      169.600       0.00000
      169.700       0.00000
      169.800       0.00000
      169.900       0.00000
      170.000       0.00000
      170.100       0.00000
      170.200       0.00000
      170.300       0.00000
      170.400       0.00000
      170.500       0.00000
      170.600   7.15363e-42
      170.700   1.06588e-26
      170.800   1.49480e-22
      170.900   2.47520e-22
      171.000   2.51934e-22
      171.100   2.56390e-22
      171.200   2.60888e-22
      171.300   2.65430e-22
      171.400   2.70009e-22
      171.500   2.74625e-22
      171.600   2.79282e-22
      171.700   2.83986e-22
      171.800   2.88737e-22
      171.900   2.93533e-22
      172.000   2.98385e-22
      172.100   3.03305e-22
      172.200   3.08285e-22
      172.300   3.13330e-22
      172.400   3.18417e-22
      172.500   3.23569e-22
      172.600   3.28805e-22
      172.700   3.34120e-22
      172.800   3.39511e-22
      172.900   3.44996e-22
      173.000   3.50559e-22
      173.100   3.56208e-22
      173.200   3.61947e-22
      173.300   3.67778e-22
      173.400   3.73709e-22
      173.500   3.79729e-22
      173.600   3.85847e-22
      173.700   3.92060e-22
      173.800   3.98382e-22
      173.900   4.04789e-22
      174.000   4.11300e-22
      174.100   4.17926e-22
      174.200   4.24642e-22
      174.300   4.31452e-22
      174.400   4.38375e-22
      174.500   4.45395e-22
      174.600   4.52527e-22
      174.700   4.59761e-22
      174.800   4.67093e-22
      174.900   4.74533e-22
      175.000   4.82085e-22
      175.100   4.89726e-22
      175.200   4.97499e-22
      175.300   5.05365e-22
      175.400   5.13353e-22
      175.500   5.21446e-22
      175.600   5.29640e-22
      175.700   5.37952e-22
      175.800   5.46390e-22
      175.900   5.54932e-22
      176.000   5.63581e-22
      176.100   5.72354e-22
      176.200   5.81244e-22
      176.300   5.90262e-22
      176.400   5.99392e-22
      176.500   6.08639e-22
      176.600   6.18022e-22
      176.700   6.27518e-22
      176.800   6.37130e-22
      176.900   6.46864e-22
      177.000   6.56733e-22
      177.100   6.66726e-22
      177.200   6.76830e-22
      177.300   6.87054e-22
      177.400   6.97414e-22
      177.500   7.07892e-22
      177.600   7.18486e-22
      177.700   7.29200e-22
      177.800   7.40031e-22
      177.900   7.50995e-22
      178.000   7.62126e-22
      178.100   7.73363e-22
      178.200   7.84732e-22
      178.300   7.96239e-22
      178.400   8.07859e-22
      178.500   8.19604e-22
      178.600   8.31484e-22
      178.700   8.43513e-22
      178.800   8.55656e-22
      178.900   8.67922e-22
      179.000   8.80320e-22
      179.100   8.92864e-22
      179.200   9.05563e-22
      179.300   9.18386e-22
      179.400   9.31354e-22
      179.500   9.44475e-22
      179.600   9.57784e-22
      179.700   9.71213e-22
      179.800   9.84799e-22
      179.900   9.98545e-22
      180.000   1.01249e-21
      180.100   1.02656e-21
      180.200   1.04081e-21
      180.300   1.05523e-21
      180.400   1.06985e-21
      180.500   1.08464e-21
      180.600   1.09959e-21
      180.700   1.11473e-21
      180.800   1.13026e-21
      180.900   1.14636e-21
      181.000   1.16282e-21
      181.100   1.17947e-21
      181.200   1.19636e-21
      181.300   1.21349e-21
      181.400   1.23081e-21
      181.500   1.24834e-21
      181.600   1.26611e-21
      181.700   1.28412e-21
      181.800   1.30234e-21
      181.900   1.32079e-21
      182.000   1.33950e-21
      182.100   1.35841e-21
      182.200   1.37763e-21
      182.300   1.39706e-21
      182.400   1.41672e-21
      182.500   1.43664e-21
      182.600   1.45685e-21
      182.700   1.47728e-21
      182.800   1.49794e-21
      182.900   1.51890e-21
      183.000   1.54011e-21
      183.100   1.56158e-21
      183.200   1.58331e-21
      183.300   1.60533e-21
      183.400   1.62762e-21
      183.500   1.65018e-21
      183.600   1.67302e-21
      183.700   1.69718e-21
      183.800   1.72611e-21
      183.900   1.75824e-21
      184.000   1.79085e-21
      184.100   1.82409e-21
      184.200   1.85788e-21
      184.300   1.89228e-21
      184.400   1.92725e-21
      184.500   1.96278e-21
      184.600   1.99890e-21
      184.700   2.03565e-21
      184.800   2.07301e-21
      184.900   2.11095e-21
      185.000   2.14950e-21
      185.100   2.18871e-21
      185.200   2.22857e-21
      185.300   2.26902e-21
      185.400   2.31012e-21
      185.500   2.35185e-21
      185.600   2.39426e-21
      185.700   2.43739e-21
      185.800   2.48121e-21
      185.900   2.52567e-21
      186.000   2.57092e-21
      186.100   2.61679e-21
      186.200   2.66333e-21
      186.300   2.71057e-21
      186.400   2.75856e-21
      186.500   2.80729e-21
      186.600   2.85668e-21
      186.700   2.90674e-21
      186.800   2.95753e-21
      186.900   3.00910e-21
      187.000   3.06142e-21
      187.100   3.11440e-21
      187.200   3.16819e-21
      187.300   3.22285e-21
      187.400   3.27825e-21
      187.500   3.33440e-21
      187.600   3.39132e-21
      187.700   3.44902e-21
      187.800   3.50760e-21
      187.900   3.56698e-21
      188.000   3.62709e-21
      188.100   3.68800e-21
      188.200   3.74978e-21
      188.300   3.81244e-21
      188.400   3.87595e-21
      188.500   3.94030e-21
      188.600   4.00554e-21
      188.700   4.07180e-21
      188.800   4.13890e-21
      188.900   4.20685e-21
      189.000   4.27573e-21
      189.100   4.34562e-21
      189.200   4.41644e-21
      189.300   4.48814e-21
      189.400   4.56079e-21
      189.500   4.63446e-21
      189.600   4.70923e-21
      189.700   4.78489e-21
      189.800   4.86203e-21
      189.900   4.94037e-21
      190.000   5.01993e-21
      190.100   5.10048e-21
      190.200   5.18216e-21
      190.300   5.26493e-21
      190.400   5.34892e-21
      190.500   5.43407e-21
      190.600   5.52035e-21
      190.700   5.60782e-21
      190.800   5.69647e-21
      190.900   5.78638e-21
      191.000   5.87779e-21
      191.100   5.97041e-21
      191.200   6.06435e-21
      191.300   6.15956e-21
      191.400   6.25616e-21
      191.500   6.35413e-21
      191.600   6.45336e-21
      191.700   6.55397e-21
      191.800   6.65608e-21
      191.900   6.75950e-21
      192.000   6.86427e-21
      192.100   6.97060e-21
      192.200   7.07858e-21
      192.300   7.18797e-21
      192.400   7.29902e-21
      192.500   7.41151e-21
      192.600   7.52542e-21
      192.700   7.64087e-21
      192.800   7.75142e-21
      192.900   7.84689e-21
      193.000   7.94167e-21
      193.100   8.03755e-21
      193.200   8.13469e-21
      193.300   8.23270e-21
      193.400   8.33165e-21
      193.500   8.43164e-21
      193.600   8.53275e-21
      193.700   8.63492e-21
      193.800   8.73805e-21
      193.900   8.84211e-21
      194.000   8.94737e-21
      194.100   9.05405e-21
      194.200   9.16164e-21
      194.300   9.27036e-21
      194.400   9.38020e-21
      194.500   9.49130e-21
      194.600   9.60353e-21
      194.700   9.71673e-21
      194.800   9.83109e-21
      194.900   9.94668e-21
      195.000   1.00635e-20
      195.100   1.01819e-20
      195.200   1.03012e-20
      195.300   1.04217e-20
      195.400   1.05434e-20
      195.500   1.06665e-20
      195.600   1.07907e-20
      195.700   1.09159e-20
      195.800   1.10409e-20
      195.900   1.11556e-20
      196.000   1.08786e-20
      196.100   1.06035e-20
      196.200   1.03352e-20
      196.300   1.00737e-20
      196.400   9.81859e-21
      196.500   9.56976e-21
      196.600   9.32716e-21
      196.700   9.09055e-21
      196.800   8.86001e-21
      196.900   8.63552e-21
      197.000   8.41657e-21
      197.100   8.20297e-21
      197.200   7.99464e-21
      197.300   7.79140e-21
      197.400   7.59307e-21
      197.500   7.39961e-21
      197.600   7.21093e-21
      197.700   7.02734e-21
      197.800   6.84837e-21
      197.900   6.67369e-21
      198.000   6.50330e-21
      198.100   6.33708e-21
      198.200   6.17492e-21
      198.300   6.01673e-21
      198.400   5.86247e-21
      198.500   5.71231e-21
      198.600   5.56597e-21
      198.700   5.42322e-21
      198.800   5.28400e-21
      198.900   5.14825e-21
      199.000   5.01579e-21
      199.100   4.88661e-21
      199.200   4.76070e-21
      199.300   4.63821e-21
      199.400   4.51886e-21
      199.500   4.40249e-21
      199.600   4.28897e-21
      199.700   4.17829e-21
      199.800   4.07039e-21
      199.900   3.96518e-21
      200.000   3.86258e-21
      200.100   3.76298e-21
      200.200   3.66575e-21
      200.300   3.57103e-21
      200.400   3.47868e-21
      200.500   3.38866e-21
      200.600   3.30095e-21
      200.700   3.21546e-21
      200.800   3.13209e-21
      200.900   3.05090e-21
      201.000   2.97182e-21
      201.100   2.89481e-21
      201.200   2.81976e-21
      201.300   2.74662e-21
      201.400   2.67537e-21
      201.500   2.60590e-21
      201.600   2.53820e-21
      201.700   2.47225e-21
      201.800   2.40798e-21
      201.900   2.34538e-21
      202.000   2.28447e-21
      202.100   2.22511e-21
      202.200   2.16727e-21
      202.300   2.11137e-21
      202.400   2.05786e-21
      202.500   2.00596e-21
      202.600   1.95530e-21
      202.700   1.90595e-21
      202.800   1.85785e-21
      202.900   1.81100e-21
      203.000   1.76533e-21
      203.100   1.72083e-21
      203.200   1.67743e-21
      203.300   1.63512e-21
      203.400   1.59388e-21
      203.500   1.55368e-21
      203.600   1.51449e-21
      203.700   1.47631e-21
      203.800   1.43912e-21
      203.900   1.40292e-21
      204.000   1.36762e-21
      204.100   1.33322e-21
      204.200   1.29970e-21
      204.300   1.26704e-21
      204.400   1.23520e-21
      204.500   1.20417e-21
      204.600   1.17393e-21
      204.700   1.14446e-21
      204.800   1.11578e-21
      204.900   1.08783e-21
      205.000   1.06060e-21
      205.100   1.03407e-21
      205.200   1.00820e-21
      205.300   9.82996e-22
      205.400   9.58431e-22
      205.500   9.34486e-22
      205.600   9.09656e-22
      205.700   8.84153e-22
      205.800   8.59172e-22
      205.900   8.34922e-22
      206.000   8.11385e-22
      206.100   7.88507e-22
      206.200   7.66271e-22
      206.300   7.44671e-22
      206.400   7.23684e-22
      206.500   7.03276e-22
      206.600   6.83449e-22
      206.700   6.64183e-22
      206.800   6.45449e-22
      206.900   6.27242e-22
      207.000   6.09553e-22
      207.100   5.92376e-22
      207.200   5.75690e-22
      207.300   5.59466e-22
      207.400   5.43694e-22
      207.500   5.28361e-22
      207.600   5.13459e-22
      207.700   4.98971e-22
      207.800   4.84885e-22
      207.900   4.71191e-22
      208.000   4.57882e-22
      208.100   4.44945e-22
      208.200   4.32366e-22
      208.300   4.20142e-22
      208.400   4.08273e-22
      208.500   3.96737e-22
      208.600   3.85517e-22
      208.700   3.74611e-22
      208.800   3.64011e-22
      208.900   3.52686e-22
      209.000   3.39906e-22
      209.100   3.27155e-22
      209.200   3.14875e-22
      209.300   3.03047e-22
      209.400   2.91662e-22
      209.500   2.80696e-22
      209.600   2.70136e-22
      209.700   2.59976e-22
      209.800   2.50209e-22
      209.900   2.40797e-22
      210.000   2.31738e-22
      210.100   2.23016e-22
      210.200   2.14616e-22
      210.300   2.06529e-22
      210.400   1.98742e-22
      210.500   1.91245e-22
      210.600   1.84027e-22
      210.700   1.77077e-22
      210.800   1.70386e-22
      210.900   1.63944e-22
      211.000   1.57741e-22
      211.100   1.51773e-22
      211.200   1.46023e-22
      211.300   1.40499e-22
      211.400   1.35183e-22
      211.500   1.30063e-22
      211.600   1.25135e-22
      211.700   1.20392e-22
      211.800   1.15822e-22
      211.900   1.11424e-22
      212.000   1.07192e-22
      212.100   1.03117e-22
      212.200   9.91940e-23
      212.300   9.54185e-23
      212.400   9.17835e-23
      212.500   8.82855e-23
      212.600   8.49187e-23
      212.700   8.16781e-23
      212.800   7.85588e-23
      212.900   7.55575e-23
      213.000   7.26694e-23
      213.100   6.98933e-23
      213.200   6.72218e-23
      213.300   6.46502e-23
      213.400   6.21757e-23
      213.500   5.97945e-23
      213.600   5.75027e-23
      213.700   5.52983e-23
      213.800   5.31763e-23
      213.900   5.11358e-23
      214.000   4.91717e-23
      214.100   4.72821e-23
      214.200   4.54650e-23
      214.300   4.37163e-23
      214.400   4.20339e-23
      214.500   4.04157e-23
      214.600   3.88597e-23
      214.700   3.73625e-23
      214.800   3.59226e-23
      214.900   3.45381e-23
      215.000   3.32059e-23
      215.100   3.19253e-23
      215.200   3.06946e-23
      215.300   2.95117e-23
      215.400   2.83737e-23
      215.500   2.72793e-23
      215.600   2.62277e-23
      215.700   2.52156e-23
      215.800   2.42425e-23
      215.900   2.33072e-23
      216.000   2.24075e-23
      216.100   2.15424e-23
      216.200   2.07107e-23
      216.300   1.99110e-23
      216.400   1.91423e-23
      216.500   1.84029e-23
      216.600   1.76922e-23
      216.700   1.70090e-23
      216.800   1.63520e-23
      216.900   1.57203e-23
      217.000   1.51130e-23
      217.100   1.45291e-23
      217.200   1.39678e-23
      217.300   1.34281e-23
      217.400   1.29091e-23
      217.500   1.24105e-23
      217.600   1.19309e-23
      217.700   1.14696e-23
      217.800   1.10264e-23
      217.900   1.06003e-23
      218.000   1.01910e-23
      218.100   9.79733e-24
      218.200   9.41894e-24
      218.300   9.05519e-24
      218.400   8.70553e-24
      218.500   8.36914e-24
      218.600   8.04586e-24
      218.700   7.73497e-24
      218.800   7.43607e-24
      218.900   7.14882e-24
      219.000   6.87253e-24
      219.100   6.60684e-24
      219.200   6.35146e-24
      219.300   6.10590e-24
      219.400   5.86975e-24
      219.500   5.64272e-24
      219.600   5.42446e-24
      219.700   5.21462e-24
      219.800   5.01291e-24
      219.900   4.81894e-24
      220.000   4.63241e-24
      220.100   4.45310e-24
      220.200   4.28068e-24
      220.300   4.11494e-24
      220.400   3.95558e-24
      220.500   3.80240e-24
      220.600   3.65514e-24
      220.700   3.51350e-24
      220.800   3.37730e-24
      220.900   3.24645e-24
      221.000   3.12058e-24
      221.100   2.99955e-24
      221.200   2.88324e-24
      221.300   2.77142e-24
      221.400   2.66389e-24
      221.500   2.56053e-24
      221.600   2.46116e-24
      221.700   2.36561e-24
      221.800   2.27372e-24
      221.900   2.18540e-24
      222.000   2.10053e-24
      222.100   2.01887e-24
      222.200   1.94042e-24
      222.300   1.86496e-24
      222.400   1.79244e-24
      222.500   1.72270e-24
      222.600   1.65567e-24
      222.700   1.59122e-24
      222.800   1.52926e-24
      222.900   1.46970e-24
      223.000   1.41244e-24
      223.100   1.35738e-24
      223.200   1.30447e-24
      223.300   1.25359e-24
      223.400   1.20469e-24
      223.500   1.15766e-24
      223.600   1.11248e-24
      223.700   1.06902e-24
      223.800   1.02725e-24
      223.900   9.87125e-25
      224.000   9.48525e-25
      224.100   9.11426e-25
      224.200   8.75760e-25
      224.300   8.41485e-25
      224.400   8.08530e-25
      224.500   7.76858e-25
      224.600   7.46404e-25
      224.700   7.17151e-25
      224.800   6.89025e-25
      224.900   6.61987e-25
      225.000   6.36002e-25
      225.100   6.11022e-25
      225.200   5.87010e-25
      225.300   5.63948e-25
      225.400   5.41770e-25
      225.500   5.20452e-25
      225.600   4.99964e-25
      225.700   4.80282e-25
      225.800   4.61358e-25
      225.900   4.43174e-25
      226.000   4.25703e-25
      226.100   4.08909e-25
      226.200   3.92768e-25
      226.300   3.77290e-25
      226.400   3.62434e-25
      226.500   3.48146e-25
      226.600   3.34409e-25
      226.700   3.21209e-25
      226.800   3.08515e-25
      226.900   2.96317e-25
      227.000   2.84598e-25
      227.100   2.73332e-25
      227.200   2.62511e-25
      227.300   2.52113e-25
      227.400   2.42121e-25
      227.500   2.32522e-25
      227.600   2.23298e-25
      227.700   2.14436e-25
      227.800   2.05923e-25
      227.900   1.97745e-25
      228.000   1.89889e-25
      228.100   1.82340e-25
      228.200   1.75088e-25
      228.300   1.68122e-25
      228.400   1.61432e-25
      228.500   1.55004e-25
      228.600   1.48830e-25
      228.700   1.42900e-25
      228.800   1.37203e-25
      228.900   1.31734e-25
      229.000   1.26479e-25
      229.100   1.21432e-25
      229.200   1.16585e-25
      229.300   1.11930e-25
      229.400   1.07460e-25
      229.500   1.03167e-25
      229.600   9.90436e-26
      229.700   9.50847e-26
      229.800   9.12822e-26
      229.900   8.76313e-26
      230.000   8.40922e-26
      230.100   8.04582e-26
      230.200   7.69725e-26
      230.300   7.36386e-26
      230.400   7.04475e-26
      230.500   6.73945e-26
      230.600   6.44751e-26
      230.700   6.16807e-26
      230.800   5.90073e-26
      230.900   5.64493e-26
      231.000   5.40011e-26
      231.100   5.16585e-26
      231.200   4.94170e-26
      231.300   4.72726e-26
      231.400   4.52216e-26
      231.500   4.32577e-26
      231.600   4.13785e-26
      231.700   3.95812e-26
      231.800   3.78616e-26
      231.900   3.62161e-26
      232.000   3.46417e-26
      232.100   3.31352e-26
      232.200   3.16941e-26
      232.300   3.03156e-26
      232.400   2.89964e-26
      232.500   2.77340e-26
      232.600   2.65266e-26
      232.700   2.53715e-26
      232.800   2.42665e-26
      232.900   2.32092e-26
      233.000   2.21977e-26
      233.100   2.12302e-26
      233.200   2.03044e-26
      233.300   1.94191e-26
      233.400   1.85721e-26
      233.500   1.77625e-26
      233.600   1.69885e-26
      233.700   1.62477e-26
      233.800   1.54548e-26
      233.900   1.46891e-26
      234.000   1.39608e-26
      234.100   1.32686e-26
      234.200   1.26105e-26
      234.300   1.19848e-26
      234.400   1.13898e-26
      234.500   1.08242e-26
      234.600   1.02864e-26
      234.700   9.77521e-27
      234.800   9.28933e-27
      234.900   8.82728e-27
      235.000   8.38797e-27
      235.100   7.97041e-27
      235.200   7.57351e-27
      235.300   7.19620e-27
      235.400   6.83753e-27
      235.500   6.49659e-27
      235.600   6.17263e-27
      235.700   5.86472e-27
      235.800   5.57263e-27
      235.900   5.29497e-27
      236.000   5.03106e-27
      236.100   4.78016e-27
      236.200   4.54167e-27
      236.300   4.31497e-27
      236.400   4.09957e-27
      236.500   3.89480e-27
      236.600   3.70016e-27
      236.700   3.51518e-27
      236.800   3.33935e-27
      236.900   3.17224e-27
      237.000   3.01343e-27
      237.100   2.86248e-27
      237.200   2.71905e-27
      237.300   2.58274e-27
      237.400   2.45320e-27
      237.500   2.33007e-27
      237.600   2.21314e-27
      237.700   2.10224e-27
      237.800   1.99685e-27
      237.900   1.89669e-27
      238.000   1.80153e-27
      238.100   1.71106e-27
      238.200   1.62510e-27
      238.300   1.54341e-27
      238.400   1.46578e-27
      238.500   1.39201e-27
      238.600   1.32192e-27
      238.700   1.25533e-27
      238.800   1.19205e-27
      238.900   1.13192e-27
      239.000   1.07478e-27
      239.100   1.02050e-27
      239.200   9.68944e-28
      239.300   9.20030e-28
      239.400   8.73627e-28
      239.500   8.29534e-28
      239.600   7.87628e-28
      239.700   7.47838e-28
      239.800   7.10019e-28
      239.900   6.74088e-28
      240.000   6.39955e-28
      240.100   6.07519e-28
      240.200   5.76706e-28
      240.300   5.47437e-28
      240.400   5.19625e-28
      240.500   4.93222e-28
      240.600   4.68140e-28
      240.700   4.44314e-28
      240.800   4.21719e-28
      240.900   4.00292e-28
      241.000   3.79943e-28
      241.100   3.60612e-28
      241.200   3.42253e-28
      241.300   3.24811e-28
      241.400   3.08249e-28
      241.500   2.92519e-28
      241.600   2.77581e-28
      241.700   2.63393e-28
      241.800   2.49918e-28
      241.900   2.37122e-28
      242.000   2.24973e-28
      242.100   2.13439e-28
      242.200   2.02511e-28
      242.300   1.92152e-28
      242.400   1.82313e-28
      242.500   1.72970e-28
      242.600   1.64099e-28
      242.700   1.55675e-28
      242.800   1.47680e-28
      242.900   1.40088e-28
      243.000   1.32881e-28
      243.100   1.26040e-28
      243.200   1.19543e-28
      243.300   1.13377e-28
      243.400   1.07527e-28
      243.500   1.01984e-28
      243.600   9.67350e-29
      243.700   9.17495e-29
      243.800   8.70175e-29
      243.900   8.25278e-29
      244.000   7.82649e-29
      244.100   7.42192e-29
      244.200   7.03800e-29
      244.300   6.67353e-29
      244.400   6.32772e-29
      244.500   5.99958e-29
      244.600   5.68815e-29
      244.700   5.39315e-29
      244.800   5.11401e-29
      244.900   4.84914e-29
      245.000   4.59767e-29
      245.100   4.35908e-29
      245.200   4.13278e-29
      245.300   3.91804e-29
      245.400   3.71422e-29
      245.500   3.52093e-29
      245.600   3.33752e-29
      245.700   3.16347e-29
      245.800   2.99835e-29
      245.900   2.84229e-29
      246.000   2.69446e-29
      246.100   2.55415e-29
      246.200   2.42105e-29
      246.300   2.29476e-29
      246.400   2.17499e-29
      246.500   2.06136e-29
      246.600   1.95357e-29
      246.700   1.85134e-29
      246.800   1.75434e-29
      246.900   1.66236e-29
      247.000   1.57543e-29
      247.100   1.49309e-29
      247.200   1.41499e-29
      247.300   1.34093e-29
      247.400   1.27067e-29
      247.500   1.20403e-29
      247.600   1.14083e-29
      247.700   1.08090e-29
      247.800   1.02406e-29
      247.900   9.70157e-30
      248.000   9.19054e-30
      248.100   8.70877e-30
      248.200   8.25170e-30
      248.300   7.81816e-30
      248.400   7.40706e-30
      248.500   7.01713e-30
      248.600   6.64742e-30
      248.700   6.29694e-30
      248.800   5.96459e-30
      248.900   5.64952e-30
      249.000   5.35084e-30
      249.100   5.06895e-30
      249.200   4.80202e-30
      249.300   4.54881e-30
      249.400   4.30874e-30
      249.500   4.08118e-30
      249.600   3.86538e-30
      249.700   3.66081e-30
      249.800   3.46690e-30
      249.900   3.28307e-30
      250.000   3.10886e-30
      250.100   2.94430e-30
      250.200   2.78856e-30
      250.300   2.64107e-30
      250.400   2.50124e-30
      250.500   2.36875e-30
      250.600   2.24320e-30
      250.700   2.12421e-30
      250.800   2.01146e-30
      250.900   1.90463e-30
      251.000   1.80341e-30
      251.100   1.70750e-30
      251.200   1.61678e-30
      251.300   1.53102e-30
      251.400   1.44977e-30
      251.500   1.37275e-30
      251.600   1.29979e-30
      251.700   1.23070e-30
      251.800   1.16522e-30
      251.900   1.10319e-30
      252.000   1.04441e-30
      252.100   9.88760e-31
      252.200   9.36022e-31
      252.300   8.86150e-31
      252.400   8.38982e-31
      252.500   7.94328e-31
      252.600   7.52013e-31
      252.700   7.11934e-31
      252.800   6.73974e-31
      252.900   6.38017e-31
      253.000   6.03955e-31
      253.100   5.71699e-31
      253.200   5.41148e-31
      253.300   5.12451e-31
      253.400   4.85369e-31
      253.500   4.59743e-31
      253.600   4.35504e-31
      253.700   4.12524e-31
      253.800   3.90751e-31
      253.900   3.70119e-31
      254.000   3.50563e-31
      254.100   3.32026e-31
      254.200   3.14461e-31
      254.300   2.97818e-31
      254.400   2.82044e-31
      254.500   2.67098e-31
      254.600   2.52936e-31
      254.700   2.39521e-31
      254.800   2.26844e-31
      254.900   2.14833e-31
      255.000   2.03455e-31
      255.100   1.92668e-31
      255.200   1.82448e-31
      255.300   1.72767e-31
      255.400   1.63593e-31
      255.500   1.54902e-31
      255.600   1.46669e-31
      255.700   1.38869e-31
      255.800   1.31479e-31
      255.900   1.24476e-31
      256.000   1.17844e-31
      256.100   1.11569e-31
      256.200   1.05634e-31
      256.300   1.00011e-31
      256.400   9.46882e-32
      256.500   8.96414e-32
      256.600   8.48629e-32
      256.700   8.03371e-32
      256.800   7.60492e-32
      256.900   7.19875e-32
      257.000   6.81412e-32
      257.100   6.44979e-32
      257.200   6.10487e-32
      257.300   5.77810e-32
      257.400   5.50748e-32
      257.500   5.26333e-32
      257.600   5.03097e-32
      257.700   4.80889e-32
      257.800   4.59650e-32
      257.900   4.39346e-32
      258.000   4.19929e-32
      258.100   4.01361e-32
      258.200   3.83611e-32
      258.300   3.66644e-32
      258.400   3.50410e-32
      258.500   3.34888e-32
      258.600   3.20054e-32
      258.700   3.05869e-32
      258.800   2.92305e-32
      258.900   2.79346e-32
      259.000   2.66947e-32
      259.100   2.55098e-32
      259.200   2.43777e-32
      259.300   2.32972e-32
      259.400   2.22639e-32
      259.500   2.12757e-32
      259.600   2.03313e-32
      259.700   1.94286e-32
      259.800   1.85653e-32
      259.900   1.77398e-32
      260.000   1.69512e-32
      260.100   1.61972e-32
      260.200   1.54764e-32
      260.300   1.47875e-32
      260.400   1.41290e-32
      260.500   1.34997e-32
      260.600   1.28980e-32
      260.700   1.23229e-32
      260.800   1.17736e-32
      260.900   1.12482e-32
      261.000   1.07465e-32
      261.100   1.02675e-32
      261.200   9.80968e-33
      261.300   9.37200e-33
      261.400   8.95390e-33
      261.500   8.59154e-33
      261.600   8.36443e-33
      261.700   8.16407e-33
      261.800   7.96857e-33
      261.900   7.77758e-33
      262.000   7.59118e-33
      262.100   7.40919e-33
      262.200   7.23162e-33
      262.300   7.05818e-33
      262.400   6.88887e-33
      262.500   6.72364e-33
      262.600   6.56229e-33
      262.700   6.40481e-33
      262.800   6.25106e-33
      262.900   6.10083e-33
      263.000   5.95446e-33
      263.100   5.81143e-33
      263.200   5.67188e-33
      263.300   5.53567e-33
      263.400   5.40266e-33
      263.500   5.27284e-33
      263.600   5.14619e-33
      263.700   5.02248e-33
      263.800   4.90168e-33
      263.900   4.78389e-33
      264.000   4.66885e-33
      264.100   4.55652e-33
      264.200   4.44685e-33
      264.300   4.33989e-33
      264.400   4.23544e-33
      264.500   4.13347e-33
      264.600   4.03391e-33
      264.700   3.93676e-33
      264.800   3.84191e-33
      264.900   3.74938e-33
      265.000   3.65904e-33
      265.100   3.57082e-33
      265.200   3.48473e-33
      265.300   3.40070e-33
      265.400   3.31871e-33
      265.500   3.23866e-33
      265.600   3.16054e-33
      265.700   3.08425e-33
      265.800   3.00992e-33
      265.900   2.93735e-33
      266.000   2.86656e-33
      266.100   2.79749e-33
      266.200   2.73004e-33
      266.300   2.66420e-33
      266.400   2.59996e-33
      266.500   2.53723e-33
      266.600   2.47604e-33
      266.700   2.41628e-33
      266.800   2.35802e-33
      266.900   2.30112e-33
      267.000   2.24558e-33
      267.100   2.19139e-33
      267.200   2.13854e-33
      267.300   2.08693e-33
      267.400   2.03653e-33
      267.500   1.98737e-33
      267.600   1.93939e-33
      267.700   1.89256e-33
      267.800   1.84684e-33
      267.900   1.80225e-33
      268.000   1.75874e-33
      268.100   1.71627e-33
      268.200   1.67483e-33
      268.300   1.63439e-33
      268.400   1.59491e-33
      268.500   1.55639e-33
      268.600   1.51879e-33
      268.700   1.48213e-33
      268.800   1.44632e-33
      268.900   1.41140e-33
      269.000   1.37732e-33
      269.100   1.34405e-33
      269.200   1.31160e-33
      269.300   1.27993e-33
      269.400   1.24902e-33
      269.500   1.21884e-33
      269.600   1.18943e-33
      269.700   1.16070e-33
      269.800   1.13268e-33
      269.900   1.10533e-33
      270.000   1.07866e-33
      270.100   1.05264e-33
      270.200   1.02728e-33
      270.300   1.00252e-33
      270.400   9.78358e-34
      270.500   9.54785e-34
      270.600   9.31774e-34
      270.700   9.09327e-34
      270.800   8.87429e-34
      270.900   8.66045e-34
      271.000   8.45182e-34
      271.100   8.24819e-34
      271.200   8.04946e-34
      271.300   7.85566e-34
      271.400   7.66642e-34
      271.500   7.48191e-34
      271.600   7.30165e-34
      271.700   7.12583e-34
      271.800   6.95426e-34
      271.900   6.78685e-34
      272.000   6.62351e-34
      272.100   6.46406e-34
      272.200   6.30844e-34
      272.300   6.15657e-34
      272.400   6.00835e-34
      272.500   5.86377e-34
      272.600   5.72263e-34
      272.700   5.58491e-34
      272.800   5.45049e-34
      272.900   5.31931e-34
      273.000   5.19136e-34
      273.100   5.06645e-34
      273.200   4.94456e-34
      273.300   4.82562e-34
      273.400   4.70951e-34
      273.500   4.59621e-34
      273.600   4.48565e-34
      273.700   4.37770e-34
      273.800   4.27237e-34
      273.900   4.16965e-34
      274.000   4.06936e-34
      274.100   3.97150e-34
      274.200   3.87597e-34
      274.300   3.78276e-34
      274.400   3.69068e-34
      274.500   3.59799e-34
      274.600   3.50714e-34
      274.700   3.41862e-34
      274.800   3.33233e-34
      274.900   3.24818e-34
      275.000   3.16615e-34
      275.100   3.08621e-34
      275.200   3.00827e-34
      275.300   2.93227e-34
      275.400   2.85824e-34
      275.500   2.78607e-34
      275.600   2.71568e-34
      275.700   2.64707e-34
      275.800   2.58021e-34
      275.900   2.51504e-34
      276.000   2.45151e-34
      276.100   2.38957e-34
      276.200   2.32917e-34
      276.300   2.27030e-34
      276.400   2.21292e-34
      276.500   2.15699e-34
      276.600   2.10248e-34
      276.700   2.04932e-34
      276.800   1.99752e-34
      276.900   1.94700e-34
      277.000   1.89777e-34
      277.100   1.84976e-34
      277.200   1.80298e-34
      277.300   1.75738e-34
      277.400   1.71293e-34
      277.500   1.66956e-34
      277.600   1.62733e-34
      277.700   1.58614e-34
      277.800   1.54597e-34
      277.900   1.50684e-34
      278.000   1.46871e-34
      278.100   1.43153e-34
      278.200   1.39528e-34
      278.300   1.35995e-34
      278.400   1.32551e-34
      278.500   1.29192e-34
      278.600   1.25918e-34
      278.700   1.22729e-34
      278.800   1.19620e-34
      278.900   1.16577e-34
      279.000   1.13609e-34
      279.100   1.10716e-34
      279.200   1.07895e-34
      279.300   1.05148e-34
      279.400   1.02468e-34
      279.500   9.98567e-35
      279.600   9.73120e-35
      279.700   9.48325e-35
      279.800   9.24154e-35
      279.900   9.00586e-35
      280.000   8.77622e-35
      280.100   8.55232e-35
      280.200   8.33420e-35
      280.300   8.12152e-35
      280.400   7.91426e-35
      280.500   7.71242e-35
      280.600   7.51559e-35
      280.700   7.32369e-35
      280.800   7.13673e-35
      280.900   6.95447e-35
      281.000   6.77682e-35
      281.100   6.60367e-35
      281.200   6.43493e-35
      281.300   6.27051e-35
      281.400   6.11032e-35
      281.500   5.95409e-35
      281.600   5.80177e-35
      281.700   5.65339e-35
      281.800   5.50884e-35
      281.900   5.36790e-35
      282.000   5.23056e-35
      282.100   5.09668e-35
      282.200   4.96630e-35
      282.300   4.83914e-35
      282.400   4.71523e-35
      282.500   4.59443e-35
      282.600   4.47675e-35
      282.700   4.36201e-35
      282.800   4.25022e-35
      282.900   4.14136e-35
      283.000   4.03519e-35
      283.100   3.93177e-35
      283.200   3.83102e-35
      283.300   3.73280e-35
      283.400   3.63708e-35
      283.500   3.54385e-35
      283.600   3.45294e-35
      283.700   3.36433e-35
      283.800   3.27799e-35
      283.900   3.19390e-35
      284.000   3.11189e-35
      284.100   3.03195e-35
      284.200   2.95407e-35
      284.300   2.87820e-35
      284.400   2.80425e-35
      284.500   2.73220e-35
      284.600   2.66198e-35
      284.700   2.59356e-35
      284.800   2.52688e-35
      284.900   2.46190e-35
      285.000   2.39854e-35
      285.100   2.33682e-35
      285.200   2.27670e-35
      285.300   2.21809e-35
      285.400   2.16098e-35
      285.500   2.10531e-35
      285.600   2.05113e-35
      285.700   1.99827e-35
      285.800   1.94681e-35
      285.900   1.89665e-35
      286.000   1.84778e-35
      286.100   1.80020e-35
      286.200   1.75380e-35
      286.300   1.70862e-35
      286.400   1.66459e-35
      286.500   1.62166e-35
      286.600   1.57983e-35
      286.700   1.53907e-35
      286.800   1.49938e-35
      286.900   1.46069e-35
      287.000   1.42299e-35
      287.100   1.38624e-35
      287.200   1.35046e-35
      287.300   1.31559e-35
      287.400   1.28160e-35
      287.500   1.24849e-35
      287.600   1.21624e-35
      287.700   1.18479e-35
      287.800   1.15417e-35
      287.900   1.12433e-35
      288.000   1.09527e-35
      288.100   1.06694e-35
      288.200   1.03936e-35
      288.300   1.01250e-35
      288.400   9.86322e-36
      288.500   9.60822e-36
      288.600   9.35959e-36
      288.700   9.11749e-36
      288.800   8.88154e-36
      288.900   8.65179e-36
      289.000   8.42788e-36
      289.100   8.20964e-36
      289.200   7.99706e-36
      289.300   7.79000e-36
      289.400   7.58821e-36
      289.500   7.39161e-36
      289.600   7.20005e-36
      289.700   7.01360e-36
      289.800   6.83176e-36
      289.900   6.65453e-36
      290.000   6.48209e-36
      290.100   6.31395e-36
      290.200   6.15040e-36
      290.300   5.99096e-36
      290.400   5.83564e-36
      290.500   5.68445e-36
      290.600   5.53701e-36
      290.700   5.39339e-36
      290.800   5.25357e-36
      290.900   5.11730e-36
      291.000   4.98445e-36
      291.100   4.85504e-36
      291.200   4.72903e-36
      291.300   4.60624e-36
      291.400   4.48666e-36
      291.500   4.37012e-36
      291.600   4.25657e-36
      291.700   4.14602e-36
      291.800   4.03827e-36
      291.900   3.93344e-36
      292.000   3.83137e-36
      292.100   3.73188e-36
      292.200   3.63498e-36
      292.300   3.54053e-36
      292.400   3.44854e-36
      292.500   3.35890e-36
      292.600   3.27157e-36
      292.700   3.18652e-36
      292.800   3.10367e-36
      292.900   3.02296e-36
      293.000   2.94434e-36
      293.100   2.86774e-36
      293.200   2.79311e-36
      293.300   2.72040e-36
      293.400   2.64965e-36
      293.500   2.58073e-36
      293.600   2.51362e-36
      293.700   2.44821e-36
      293.800   2.38452e-36
      293.900   2.32248e-36
      294.000   2.26201e-36
      294.100   2.20313e-36
      294.200   2.14579e-36
      294.300   2.08994e-36
      294.400   2.03549e-36
      294.500   1.98247e-36
      294.600   1.93079e-36
      294.700   1.88048e-36
      294.800   1.83147e-36
      294.900   1.78373e-36
      295.000   1.73728e-36
      295.100   1.69205e-36
      295.200   1.64797e-36
      295.300   1.60501e-36
      295.400   1.56319e-36
      295.500   1.52246e-36
      295.600   1.48276e-36
      295.700   1.44410e-36
      295.800   1.40644e-36
      295.900   1.36973e-36
      296.000   1.33399e-36
      296.100   1.29916e-36
      296.200   1.26526e-36
      296.300   1.23224e-36
      296.400   1.20013e-36
      296.500   1.16881e-36
      296.600   1.13832e-36
      296.700   1.10862e-36
      296.800   1.07969e-36
      296.900   1.05150e-36
      297.000   1.02404e-36
      297.100   9.97293e-37
      297.200   9.71242e-37
      297.300   9.45865e-37
      297.400   9.21149e-37
      297.500   8.97058e-37
      297.600   8.73627e-37
      297.700   8.50806e-37
      297.800   8.28583e-37
      297.900   8.06942e-37
      298.000   7.85865e-37
      298.100   7.65323e-37
      298.200   7.45316e-37
      298.300   7.25834e-37
      298.400   7.06849e-37
      298.500   6.88355e-37
      298.600   6.70342e-37
      298.700   6.52796e-37
      298.800   6.35698e-37
      298.900   6.19075e-37
      299.000   6.02893e-37
      299.100   5.87128e-37
      299.200   5.71760e-37
      299.300   5.56798e-37
      299.400   5.42223e-37
      299.500   5.28026e-37
      299.600   5.14197e-37
      299.700   5.00726e-37
      299.800   4.87600e-37
      299.900   4.74824e-37
      300.000   4.62376e-37
      300.100   4.50256e-37
      300.192   4.39394e-37
      300.285   4.28665e-37
      300.377   4.18320e-37
      300.470   4.08117e-37
      300.562   3.98264e-37
      300.654   3.88647e-37
      300.747   3.79158e-37
      300.839   3.70004e-37
      300.932   3.60964e-37
      301.025   3.52150e-37
      301.117   3.43646e-37
      301.210   3.35245e-37
      301.303   3.27060e-37
      301.395   3.19161e-37
      301.488   3.11356e-37
      301.581   3.03750e-37
      301.674   2.96326e-37
      301.766   2.89158e-37
      301.859   2.82088e-37
      301.952   2.75193e-37
      302.045   2.68464e-37
      302.138   2.62292e-37
      302.231   2.57136e-37
      302.324   2.52119e-37
      302.417   2.47204e-37
      302.510   2.42377e-37
      302.603   2.37652e-37
      302.696   2.33012e-37
      302.789   2.28462e-37
      302.882   2.23999e-37
      302.976   2.19583e-37
      303.069   2.15294e-37
      303.162   2.11089e-37
      303.255   2.06963e-37
      303.349   2.02875e-37
      303.442   1.98908e-37
      303.535   1.95021e-37
      303.629   1.91167e-37
      303.722   1.87429e-37
      303.816   1.83726e-37
      303.909   1.80131e-37
      304.003   1.76569e-37
      304.096   1.73114e-37
      304.190   1.69690e-37
      304.283   1.66367e-37
      304.377   1.63076e-37
      304.471   1.59847e-37
      304.564   1.56715e-37
      304.658   1.53615e-37
      304.752   1.50571e-37
      304.846   1.47589e-37
      304.939   1.44696e-37
      305.033   1.41829e-37
      305.127   1.39017e-37
      305.221   1.36262e-37
      305.315   1.33562e-37
      305.409   1.30912e-37
      305.503   1.28316e-37
      305.597   1.25772e-37
      305.691   1.23276e-37
      305.785   1.20831e-37
      305.879   1.18432e-37
      305.973   1.16081e-37
      306.067   1.13775e-37
      306.161   1.11516e-37
      306.255   1.09301e-37
      306.350   1.07107e-37
      306.444   1.04978e-37
      306.538   1.02892e-37
      306.633   1.00826e-37
      306.727   9.88215e-38
      306.821   9.68567e-38
      306.916   9.49100e-38
      307.010   9.30456e-38
      307.105   9.12725e-38
      307.199   8.95626e-38
      307.294   8.78661e-38
      307.388   8.62199e-38
      307.483   8.45874e-38
      307.577   8.30021e-38
      307.672   8.14293e-38
      307.767   7.98865e-38
      307.861   7.83883e-38
      307.956   7.69011e-38
      308.051   7.54425e-38
      308.146   7.40127e-38
      308.240   7.26230e-38
      308.335   7.12448e-38
      308.430   6.98918e-38
      308.525   6.85653e-38
      308.620   6.72638e-38
      308.715   6.59864e-38
      308.810   6.47336e-38
      308.905   6.35037e-38
      309.000   6.22965e-38
      309.095   6.11126e-38
      309.190   5.99516e-38
      309.285   5.88120e-38
      309.380   5.76939e-38
      309.476   5.65858e-38
      309.571   5.55094e-38
      309.666   5.44532e-38
      309.761   5.34173e-38
      309.857   5.23903e-38
      309.952   5.13925e-38
      310.047   5.04144e-38
      310.143   4.94445e-38
      310.238   4.85029e-38
      310.334   4.75694e-38
      310.429   4.66630e-38
      310.525   4.57645e-38
      310.620   4.48925e-38
      310.716   4.40277e-38
      310.811   4.31889e-38
      310.907   4.23570e-38
      311.003   4.15409e-38
      311.098   4.07483e-38
      311.194   3.99627e-38
      311.290   3.91929e-38
      311.386   3.84375e-38
      311.481   3.77040e-38
      311.577   3.69768e-38
      311.673   3.62637e-38
      311.769   3.55641e-38
      311.865   3.48779e-38
      311.961   3.42074e-38
      312.057   3.35605e-38
      312.153   3.29304e-38
      312.249   3.23114e-38
      312.345   3.17043e-38
      312.441   3.11082e-38
      312.537   3.05235e-38
      312.633   2.99498e-38
      312.730   2.93805e-38
      312.826   2.88280e-38
      312.922   2.82857e-38
      313.018   2.77537e-38
      313.115   2.72262e-38
      313.211   2.67136e-38
      313.307   2.62110e-38
      313.404   2.57127e-38
      313.500   2.52286e-38
      313.597   2.47490e-38
      313.693   2.42831e-38
      313.790   2.38211e-38
      313.886   2.33726e-38
      313.983   2.29277e-38
      314.079   2.24957e-38
      314.176   2.20676e-38
      314.273   2.16475e-38
      314.369   2.12400e-38
      314.466   2.08357e-38
      314.563   2.04390e-38
      314.660   2.00497e-38
      314.756   1.96718e-38
      314.853   1.92970e-38
      314.950   1.89294e-38
      315.047   1.85689e-38
      315.144   1.82152e-38
      315.241   1.78681e-38
      315.338   1.75276e-38
      315.435   1.71935e-38
      315.532   1.68657e-38
      315.629   1.65442e-38
      315.726   1.62289e-38
      315.823   1.59193e-38
      315.921   1.56126e-38
      316.018   1.53149e-38
      316.115   1.50229e-38
      316.212   1.47362e-38
      316.310   1.44522e-38
      316.407   1.41764e-38
      316.504   1.39058e-38
      316.602   1.36377e-38
      316.699   1.33775e-38
      316.796   1.31220e-38
      316.894   1.28690e-38
      316.991   1.26239e-38
      317.089   1.23853e-38
      317.187   1.21537e-38
      317.284   1.19285e-38
      317.382   1.17052e-38
      317.479   1.14882e-38
      317.577   1.12731e-38
      317.675   1.10620e-38
      317.773   1.08548e-38
      317.870   1.06536e-38
      317.968   1.04539e-38
      318.066   1.02580e-38
      318.164   1.00658e-38
      318.262   9.87709e-39
      318.360   9.69194e-39
      318.458   9.51031e-39
      318.556   9.33216e-39
      318.654   9.15723e-39
      318.752   8.98545e-39
      318.850   8.81700e-39
      318.948   8.65161e-39
      319.046   8.48933e-39
      319.144   8.33002e-39
      319.242   8.17372e-39
      319.341   8.01881e-39
      319.439   7.86832e-39
      319.537   7.72072e-39
      319.635   7.57580e-39
      319.734   7.43211e-39
      319.832   7.29261e-39
      319.930   7.15562e-39
      320.029   7.01985e-39
      320.127   6.88803e-39
      320.226   6.75736e-39
      320.324   6.63035e-39
      320.423   6.50440e-39
      320.522   6.38103e-39
      320.620   6.26113e-39
      320.719   6.14218e-39
      320.818   6.02556e-39
      320.916   5.91226e-39
      321.015   5.79994e-39
      321.114   5.68970e-39
      321.213   5.58157e-39
      321.311   5.47660e-39
      321.410   5.37255e-39
      321.509   5.27035e-39
      321.608   5.17016e-39
      321.707   5.07185e-39
      321.806   4.97539e-39
      321.905   4.88077e-39
      322.004   4.78791e-39
      322.103   4.69683e-39
      322.202   4.60740e-39
      322.301   4.51973e-39
      322.401   4.43287e-39
      322.500   4.34850e-39
      322.599   4.26573e-39
      322.698   4.18448e-39
      322.798   4.10398e-39
      322.897   4.02581e-39
      322.996   3.94912e-39
      323.096   3.87309e-39
      323.195   3.79928e-39
      323.294   3.72683e-39
      323.394   3.65507e-39
      323.493   3.58538e-39
      323.593   3.51635e-39
      323.692   3.44928e-39
      323.792   3.38281e-39
      323.892   3.31760e-39
      323.991   3.25426e-39
      324.091   3.19156e-39
      324.191   3.13003e-39
      324.291   3.06965e-39
      324.390   3.01106e-39
      324.490   2.95296e-39
      324.590   2.89599e-39
      324.690   2.84010e-39
      324.790   2.78528e-39
      324.890   2.73153e-39
      324.990   2.67880e-39
      325.090   2.62707e-39
      325.190   2.57631e-39
      325.290   2.52657e-39
      325.390   2.47772e-39
      325.490   2.42986e-39
      325.590   2.38291e-39
      325.690   2.33681e-39
      325.790   2.29161e-39
      325.891   2.24686e-39
      325.991   2.20339e-39
      326.091   2.16075e-39
      326.192   2.11852e-39
      326.292   2.07752e-39
      326.392   2.03731e-39
      326.493   1.99748e-39
      326.593   1.95878e-39
      326.694   1.92048e-39
      326.794   1.88327e-39
      326.895   1.84641e-39
      326.995   1.81062e-39
      327.096   1.77517e-39
      327.197   1.74041e-39
      327.297   1.70666e-39
      327.398   1.67323e-39
      327.499   1.64046e-39
      327.599   1.60862e-39
      327.700   1.57708e-39
      327.801   1.54615e-39
      327.902   1.51585e-39
      328.003   1.48612e-39
      328.104   1.45697e-39
      328.205   1.42839e-39
      328.306   1.40036e-39
      328.407   1.37288e-39
      328.508   1.34591e-39
      328.609   1.31947e-39
      328.710   1.29355e-39
      328.811   1.26813e-39
      328.912   1.24322e-39
      329.013   1.21878e-39
      329.115   1.19461e-39
      329.216   1.17112e-39
      329.317   1.14807e-39
      329.419   1.12528e-39
      329.520   1.10314e-39
      329.621   1.08140e-39
      329.723   1.05991e-39
      329.824   1.03906e-39
      329.926   1.01840e-39
      330.027   9.98333e-40
      330.129   9.78469e-40
      330.230   9.59197e-40
      330.332   9.40102e-40
      330.434   9.21382e-40
      330.535   9.03218e-40
      330.637   8.85224e-40
      330.739   8.67589e-40
      330.840   8.50466e-40
      330.942   8.33518e-40
      331.044   8.16904e-40
      331.146   8.00609e-40
      331.248   7.84644e-40
      331.350   7.68998e-40
      331.452   7.53676e-40
      331.554   7.39055e-40
      331.656   7.25343e-40
      331.758   7.11882e-40
      331.860   6.98658e-40
      331.962   6.85686e-40
      332.064   6.72954e-40
      332.166   6.60466e-40
      332.268   6.48187e-40
      332.371   6.36030e-40
      332.473   6.24206e-40
      332.575   6.12589e-40
      332.677   6.01199e-40
      332.780   5.89912e-40
      332.882   5.78939e-40
      332.985   5.68064e-40
      333.087   5.57488e-40
      333.190   5.47012e-40
      333.292   5.36664e-40
      333.395   5.25977e-40
      333.497   5.15447e-40
      333.600   5.05028e-40
      333.702   4.94909e-40
      333.805   4.84900e-40
      333.908   4.75084e-40
      334.011   4.65474e-40
      334.113   4.56141e-40
      334.216   4.46905e-40
      334.319   4.37857e-40
      334.422   4.28984e-40
      334.525   4.20294e-40
      334.628   4.11776e-40
      334.731   4.03434e-40
      334.834   3.95259e-40
      334.937   3.87245e-40
      335.040   3.79389e-40
      335.143   3.71699e-40
      335.246   3.64155e-40
      335.349   3.56765e-40
      335.452   3.49526e-40
      335.555   3.42430e-40
      335.659   3.35413e-40
      335.762   3.28604e-40
      335.865   3.21934e-40
      335.969   3.15333e-40
      336.072   3.08920e-40
      336.175   3.02645e-40
      336.279   2.96438e-40
      336.382   2.90415e-40
      336.486   2.84451e-40
      336.589   2.78665e-40
      336.693   2.72949e-40
      336.796   2.67399e-40
      336.900   2.61907e-40
      337.004   2.56523e-40
      337.107   2.51306e-40
      337.211   2.46142e-40
      337.315   2.41092e-40
      337.419   2.36133e-40
      337.523   2.31277e-40
      337.626   2.26570e-40
      337.730   2.21915e-40
      337.834   2.17350e-40
      337.938   2.12884e-40
      338.042   2.08519e-40
      338.146   2.04298e-40
      338.250   2.00167e-40
      338.354   1.96120e-40
      338.458   1.92154e-40
      338.562   1.88266e-40
      338.667   1.84422e-40
      338.771   1.80688e-40
      338.875   1.77033e-40
      338.979   1.73451e-40
      339.084   1.69907e-40
      339.188   1.66467e-40
      339.292   1.63100e-40
      339.397   1.59763e-40
      339.501   1.56533e-40
      339.606   1.53333e-40
      339.710   1.50228e-40
      339.815   1.47157e-40
      339.919   1.44180e-40
      340.024   1.41230e-40
      340.128   1.38371e-40
      340.233   1.35543e-40
      340.338   1.32773e-40
      340.442   1.30080e-40
      340.547   1.27421e-40
      340.652   1.24814e-40
      340.757   1.22262e-40
      340.862   1.19761e-40
      340.966   1.17332e-40
      341.071   1.14932e-40
      341.176   1.12578e-40
      341.281   1.10277e-40
      341.386   1.08022e-40
      341.491   1.05808e-40
      341.596   1.03644e-40
      341.702   1.01507e-40
      341.807   9.94277e-41
      341.912   9.73916e-41
      342.017   9.54018e-41
      342.122   9.34456e-41
      342.228   9.15160e-41
      342.333   8.96439e-41
      342.438   8.78068e-41
      342.544   8.59949e-41
      342.649   8.42321e-41
      342.754   8.25127e-41
      342.860   8.08073e-41
      342.965   7.91481e-41
      343.071   7.75156e-41
      343.176   7.59280e-41
      343.282   7.43599e-41
      343.388   7.28255e-41
      343.493   7.13429e-41
      343.599   6.99570e-41
      343.705   6.86048e-41
      343.810   6.72918e-41
      343.916   6.59913e-41
      344.022   6.47176e-41
      344.128   6.34676e-41
      344.234   6.22415e-41
      344.340   6.10392e-41
      344.446   5.98607e-41
      344.552   5.87046e-41
      344.658   5.75737e-41
      344.764   5.64583e-41
      344.870   5.53681e-41
      344.976   5.43017e-41
      345.082   5.32507e-41
      345.188   5.22222e-41
      345.294   5.12119e-41
      345.401   5.02155e-41
      345.507   4.92444e-41
      345.613   4.82944e-41
      345.719   4.73625e-41
      345.826   4.64390e-41
      345.932   4.55408e-41
      346.039   4.46524e-41
      346.145   4.37906e-41
      346.252   4.29372e-41
      346.358   4.21062e-41
      346.465   4.12851e-41
      346.571   4.04891e-41
      346.678   3.97002e-41
      346.785   3.89281e-41
      346.891   3.81728e-41
      346.998   3.74315e-41
      347.105   3.67000e-41
      347.212   3.59853e-41
      347.319   3.52847e-41
      347.425   3.46009e-41
      347.532   3.39268e-41
      347.639   3.32654e-41
      347.746   3.26180e-41
      347.853   3.19818e-41
      347.960   3.13583e-41
      348.067   3.07445e-41
      348.174   3.01475e-41
      348.281   2.95604e-41
      348.389   2.89746e-41
      348.496   2.84127e-41
      348.603   2.78564e-41
      348.710   2.73141e-41
      348.818   2.67774e-41
      348.925   2.62533e-41
      349.032   2.57419e-41
      349.140   2.52332e-41
      349.247   2.47385e-41
      349.355   2.42523e-41
      349.462   2.37772e-41
      349.570   2.33078e-41
      349.677   2.28538e-41
      349.785   2.23998e-41
      349.892   2.19626e-41
      350.000   2.15281e-41
      350.100   2.11316e-41
      350.193   2.07742e-41
      350.287   2.04155e-41
      350.380   2.00680e-41
      350.473   1.97261e-41
      350.567   1.93870e-41
      350.660   1.90549e-41
      350.754   1.87256e-41
      350.847   1.84089e-41
      350.941   1.80894e-41
      351.034   1.77825e-41
      351.128   1.74770e-41
      351.221   1.71799e-41
      351.315   1.68828e-41
      351.409   1.65914e-41
      351.502   1.63069e-41
      351.596   1.60252e-41
      351.690   1.57506e-41
      351.783   1.54829e-41
      351.877   1.52139e-41
      351.971   1.49519e-41
      352.065   1.46968e-41
      352.159   1.44418e-41
      352.252   1.41952e-41
      352.346   1.39485e-41
      352.440   1.37089e-41
      352.534   1.34735e-41
      352.628   1.32395e-41
      352.722   1.30125e-41
      352.816   1.27868e-41
      352.910   1.25654e-41
      353.004   1.23482e-41
      353.098   1.21380e-41
      353.192   1.19265e-41
      353.287   1.17191e-41
      353.381   1.15145e-41
      353.475   1.13169e-41
      353.569   1.11221e-41
      353.663   1.09301e-41
      353.758   1.07382e-41
      353.852   1.05532e-41
      353.946   1.03710e-41
      354.041   1.01888e-41
      354.135   1.00137e-41
      354.229   9.83992e-42
      354.324   9.66756e-42
      354.418   9.49800e-42
      354.513   9.33545e-42
      354.607   9.17290e-42
      354.702   9.01035e-42
      354.796   8.85340e-42
      354.891   8.69366e-42
      354.985   8.53951e-42
      355.080   8.38677e-42
      355.175   8.23683e-42
      355.269   8.09250e-42
      355.364   7.94957e-42
      355.459   7.80804e-42
      355.553   7.67071e-42
      355.648   7.53338e-42
      355.743   7.39605e-42
      355.838   7.26573e-42
      355.933   7.13401e-42
      356.027   7.00929e-42
      356.122   6.88458e-42
      356.217   6.75986e-42
      356.312   6.63935e-42
      356.407   6.52024e-42
      356.502   6.40534e-42
      356.597   6.29043e-42
      356.692   6.17552e-42
      356.787   6.06762e-42
      356.882   5.95832e-42
      356.977   5.85042e-42
      357.073   5.74392e-42
      357.168   5.64163e-42
      357.263   5.54354e-42
      357.358   5.44404e-42
      357.453   5.34175e-42
      357.549   5.24926e-42
      357.644   5.15398e-42
      357.739   5.06149e-42
      357.835   4.96760e-42
      357.930   4.87932e-42
      358.025   4.79244e-42
      358.121   4.70276e-42
      358.216   4.62008e-42
      358.312   4.53740e-42
      358.407   4.45333e-42
      358.503   4.37345e-42
      358.598   4.29358e-42
      358.694   4.21791e-42
      358.790   4.14084e-42
      358.885   4.06657e-42
      358.981   3.99090e-42
      359.076   3.92083e-42
      359.172   3.84937e-42
      359.268   3.77650e-42
      359.364   3.70924e-42
      359.459   3.64197e-42
      359.555   3.57471e-42
      359.651   3.51165e-42
      359.747   3.44719e-42
      359.843   3.38414e-42
      359.939   3.32248e-42
      360.035   3.26222e-42
      360.131   3.20477e-42
      360.227   3.14451e-42
      360.323   3.08566e-42
      360.419   3.03241e-42
      360.515   2.97496e-42
      360.611   2.92031e-42
      360.707   2.86566e-42
      360.803   2.81521e-42
      360.899   2.76336e-42
      360.995   2.71291e-42
      361.092   2.66527e-42
      361.188   2.61342e-42
      361.284   2.56578e-42
      361.380   2.51813e-42
      361.477   2.47329e-42
      361.573   2.42845e-42
      361.669   2.38361e-42
      361.766   2.33877e-42
      361.862   2.29393e-42
      361.959   2.25189e-42
      362.055   2.21125e-42
      362.152   2.16921e-42
      362.248   2.13137e-42
      362.345   2.08934e-42
      362.441   2.05430e-42
      362.538   2.01647e-42
      362.635   1.97723e-42
      362.731   1.94220e-42
      362.828   1.90436e-42
      362.925   1.86933e-42
      363.021   1.83430e-42
      363.118   1.79927e-42
      363.215   1.76704e-42
      363.312   1.73481e-42
      363.409   1.70258e-42
      363.505   1.67035e-42
      363.602   1.63952e-42
      363.699   1.61009e-42
      363.796   1.57786e-42
      363.893   1.54984e-42
      363.990   1.52041e-42
      364.087   1.49238e-42
      364.184   1.46296e-42
      364.281   1.43773e-42
      364.378   1.40830e-42
      364.475   1.38308e-42
      364.573   1.35786e-42
      364.670   1.33263e-42
      364.767   1.30741e-42
      364.864   1.28499e-42
      364.961   1.25837e-42
      365.059   1.23314e-42
      365.156   1.21072e-42
      365.253   1.18830e-42
      365.351   1.16868e-42
      365.448   1.14766e-42
      365.545   1.12524e-42
      365.643   1.10282e-42
      365.740   1.08040e-42
      365.838   1.06078e-42
      365.935   1.04116e-42
      366.033   1.02295e-42
      366.130   1.00333e-42
      366.228   9.83712e-43
      366.326   9.65495e-43
      366.423   9.45876e-43
      366.521   9.29061e-43
      366.618   9.10844e-43
      366.716   8.94028e-43
      366.814   8.75812e-43
      366.912   8.58996e-43
      367.010   8.43582e-43
      367.107   8.28167e-43
      367.205   8.11352e-43
      367.303   7.95938e-43
      367.401   7.83326e-43
      367.499   7.66510e-43
      367.597   7.51096e-43
      367.695   7.38484e-43
      367.793   7.21669e-43
      367.891   7.09057e-43
      367.989   6.96445e-43
      368.087   6.83834e-43
      368.185   6.71222e-43
      368.283   6.58610e-43
      368.381   6.45999e-43
      368.480   6.31986e-43
      368.578   6.19374e-43
      368.676   6.06762e-43
      368.774   5.96953e-43
      368.873   5.84341e-43
      368.971   5.74532e-43
      369.069   5.61921e-43
      369.168   5.52112e-43
      369.266   5.43704e-43
      369.364   5.33895e-43
      369.463   5.21283e-43
      369.561   5.11474e-43
      369.660   5.01665e-43
      369.758   4.91856e-43
      369.857   4.82047e-43
      369.955   4.72238e-43
      370.054   4.63830e-43
      370.153   4.54021e-43
      370.251   4.47014e-43
      370.350   4.37205e-43
      370.449   4.28797e-43
      370.547   4.18988e-43
      370.646   4.11982e-43
      370.745   4.02173e-43
      370.844   3.96567e-43
      370.943   3.86758e-43
      371.041   3.83956e-43
      371.140   3.74147e-43
      371.239   3.67140e-43
      371.338   3.61535e-43
      371.437   3.51726e-43
      371.536   3.44719e-43
      371.635   3.39114e-43
      371.734   3.32108e-43
      371.833   3.26503e-43
      371.932   3.19496e-43
      372.032   3.12490e-43
      372.131   3.06884e-43
      372.230   3.04082e-43
      372.329   2.97075e-43
      372.428   2.90069e-43
      372.528   2.84464e-43
      372.627   2.77457e-43
      372.726   2.71852e-43
      372.826   2.69049e-43
      372.925   2.62043e-43
      373.024   2.55036e-43
      373.124   2.52234e-43
      373.223   2.46629e-43
      373.323   2.42425e-43
      373.422   2.39622e-43
      373.522   2.32616e-43
      373.621   2.29813e-43
      373.721   2.24208e-43
      373.820   2.20004e-43
      373.920   2.14399e-43
      374.020   2.10195e-43
      374.119   2.07392e-43
      374.219   2.04590e-43
      374.319   1.97583e-43
      374.419   1.94780e-43
      374.518   1.91978e-43
      374.618   1.89175e-43
      374.718   1.82169e-43
      374.818   1.79366e-43
      374.918   1.75162e-43
      375.018   1.72360e-43
      375.118   1.69557e-43
      375.218   1.66755e-43
      375.318   1.62551e-43
      375.418   1.59748e-43
      375.518   1.56945e-43
      375.618   1.52742e-43
      375.718   1.49939e-43
      375.818   1.47136e-43
      375.918   1.47136e-43
      376.019   1.40130e-43
      376.119   1.40130e-43
      376.219   1.37327e-43
      376.319   1.34525e-43
      376.420   1.30321e-43
      376.520   1.27518e-43
      376.620   1.24716e-43
      376.721   1.24716e-43
      376.821   1.21913e-43
      376.922   1.17709e-43
      377.022   1.14906e-43
      377.122   1.14906e-43
      377.223   1.12104e-43
      377.323   1.12104e-43
      377.424   1.05097e-43
      377.525   1.05097e-43
      377.625   1.02295e-43
      377.726   9.94922e-44
      377.827   9.94922e-44
      377.927   9.52883e-44
      378.028   9.52883e-44
      378.129   9.24857e-44
      378.230   8.96831e-44
      378.330   8.96831e-44
      378.431   8.96831e-44
      378.532   8.96831e-44
      378.633   8.68805e-44
      378.734   8.68805e-44
      378.835   8.68805e-44
      378.936   8.26766e-44
      379.037   8.26766e-44
      379.138   7.98740e-44
      379.239   7.98740e-44
      379.340   7.98740e-44
      379.441   7.98740e-44
      379.542   7.70714e-44
      379.643   7.28675e-44
      379.745   7.28675e-44
      379.846   7.28675e-44
      379.947   7.28675e-44
      380.048   7.00649e-44
      380.150   7.00649e-44
      380.251   7.00649e-44
      380.352   7.00649e-44
      380.454   7.00649e-44
      380.555   6.72623e-44
      380.656   6.72623e-44
      380.758   6.44597e-44
      380.859   6.44597e-44
      380.961   6.44597e-44
      381.062   6.44597e-44
      381.164   6.02558e-44
      381.266   6.02558e-44
      381.367   6.02558e-44
      381.469   6.02558e-44
      381.570   6.02558e-44
      381.672   5.74532e-44
      381.774   5.74532e-44
      381.876   5.74532e-44
      381.977   5.46506e-44
      382.079   5.46506e-44
      382.181   5.46506e-44
      382.283   5.46506e-44
      382.385   5.46506e-44
      382.487   5.04467e-44
      382.589   5.04467e-44
      382.691   5.04467e-44
      382.793   5.04467e-44
      382.895   5.04467e-44
      382.997   5.04467e-44
      383.099   4.76441e-44
      383.201   4.76441e-44
      383.303   4.76441e-44
      383.405   4.48416e-44
      383.507   4.48416e-44
      383.610   4.48416e-44
      383.712   4.48416e-44
      383.814   4.48416e-44
      383.916   4.48416e-44
      384.019   4.20390e-44
      384.121   4.20390e-44
      384.223   4.20390e-44
      384.326   4.20390e-44
      384.428   3.78351e-44
      384.531   3.78351e-44
      384.633   3.78351e-44
      384.736   3.78351e-44
      384.838   3.78351e-44
      384.941   3.78351e-44
      385.043   3.78351e-44
      385.146   3.78351e-44
      385.249   3.50325e-44
      385.351   3.50325e-44
      385.454   3.50325e-44
      385.557   3.50325e-44
      385.660   3.50325e-44
      385.762   3.50325e-44
      385.865   3.50325e-44
      385.968   3.50325e-44
      386.071   3.50325e-44
      386.174   3.22299e-44
      386.277   3.22299e-44
      386.380   3.22299e-44
      386.483   3.22299e-44
      386.586   3.22299e-44
      386.689   2.94273e-44
      386.792   2.94273e-44
      386.895   2.94273e-44
      386.998   2.94273e-44
      387.101   2.94273e-44
      387.204   2.94273e-44
      387.308   2.94273e-44
      387.411   2.94273e-44
      387.514   2.94273e-44
      387.617   2.94273e-44
      387.721   2.94273e-44
      387.824   2.52234e-44
      387.927   2.52234e-44
      388.031   2.52234e-44
      388.134   2.52234e-44
      388.238   2.52234e-44
      388.341   2.52234e-44
      388.445   2.52234e-44
      388.548   2.52234e-44
      388.652   2.52234e-44
      388.755   2.52234e-44
      388.859   2.52234e-44
      388.962   2.52234e-44
      389.066   2.52234e-44
      389.170   2.24208e-44
      389.274   2.24208e-44
      389.377   2.24208e-44
      389.481   2.24208e-44
      389.585   2.24208e-44
      389.689   2.24208e-44
      389.793   2.24208e-44
      389.897   1.96182e-44
      390.000   1.96182e-44
      390.104   1.96182e-44
      390.208   1.96182e-44
      390.312   1.96182e-44
      390.416   1.96182e-44
      390.520   1.96182e-44
      390.625   1.96182e-44
      390.729   1.96182e-44
      390.833   1.96182e-44
      390.937   1.96182e-44
      391.041   1.96182e-44
      391.145   1.96182e-44
      391.250   1.96182e-44
      391.354   1.96182e-44
      391.458   1.96182e-44
      391.563   1.54143e-44
      391.667   1.54143e-44
      391.771   1.54143e-44
      391.876   1.54143e-44
      391.980   1.54143e-44
      392.085   1.54143e-44
      392.189   1.54143e-44
      392.294   1.54143e-44
      392.398   1.54143e-44
      392.503   1.54143e-44
      392.607   1.54143e-44
      392.712   1.54143e-44
      392.817   1.54143e-44
      392.921   1.54143e-44
      393.026   1.54143e-44
      393.131   1.54143e-44
      393.236   1.54143e-44
      393.340   1.54143e-44
      393.445   1.54143e-44
      393.550   1.26117e-44
      393.655   1.26117e-44
      393.760   1.26117e-44
      393.865   1.26117e-44
      393.970   1.26117e-44
      394.075   1.26117e-44
      394.180   1.26117e-44
      394.285   1.26117e-44
      394.390   1.26117e-44
      394.495   1.26117e-44
      394.600   1.26117e-44
      394.706   1.26117e-44
      394.811   9.80909e-45
      394.916   9.80909e-45
      395.021   9.80909e-45
      395.126   9.80909e-45
      395.232   9.80909e-45
      395.337   9.80909e-45
      395.443   9.80909e-45
      395.548   9.80909e-45
      395.653   9.80909e-45
      395.759   9.80909e-45
      395.864   9.80909e-45
      395.970   9.80909e-45
      396.075   9.80909e-45
      396.181   9.80909e-45
      396.286   9.80909e-45
      396.392   9.80909e-45
      396.498   9.80909e-45
      396.603   9.80909e-45
      396.709   9.80909e-45
      396.815   9.80909e-45
      396.921   9.80909e-45
      397.026   9.80909e-45
      397.132   9.80909e-45
      397.238   9.80909e-45
      397.344   9.80909e-45
      397.450   9.80909e-45
      397.556   9.80909e-45
      397.662   9.80909e-45
      397.768   9.80909e-45
      397.874   7.00649e-45
      397.980   7.00649e-45
      398.086   7.00649e-45
      398.192   7.00649e-45
      398.298   7.00649e-45
      398.404   7.00649e-45
      398.510   7.00649e-45
      398.617   7.00649e-45
      398.723   7.00649e-45
      398.829   7.00649e-45
      398.935   7.00649e-45
      399.042   7.00649e-45
      399.148   7.00649e-45
      399.255   7.00649e-45
      399.361   7.00649e-45
      399.467   7.00649e-45
      399.574   7.00649e-45
      399.680   7.00649e-45
      399.787   7.00649e-45
      399.893       0.00000
      400.000       0.00000
