Filter: Al-poly/Al-thick
observation_date 22-Sept-2015 22:40:45
wavelength effective area 
      1.00000   2.52639e-10
      1.10000   6.98657e-10
      1.20000   1.74870e-09
      1.30000   3.99960e-09
      1.40000   8.61935e-09
      1.50000   1.73337e-08
      1.60000   3.28169e-08
      1.70000   5.90765e-08
      1.80000   1.01105e-07
      1.90000   1.65511e-07
      2.00000   2.59610e-07
      2.10000   3.91708e-07
      2.20000   5.70926e-07
      2.30000   8.02658e-07
      2.40000   1.09013e-06
      2.50000   1.42514e-06
      2.60000   1.83859e-06
      2.70000   2.28984e-06
      2.80000   2.76497e-06
      2.90000   3.26002e-06
      3.00000   3.73781e-06
      3.10000   4.17631e-06
      3.20000   4.55426e-06
      3.30000   4.84984e-06
      3.40000   5.04257e-06
      3.50000   5.12303e-06
      3.60000   5.10291e-06
      3.70000   4.96425e-06
      3.80000   4.73649e-06
      3.90000   4.43015e-06
      4.00000   4.05965e-06
      4.10000   3.64871e-06
      4.20000   3.21965e-06
      4.30000   2.79043e-06
      4.40000   2.37622e-06
      4.50000   1.98802e-06
      4.60000   1.63303e-06
      4.70000   1.32153e-06
      4.80000   1.05188e-06
      4.90000   8.14176e-07
      5.00000   6.36899e-07
      5.10000   4.83954e-07
      5.20000   3.63414e-07
      5.30000   2.66383e-07
      5.40000   1.92116e-07
      5.50000   1.36886e-07
      5.60000   9.30246e-08
      5.70000   6.55163e-08
      5.80000   4.09662e-08
      5.90000   3.30261e-08
      6.00000   2.31272e-08
      6.10000   1.51834e-08
      6.20000   9.61144e-09
      6.30000   5.73356e-09
      6.40000   3.21988e-09
      6.50000   1.70821e-09
      6.60000   8.50587e-10
      6.70000   4.07966e-10
      6.80000   1.89551e-10
      6.90000   1.13518e-10
      7.00000   5.63488e-11
      7.10000   2.66834e-11
      7.20000   1.22339e-11
      7.30000   5.52914e-12
      7.40000   2.54545e-12
      7.50000   1.12209e-12
      7.60000   4.72039e-13
      7.70000   2.04846e-13
      7.80000   8.39089e-14
      7.90000   3.35864e-14
      8.00000     0.0671431
      8.10000     0.0670288
      8.20000     0.0619523
      8.30000     0.0568668
      8.40000     0.0521517
      8.50000     0.0476845
      8.60000     0.0434962
      8.70000     0.0395395
      8.80000     0.0358531
      8.90000     0.0323918
      9.00000     0.0291814
      9.10000     0.0262135
      9.20000     0.0234600
      9.30000     0.0209586
      9.40000     0.0186606
      9.50000     0.0165541
      9.60000     0.0146654
      9.70000     0.0129486
      9.80000     0.0113866
      9.90000    0.00998656
      10.0000    0.00873252
      10.1000    0.00760599
      10.2000    0.00659839
      10.3000    0.00571151
      10.4000    0.00493368
      10.5000    0.00424723
      10.6000    0.00364382
      10.7000    0.00311539
      10.8000    0.00265677
      10.9000    0.00226254
      11.0000    0.00192052
      11.1000    0.00162489
      11.2000    0.00137027
      11.3000    0.00115183
      11.4000   0.000965082
      11.5000   0.000805988
      11.6000   0.000670956
      11.7000   0.000557907
      11.8000   0.000462572
      11.9000   0.000383150
      12.0000   0.000316533
      12.1000   0.000261951
      12.2000   0.000220283
      12.3000   0.000182289
      12.4000   0.000149039
      12.5000   0.000121370
      12.6000   9.84859e-05
      12.7000   7.96388e-05
      12.8000   6.41871e-05
      12.9000   5.15726e-05
      13.0000   4.13067e-05
      13.1000   3.29768e-05
      13.2000   2.62396e-05
      13.3000   2.08080e-05
      13.4000   1.64441e-05
      13.5000   1.29572e-05
      13.6000   1.02247e-05
      13.7000   8.04296e-06
      13.8000   6.30561e-06
      13.9000   4.92635e-06
      14.0000   3.83457e-06
      14.1000   2.97298e-06
      14.2000   2.29534e-06
      14.3000   1.76439e-06
      14.4000   1.35011e-06
      14.5000   1.03274e-06
      14.6000   7.92283e-07
      14.7000   6.04859e-07
      14.8000   4.59343e-07
      14.9000   3.46865e-07
      15.0000   2.60362e-07
      15.1000   1.94201e-07
      15.2000   1.46255e-07
      15.3000   1.09745e-07
      15.4000   8.17471e-08
      15.5000   6.04271e-08
      15.6000   4.43140e-08
      15.7000   3.26301e-08
      15.8000   2.41809e-08
      15.9000   1.77543e-08
      16.0000   1.29151e-08
      16.1000   9.30847e-09
      16.2000   6.81917e-09
      16.3000   4.98192e-09
      16.4000   3.59501e-09
      16.5000   2.56281e-09
      16.6000   1.83994e-09
      16.7000   1.33269e-09
      16.8000   9.49976e-10
      16.9000   6.66875e-10
      17.0000   4.73153e-10
      17.1000   3.38373e-10
      17.2000   2.37254e-10
      17.3000   1.63360e-10
      17.4000   1.16317e-10
      17.5000   8.22971e-11
      17.6000   5.72111e-11
      17.7000   3.99023e-11
      17.8000   2.87672e-11
      17.9000   2.02521e-11
      18.0000   1.39264e-11
      18.1000   9.96350e-12
      18.2000   6.94312e-12
      18.3000   4.68020e-12
      18.4000   3.22812e-12
      18.5000   2.19412e-12
      18.6000   1.42768e-12
      18.7000   9.45709e-13
      18.8000   6.25015e-13
      18.9000   3.94269e-13
      19.0000   2.58275e-13
      19.1000   1.68661e-13
      19.2000   1.04762e-13
      19.3000   6.89583e-14
      19.4000   4.45506e-14
      19.5000   2.73355e-14
      19.6000   1.82963e-14
      19.7000   1.16692e-14
      19.8000   7.16150e-15
      19.9000   4.82126e-15
      20.0000   3.00936e-15
      20.1000   1.90795e-15
      20.2000   1.23965e-15
      20.3000   7.47787e-16
      20.4000   4.90081e-16
      20.5000   3.04900e-16
      20.6000   1.83752e-16
      20.7000   1.20059e-16
      20.8000   7.11172e-17
      20.9000   4.53664e-17
      21.0000   2.77915e-17
      21.1000   1.62967e-17
      21.2000   1.05195e-17
      21.3000   6.03884e-18
      21.4000   3.83992e-18
      21.5000   2.27405e-18
      21.6000   1.34307e-18
      21.7000   8.32752e-19
      21.8000   4.55872e-19
      21.9000   2.96685e-19
      22.0000   1.66570e-19
      22.1000   1.02525e-19
      22.2000   5.93231e-20
      22.3000   3.40504e-20
      22.4000   2.03635e-20
      22.5000   1.04059e-20
      22.6000   6.26060e-21
      22.7000   2.94593e-21
      22.8000   2.50613e-21
      22.9000   2.05784e-21
      23.0000   1.58609e-21
      23.1000   1.13925e-21
      23.2000   7.16849e-22
      23.3000   4.46614e-22
      23.4000   2.51184e-22
      23.5000   1.54428e-22
      23.6000   8.19839e-23
      23.7000   5.21574e-23
      23.8000   2.64816e-23
      23.9000   1.71821e-23
      24.0000   8.73968e-24
      24.1000   5.55211e-24
      24.2000   2.82284e-24
      24.3000   1.76093e-24
      24.4000   8.96771e-25
      24.5000   5.51237e-25
      24.6000   2.81227e-25
      24.7000   1.70767e-25
      24.8000   8.70085e-26
      24.9000   5.25573e-26
      25.0000   2.67981e-26
      25.1000   1.61046e-26
      25.2000   8.13108e-27
      25.3000   4.89210e-27
      25.4000   2.44339e-27
      25.5000   1.47419e-27
      25.6000   7.21656e-28
      25.7000   4.38642e-28
      25.8000   2.09643e-28
      25.9000   1.28786e-28
      26.0000   5.97525e-29
      26.1000   3.72237e-29
      26.2000   1.66980e-29
      26.3000   1.05766e-29
      26.4000   4.56915e-30
      26.5000   2.94870e-30
      26.6000   1.34675e-30
      26.7000   8.05127e-31
      26.8000   3.92490e-31
      26.9000   2.15055e-31
      27.0000   1.11594e-31
      27.1000   5.60959e-32
      27.2000   3.08508e-32
      27.3000   1.42656e-32
      27.4000   8.30431e-33
      27.5000   3.56837e-33
      27.6000   2.17707e-33
      27.7000   8.61794e-34
      27.8000   5.49251e-34
      27.9000   2.40407e-34
      28.0000   1.33705e-34
      28.1000   6.67645e-35
      28.2000   3.16609e-35
      28.3000   1.76260e-35
      28.4000   7.47429e-36
      28.5000   4.50068e-36
      28.6000   1.72450e-36
      28.7000   1.11821e-36
      28.8000   5.19356e-37
      28.9000   2.83735e-37
      29.0000   1.52028e-37
      29.1000   6.92709e-38
      29.2000   4.10965e-38
      29.3000   1.62940e-38
      29.4000   1.04324e-38
      29.5000   4.64477e-39
      29.6000   2.50956e-39
      29.7000   1.33974e-39
      29.8000   5.75297e-40
      29.9000   3.45644e-40
      30.0000   1.26121e-40
      30.1000   8.23571e-41
      30.2000   3.91537e-41
      30.3000   1.85854e-41
      30.4000   1.08783e-41
      30.5000   4.51779e-42
      30.6000   2.86005e-42
      30.7000   1.22053e-42
      30.8000   6.23578e-43
      30.9000   3.39114e-43
      31.0000   1.27518e-43
      31.1000   7.98740e-44
      31.2000   3.22299e-44
      31.3000   1.54143e-44
      31.4000   9.80909e-45
      31.5000   2.80260e-45
      31.6000   2.80260e-45
      31.7000  -2.80260e-45
      31.8000       0.00000
      31.9000       0.00000
      32.0000       0.00000
      32.1000       0.00000
      32.2000       0.00000
      32.3000       0.00000
      32.4000       0.00000
      32.5000       0.00000
      32.6000       0.00000
      32.7000       0.00000
      32.8000       0.00000
      32.9000       0.00000
      33.0000       0.00000
      33.1000       0.00000
      33.2000       0.00000
      33.3000       0.00000
      33.4000       0.00000
      33.5000       0.00000
      33.6000       0.00000
      33.7000       0.00000
      33.8000       0.00000
      33.9000       0.00000
      34.0000       0.00000
      34.1000       0.00000
      34.2000       0.00000
      34.3000       0.00000
      34.4000       0.00000
      34.5000       0.00000
      34.6000       0.00000
      34.7000       0.00000
      34.8000       0.00000
      34.9000       0.00000
      35.0000       0.00000
      35.1000       0.00000
      35.2000       0.00000
      35.3000       0.00000
      35.4000       0.00000
      35.5000       0.00000
      35.6000       0.00000
      35.7000       0.00000
      35.8000       0.00000
      35.9000       0.00000
      36.0000       0.00000
      36.1000       0.00000
      36.2000       0.00000
      36.3000       0.00000
      36.4000       0.00000
      36.5000       0.00000
      36.6000       0.00000
      36.7000       0.00000
      36.8000       0.00000
      36.9000       0.00000
      37.0000       0.00000
      37.1000       0.00000
      37.2000       0.00000
      37.3000       0.00000
      37.4000       0.00000
      37.5000       0.00000
      37.6000       0.00000
      37.7000       0.00000
      37.8000       0.00000
      37.9000       0.00000
      38.0000       0.00000
      38.1000       0.00000
      38.2000       0.00000
      38.3000       0.00000
      38.4000       0.00000
      38.5000       0.00000
      38.6000       0.00000
      38.7000       0.00000
      38.8000       0.00000
      38.9000       0.00000
      39.0000       0.00000
      39.1000       0.00000
      39.2000       0.00000
      39.3000       0.00000
      39.4000       0.00000
      39.5000       0.00000
      39.6000       0.00000
      39.7000       0.00000
      39.8000       0.00000
      39.9000       0.00000
      40.0000       0.00000
      40.1000       0.00000
      40.2000       0.00000
      40.3000       0.00000
      40.4000       0.00000
      40.5000       0.00000
      40.6000       0.00000
      40.7000       0.00000
      40.8000       0.00000
      40.9000       0.00000
      41.0000       0.00000
      41.1000       0.00000
      41.2000       0.00000
      41.3000       0.00000
      41.4000       0.00000
      41.5000       0.00000
      41.6000       0.00000
      41.7000       0.00000
      41.8000       0.00000
      41.9000       0.00000
      42.0000       0.00000
      42.1000       0.00000
      42.2000       0.00000
      42.3000       0.00000
      42.4000       0.00000
      42.5000       0.00000
      42.6000       0.00000
      42.7000       0.00000
      42.8000       0.00000
      42.9000       0.00000
      43.0000       0.00000
      43.1000       0.00000
      43.2000       0.00000
      43.3000       0.00000
      43.4000       0.00000
      43.5000       0.00000
      43.6000       0.00000
      43.7000       0.00000
      43.8000       0.00000
      43.9000       0.00000
      44.0000       0.00000
      44.1000       0.00000
      44.2000       0.00000
      44.3000       0.00000
      44.4000       0.00000
      44.5000       0.00000
      44.6000       0.00000
      44.7000       0.00000
      44.8000       0.00000
      44.9000       0.00000
      45.0000       0.00000
      45.1000       0.00000
      45.2000       0.00000
      45.3000       0.00000
      45.4000       0.00000
      45.5000       0.00000
      45.6000       0.00000
      45.7000       0.00000
      45.8000       0.00000
      45.9000       0.00000
      46.0000       0.00000
      46.1000       0.00000
      46.2000       0.00000
      46.3000       0.00000
      46.4000       0.00000
      46.5000       0.00000
      46.6000       0.00000
      46.7000       0.00000
      46.8000       0.00000
      46.9000       0.00000
      47.0000       0.00000
      47.1000       0.00000
      47.2000       0.00000
      47.3000       0.00000
      47.4000       0.00000
      47.5000       0.00000
      47.6000       0.00000
      47.7000       0.00000
      47.8000       0.00000
      47.9000       0.00000
      48.0000       0.00000
      48.1000       0.00000
      48.2000       0.00000
      48.3000       0.00000
      48.4000       0.00000
      48.5000       0.00000
      48.6000       0.00000
      48.7000       0.00000
      48.8000       0.00000
      48.9000       0.00000
      49.0000       0.00000
      49.1000       0.00000
      49.2000       0.00000
      49.3000       0.00000
      49.4000       0.00000
      49.5000       0.00000
      49.6000       0.00000
      49.7000       0.00000
      49.8000       0.00000
      49.9000       0.00000
      50.0000       0.00000
      50.1000       0.00000
      50.2000       0.00000
      50.3000       0.00000
      50.4000       0.00000
      50.5000       0.00000
      50.6000       0.00000
      50.7000       0.00000
      50.8000       0.00000
      50.9000       0.00000
      51.0000       0.00000
      51.1000       0.00000
      51.2000       0.00000
      51.3000       0.00000
      51.4000       0.00000
      51.5000       0.00000
      51.6000       0.00000
      51.7000       0.00000
      51.8000       0.00000
      51.9000       0.00000
      52.0000       0.00000
      52.1000       0.00000
      52.2000       0.00000
      52.3000       0.00000
      52.4000       0.00000
      52.5000       0.00000
      52.6000       0.00000
      52.7000       0.00000
      52.8000       0.00000
      52.9000       0.00000
      53.0000       0.00000
      53.1000       0.00000
      53.2000       0.00000
      53.3000       0.00000
      53.4000       0.00000
      53.5000       0.00000
      53.6000       0.00000
      53.7000       0.00000
      53.8000       0.00000
      53.9000       0.00000
      54.0000       0.00000
      54.1000       0.00000
      54.2000       0.00000
      54.3000       0.00000
      54.4000       0.00000
      54.5000       0.00000
      54.6000       0.00000
      54.7000       0.00000
      54.8000       0.00000
      54.9000       0.00000
      55.0000       0.00000
      55.1000       0.00000
      55.2000       0.00000
      55.3000       0.00000
      55.4000       0.00000
      55.5000       0.00000
      55.6000       0.00000
      55.7000       0.00000
      55.8000       0.00000
      55.9000       0.00000
      56.0000       0.00000
      56.1000       0.00000
      56.2000       0.00000
      56.3000       0.00000
      56.4000       0.00000
      56.5000       0.00000
      56.6000       0.00000
      56.7000       0.00000
      56.8000       0.00000
      56.9000       0.00000
      57.0000       0.00000
      57.1000       0.00000
      57.2000       0.00000
      57.3000       0.00000
      57.4000       0.00000
      57.5000       0.00000
      57.6000       0.00000
      57.7000       0.00000
      57.8000       0.00000
      57.9000       0.00000
      58.0000       0.00000
      58.1000       0.00000
      58.2000       0.00000
      58.3000       0.00000
      58.4000       0.00000
      58.5000       0.00000
      58.6000       0.00000
      58.7000       0.00000
      58.8000       0.00000
      58.9000       0.00000
      59.0000       0.00000
      59.1000       0.00000
      59.2000       0.00000
      59.3000       0.00000
      59.4000       0.00000
      59.5000       0.00000
      59.6000       0.00000
      59.7000       0.00000
      59.8000       0.00000
      59.9000       0.00000
      60.0000       0.00000
      60.1000       0.00000
      60.2000       0.00000
      60.3000       0.00000
      60.4000       0.00000
      60.5000       0.00000
      60.6000       0.00000
      60.7000       0.00000
      60.8000       0.00000
      60.9000       0.00000
      61.0000       0.00000
      61.1000       0.00000
      61.2000       0.00000
      61.3000       0.00000
      61.4000       0.00000
      61.5000       0.00000
      61.6000       0.00000
      61.7000       0.00000
      61.8000       0.00000
      61.9000       0.00000
      62.0000       0.00000
      62.1000       0.00000
      62.2000       0.00000
      62.3000       0.00000
      62.4000       0.00000
      62.5000       0.00000
      62.6000       0.00000
      62.7000       0.00000
      62.8000       0.00000
      62.9000       0.00000
      63.0000       0.00000
      63.1000       0.00000
      63.2000       0.00000
      63.3000       0.00000
      63.4000       0.00000
      63.5000       0.00000
      63.6000       0.00000
      63.7000       0.00000
      63.8000       0.00000
      63.9000       0.00000
      64.0000       0.00000
      64.1000       0.00000
      64.2000       0.00000
      64.3000       0.00000
      64.4000       0.00000
      64.5000       0.00000
      64.6000       0.00000
      64.7000       0.00000
      64.8000       0.00000
      64.9000       0.00000
      65.0000       0.00000
      65.1000       0.00000
      65.2000       0.00000
      65.3000       0.00000
      65.4000       0.00000
      65.5000       0.00000
      65.6000       0.00000
      65.7000       0.00000
      65.8000       0.00000
      65.9000       0.00000
      66.0000       0.00000
      66.1000       0.00000
      66.2000       0.00000
      66.3000       0.00000
      66.4000       0.00000
      66.5000       0.00000
      66.6000       0.00000
      66.7000       0.00000
      66.8000       0.00000
      66.9000       0.00000
      67.0000       0.00000
      67.1000       0.00000
      67.2000       0.00000
      67.3000       0.00000
      67.4000       0.00000
      67.5000       0.00000
      67.6000       0.00000
      67.7000       0.00000
      67.8000       0.00000
      67.9000       0.00000
      68.0000       0.00000
      68.1000       0.00000
      68.2000       0.00000
      68.3000       0.00000
      68.4000       0.00000
      68.5000       0.00000
      68.6000       0.00000
      68.7000       0.00000
      68.8000       0.00000
      68.9000       0.00000
      69.0000       0.00000
      69.1000       0.00000
      69.2000       0.00000
      69.3000       0.00000
      69.4000       0.00000
      69.5000       0.00000
      69.6000       0.00000
      69.7000       0.00000
      69.8000       0.00000
      69.9000       0.00000
      70.0000       0.00000
      70.1000       0.00000
      70.2000       0.00000
      70.3000       0.00000
      70.4000       0.00000
      70.5000       0.00000
      70.6000       0.00000
      70.7000       0.00000
      70.8000       0.00000
      70.9000       0.00000
      71.0000       0.00000
      71.1000       0.00000
      71.2000       0.00000
      71.3000       0.00000
      71.4000       0.00000
      71.5000       0.00000
      71.6000       0.00000
      71.7000       0.00000
      71.8000       0.00000
      71.9000       0.00000
      72.0000       0.00000
      72.1000       0.00000
      72.2000       0.00000
      72.3000       0.00000
      72.4000       0.00000
      72.5000       0.00000
      72.6000       0.00000
      72.7000       0.00000
      72.8000       0.00000
      72.9000       0.00000
      73.0000       0.00000
      73.1000       0.00000
      73.2000       0.00000
      73.3000       0.00000
      73.4000       0.00000
      73.5000       0.00000
      73.6000       0.00000
      73.7000       0.00000
      73.8000       0.00000
      73.9000       0.00000
      74.0000       0.00000
      74.1000       0.00000
      74.2000       0.00000
      74.3000       0.00000
      74.4000       0.00000
      74.5000       0.00000
      74.6000       0.00000
      74.7000       0.00000
      74.8000       0.00000
      74.9000       0.00000
      75.0000       0.00000
      75.1000       0.00000
      75.2000       0.00000
      75.3000       0.00000
      75.4000       0.00000
      75.5000       0.00000
      75.6000       0.00000
      75.7000       0.00000
      75.8000       0.00000
      75.9000       0.00000
      76.0000       0.00000
      76.1000       0.00000
      76.2000       0.00000
      76.3000       0.00000
      76.4000       0.00000
      76.5000       0.00000
      76.6000       0.00000
      76.7000       0.00000
      76.8000       0.00000
      76.9000       0.00000
      77.0000       0.00000
      77.1000       0.00000
      77.2000       0.00000
      77.3000       0.00000
      77.4000       0.00000
      77.5000       0.00000
      77.6000       0.00000
      77.7000       0.00000
      77.8000       0.00000
      77.9000       0.00000
      78.0000       0.00000
      78.1000       0.00000
      78.2000       0.00000
      78.3000       0.00000
      78.4000       0.00000
      78.5000       0.00000
      78.6000       0.00000
      78.7000       0.00000
      78.8000       0.00000
      78.9000       0.00000
      79.0000       0.00000
      79.1000       0.00000
      79.2000       0.00000
      79.3000       0.00000
      79.4000       0.00000
      79.5000       0.00000
      79.6000       0.00000
      79.7000       0.00000
      79.8000       0.00000
      79.9000       0.00000
      80.0000       0.00000
      80.1000       0.00000
      80.2000       0.00000
      80.3000       0.00000
      80.4000       0.00000
      80.5000       0.00000
      80.6000       0.00000
      80.7000       0.00000
      80.8000       0.00000
      80.9000       0.00000
      81.0000       0.00000
      81.1000       0.00000
      81.2000       0.00000
      81.3000       0.00000
      81.4000       0.00000
      81.5000       0.00000
      81.6000       0.00000
      81.7000       0.00000
      81.8000       0.00000
      81.9000       0.00000
      82.0000       0.00000
      82.1000       0.00000
      82.2000       0.00000
      82.3000       0.00000
      82.4000       0.00000
      82.5000       0.00000
      82.6000       0.00000
      82.7000       0.00000
      82.8000       0.00000
      82.9000       0.00000
      83.0000       0.00000
      83.1000       0.00000
      83.2000       0.00000
      83.3000       0.00000
      83.4000       0.00000
      83.5000       0.00000
      83.6000       0.00000
      83.7000       0.00000
      83.8000       0.00000
      83.9000       0.00000
      84.0000       0.00000
      84.1000       0.00000
      84.2000       0.00000
      84.3000       0.00000
      84.4000       0.00000
      84.5000       0.00000
      84.6000       0.00000
      84.7000       0.00000
      84.8000       0.00000
      84.9000       0.00000
      85.0000       0.00000
      85.1000       0.00000
      85.2000       0.00000
      85.3000       0.00000
      85.4000       0.00000
      85.5000       0.00000
      85.6000       0.00000
      85.7000       0.00000
      85.8000       0.00000
      85.9000       0.00000
      86.0000       0.00000
      86.1000       0.00000
      86.2000       0.00000
      86.3000       0.00000
      86.4000       0.00000
      86.5000       0.00000
      86.6000       0.00000
      86.7000       0.00000
      86.8000       0.00000
      86.9000       0.00000
      87.0000       0.00000
      87.1000       0.00000
      87.2000       0.00000
      87.3000       0.00000
      87.4000       0.00000
      87.5000       0.00000
      87.6000       0.00000
      87.7000       0.00000
      87.8000       0.00000
      87.9000       0.00000
      88.0000       0.00000
      88.1000       0.00000
      88.2000       0.00000
      88.3000       0.00000
      88.4000       0.00000
      88.5000       0.00000
      88.6000       0.00000
      88.7000       0.00000
      88.8000       0.00000
      88.9000       0.00000
      89.0000       0.00000
      89.1000       0.00000
      89.2000       0.00000
      89.3000       0.00000
      89.4000       0.00000
      89.5000       0.00000
      89.6000       0.00000
      89.7000       0.00000
      89.8000       0.00000
      89.9000       0.00000
      90.0000       0.00000
      90.1000       0.00000
      90.2000       0.00000
      90.3000       0.00000
      90.4000       0.00000
      90.5000       0.00000
      90.6000       0.00000
      90.7000       0.00000
      90.8000       0.00000
      90.9000       0.00000
      91.0000       0.00000
      91.1000       0.00000
      91.2000       0.00000
      91.3000       0.00000
      91.4000       0.00000
      91.5000       0.00000
      91.6000       0.00000
      91.7000       0.00000
      91.8000       0.00000
      91.9000       0.00000
      92.0000       0.00000
      92.1000       0.00000
      92.2000       0.00000
      92.3000       0.00000
      92.4000       0.00000
      92.5000       0.00000
      92.6000       0.00000
      92.7000       0.00000
      92.8000       0.00000
      92.9000       0.00000
      93.0000       0.00000
      93.1000       0.00000
      93.2000       0.00000
      93.3000       0.00000
      93.4000       0.00000
      93.5000       0.00000
      93.6000       0.00000
      93.7000       0.00000
      93.8000       0.00000
      93.9000       0.00000
      94.0000       0.00000
      94.1000       0.00000
      94.2000       0.00000
      94.3000       0.00000
      94.4000       0.00000
      94.5000       0.00000
      94.6000       0.00000
      94.7000       0.00000
      94.8000       0.00000
      94.9000       0.00000
      95.0000       0.00000
      95.1000       0.00000
      95.2000       0.00000
      95.3000       0.00000
      95.4000       0.00000
      95.5000       0.00000
      95.6000       0.00000
      95.7000       0.00000
      95.8000       0.00000
      95.9000       0.00000
      96.0000       0.00000
      96.1000       0.00000
      96.2000       0.00000
      96.3000       0.00000
      96.4000       0.00000
      96.5000       0.00000
      96.6000       0.00000
      96.7000       0.00000
      96.8000       0.00000
      96.9000       0.00000
      97.0000       0.00000
      97.1000       0.00000
      97.2000       0.00000
      97.3000       0.00000
      97.4000       0.00000
      97.5000       0.00000
      97.6000       0.00000
      97.7000       0.00000
      97.8000       0.00000
      97.9000       0.00000
      98.0000       0.00000
      98.1000       0.00000
      98.2000       0.00000
      98.3000       0.00000
      98.4000       0.00000
      98.5000       0.00000
      98.6000       0.00000
      98.7000       0.00000
      98.8000       0.00000
      98.9000       0.00000
      99.0000       0.00000
      99.1000       0.00000
      99.2000       0.00000
      99.3000       0.00000
      99.4000       0.00000
      99.5000       0.00000
      99.6000       0.00000
      99.7000       0.00000
      99.8000       0.00000
      99.9000       0.00000
      100.000       0.00000
      100.100       0.00000
      100.200       0.00000
      100.300       0.00000
      100.400       0.00000
      100.500       0.00000
      100.600       0.00000
      100.700       0.00000
      100.800       0.00000
      100.900       0.00000
      101.000       0.00000
      101.100       0.00000
      101.200       0.00000
      101.300       0.00000
      101.400       0.00000
      101.500       0.00000
      101.600       0.00000
      101.700       0.00000
      101.800       0.00000
      101.900       0.00000
      102.000       0.00000
      102.100       0.00000
      102.200       0.00000
      102.300       0.00000
      102.400       0.00000
      102.500       0.00000
      102.600       0.00000
      102.700       0.00000
      102.800       0.00000
      102.900       0.00000
      103.000       0.00000
      103.100       0.00000
      103.200       0.00000
      103.300       0.00000
      103.400       0.00000
      103.500       0.00000
      103.600       0.00000
      103.700       0.00000
      103.800       0.00000
      103.900       0.00000
      104.000       0.00000
      104.100       0.00000
      104.200       0.00000
      104.300       0.00000
      104.400       0.00000
      104.500       0.00000
      104.600       0.00000
      104.700       0.00000
      104.800       0.00000
      104.900       0.00000
      105.000       0.00000
      105.100       0.00000
      105.200       0.00000
      105.300       0.00000
      105.400       0.00000
      105.500       0.00000
      105.600       0.00000
      105.700       0.00000
      105.800       0.00000
      105.900       0.00000
      106.000       0.00000
      106.100       0.00000
      106.200       0.00000
      106.300       0.00000
      106.400       0.00000
      106.500       0.00000
      106.600       0.00000
      106.700       0.00000
      106.800       0.00000
      106.900       0.00000
      107.000       0.00000
      107.100       0.00000
      107.200       0.00000
      107.300       0.00000
      107.400       0.00000
      107.500       0.00000
      107.600       0.00000
      107.700       0.00000
      107.800       0.00000
      107.900       0.00000
      108.000       0.00000
      108.100       0.00000
      108.200       0.00000
      108.300       0.00000
      108.400       0.00000
      108.500       0.00000
      108.600       0.00000
      108.700       0.00000
      108.800       0.00000
      108.900       0.00000
      109.000       0.00000
      109.100       0.00000
      109.200       0.00000
      109.300       0.00000
      109.400       0.00000
      109.500       0.00000
      109.600       0.00000
      109.700       0.00000
      109.800       0.00000
      109.900       0.00000
      110.000       0.00000
      110.100       0.00000
      110.200       0.00000
      110.300       0.00000
      110.400       0.00000
      110.500       0.00000
      110.600       0.00000
      110.700       0.00000
      110.800       0.00000
      110.900       0.00000
      111.000       0.00000
      111.100       0.00000
      111.200       0.00000
      111.300       0.00000
      111.400       0.00000
      111.500       0.00000
      111.600       0.00000
      111.700       0.00000
      111.800       0.00000
      111.900       0.00000
      112.000       0.00000
      112.100       0.00000
      112.200       0.00000
      112.300       0.00000
      112.400       0.00000
      112.500       0.00000
      112.600       0.00000
      112.700       0.00000
      112.800       0.00000
      112.900       0.00000
      113.000       0.00000
      113.100       0.00000
      113.200       0.00000
      113.300       0.00000
      113.400       0.00000
      113.500       0.00000
      113.600       0.00000
      113.700       0.00000
      113.800       0.00000
      113.900       0.00000
      114.000       0.00000
      114.100       0.00000
      114.200       0.00000
      114.300       0.00000
      114.400       0.00000
      114.500       0.00000
      114.600       0.00000
      114.700       0.00000
      114.800       0.00000
      114.900       0.00000
      115.000       0.00000
      115.100       0.00000
      115.200       0.00000
      115.300       0.00000
      115.400       0.00000
      115.500       0.00000
      115.600       0.00000
      115.700       0.00000
      115.800       0.00000
      115.900       0.00000
      116.000       0.00000
      116.100       0.00000
      116.200       0.00000
      116.300       0.00000
      116.400       0.00000
      116.500       0.00000
      116.600       0.00000
      116.700       0.00000
      116.800       0.00000
      116.900       0.00000
      117.000       0.00000
      117.100       0.00000
      117.200       0.00000
      117.300       0.00000
      117.400       0.00000
      117.500       0.00000
      117.600       0.00000
      117.700       0.00000
      117.800       0.00000
      117.900       0.00000
      118.000       0.00000
      118.100       0.00000
      118.200       0.00000
      118.300       0.00000
      118.400       0.00000
      118.500       0.00000
      118.600       0.00000
      118.700       0.00000
      118.800       0.00000
      118.900       0.00000
      119.000       0.00000
      119.100       0.00000
      119.200       0.00000
      119.300       0.00000
      119.400       0.00000
      119.500       0.00000
      119.600       0.00000
      119.700       0.00000
      119.800       0.00000
      119.900       0.00000
      120.000       0.00000
      120.100       0.00000
      120.200       0.00000
      120.300       0.00000
      120.400       0.00000
      120.500       0.00000
      120.600       0.00000
      120.700       0.00000
      120.800       0.00000
      120.900       0.00000
      121.000       0.00000
      121.100       0.00000
      121.200       0.00000
      121.300       0.00000
      121.400       0.00000
      121.500       0.00000
      121.600       0.00000
      121.700       0.00000
      121.800       0.00000
      121.900       0.00000
      122.000       0.00000
      122.100       0.00000
      122.200       0.00000
      122.300       0.00000
      122.400       0.00000
      122.500       0.00000
      122.600       0.00000
      122.700       0.00000
      122.800       0.00000
      122.900       0.00000
      123.000       0.00000
      123.100       0.00000
      123.200       0.00000
      123.300       0.00000
      123.400       0.00000
      123.500       0.00000
      123.600       0.00000
      123.700       0.00000
      123.800       0.00000
      123.900       0.00000
      124.000       0.00000
      124.100       0.00000
      124.200       0.00000
      124.300       0.00000
      124.400       0.00000
      124.500       0.00000
      124.600       0.00000
      124.700       0.00000
      124.800       0.00000
      124.900       0.00000
      125.000       0.00000
      125.100       0.00000
      125.200       0.00000
      125.300       0.00000
      125.400       0.00000
      125.500       0.00000
      125.600       0.00000
      125.700       0.00000
      125.800       0.00000
      125.900       0.00000
      126.000       0.00000
      126.100       0.00000
      126.200       0.00000
      126.300       0.00000
      126.400       0.00000
      126.500       0.00000
      126.600       0.00000
      126.700       0.00000
      126.800       0.00000
      126.900       0.00000
      127.000       0.00000
      127.100       0.00000
      127.200       0.00000
      127.300       0.00000
      127.400       0.00000
      127.500       0.00000
      127.600       0.00000
      127.700       0.00000
      127.800       0.00000
      127.900       0.00000
      128.000       0.00000
      128.100       0.00000
      128.200       0.00000
      128.300       0.00000
      128.400       0.00000
      128.500       0.00000
      128.600       0.00000
      128.700       0.00000
      128.800       0.00000
      128.900       0.00000
      129.000       0.00000
      129.100       0.00000
      129.200       0.00000
      129.300       0.00000
      129.400       0.00000
      129.500       0.00000
      129.600       0.00000
      129.700       0.00000
      129.800       0.00000
      129.900       0.00000
      130.000       0.00000
      130.100       0.00000
      130.200       0.00000
      130.300       0.00000
      130.400       0.00000
      130.500       0.00000
      130.600       0.00000
      130.700       0.00000
      130.800       0.00000
      130.900       0.00000
      131.000       0.00000
      131.100       0.00000
      131.200       0.00000
      131.300       0.00000
      131.400       0.00000
      131.500       0.00000
      131.600       0.00000
      131.700       0.00000
      131.800       0.00000
      131.900       0.00000
      132.000       0.00000
      132.100       0.00000
      132.200       0.00000
      132.300       0.00000
      132.400       0.00000
      132.500       0.00000
      132.600       0.00000
      132.700       0.00000
      132.800       0.00000
      132.900       0.00000
      133.000       0.00000
      133.100       0.00000
      133.200       0.00000
      133.300       0.00000
      133.400       0.00000
      133.500       0.00000
      133.600       0.00000
      133.700       0.00000
      133.800       0.00000
      133.900       0.00000
      134.000       0.00000
      134.100       0.00000
      134.200       0.00000
      134.300       0.00000
      134.400       0.00000
      134.500       0.00000
      134.600       0.00000
      134.700       0.00000
      134.800       0.00000
      134.900       0.00000
      135.000       0.00000
      135.100       0.00000
      135.200       0.00000
      135.300       0.00000
      135.400       0.00000
      135.500       0.00000
      135.600       0.00000
      135.700       0.00000
      135.800       0.00000
      135.900       0.00000
      136.000       0.00000
      136.100       0.00000
      136.200       0.00000
      136.300       0.00000
      136.400       0.00000
      136.500       0.00000
      136.600       0.00000
      136.700       0.00000
      136.800       0.00000
      136.900       0.00000
      137.000       0.00000
      137.100       0.00000
      137.200       0.00000
      137.300       0.00000
      137.400       0.00000
      137.500       0.00000
      137.600       0.00000
      137.700       0.00000
      137.800       0.00000
      137.900       0.00000
      138.000       0.00000
      138.100       0.00000
      138.200       0.00000
      138.300       0.00000
      138.400       0.00000
      138.500       0.00000
      138.600       0.00000
      138.700       0.00000
      138.800       0.00000
      138.900       0.00000
      139.000       0.00000
      139.100       0.00000
      139.200       0.00000
      139.300       0.00000
      139.400       0.00000
      139.500       0.00000
      139.600       0.00000
      139.700       0.00000
      139.800       0.00000
      139.900       0.00000
      140.000       0.00000
      140.100       0.00000
      140.200       0.00000
      140.300       0.00000
      140.400       0.00000
      140.500       0.00000
      140.600       0.00000
      140.700       0.00000
      140.800       0.00000
      140.900       0.00000
      141.000       0.00000
      141.100       0.00000
      141.200       0.00000
      141.300       0.00000
      141.400       0.00000
      141.500       0.00000
      141.600       0.00000
      141.700       0.00000
      141.800       0.00000
      141.900       0.00000
      142.000       0.00000
      142.100       0.00000
      142.200       0.00000
      142.300       0.00000
      142.400       0.00000
      142.500       0.00000
      142.600       0.00000
      142.700       0.00000
      142.800       0.00000
      142.900       0.00000
      143.000       0.00000
      143.100       0.00000
      143.200       0.00000
      143.300       0.00000
      143.400       0.00000
      143.500       0.00000
      143.600       0.00000
      143.700       0.00000
      143.800       0.00000
      143.900       0.00000
      144.000       0.00000
      144.100       0.00000
      144.200       0.00000
      144.300       0.00000
      144.400       0.00000
      144.500       0.00000
      144.600       0.00000
      144.700       0.00000
      144.800       0.00000
      144.900       0.00000
      145.000       0.00000
      145.100       0.00000
      145.200       0.00000
      145.300       0.00000
      145.400       0.00000
      145.500       0.00000
      145.600       0.00000
      145.700       0.00000
      145.800       0.00000
      145.900       0.00000
      146.000       0.00000
      146.100       0.00000
      146.200       0.00000
      146.300       0.00000
      146.400       0.00000
      146.500       0.00000
      146.600       0.00000
      146.700       0.00000
      146.800       0.00000
      146.900       0.00000
      147.000       0.00000
      147.100       0.00000
      147.200       0.00000
      147.300       0.00000
      147.400       0.00000
      147.500       0.00000
      147.600       0.00000
      147.700       0.00000
      147.800       0.00000
      147.900       0.00000
      148.000       0.00000
      148.100       0.00000
      148.200       0.00000
      148.300       0.00000
      148.400       0.00000
      148.500       0.00000
      148.600       0.00000
      148.700       0.00000
      148.800       0.00000
      148.900       0.00000
      149.000       0.00000
      149.100       0.00000
      149.200       0.00000
      149.300       0.00000
      149.400       0.00000
      149.500       0.00000
      149.600       0.00000
      149.700       0.00000
      149.800       0.00000
      149.900       0.00000
      150.000       0.00000
      150.100       0.00000
      150.200       0.00000
      150.300       0.00000
      150.400       0.00000
      150.500       0.00000
      150.600       0.00000
      150.700       0.00000
      150.800       0.00000
      150.900       0.00000
      151.000       0.00000
      151.100       0.00000
      151.200       0.00000
      151.300       0.00000
      151.400       0.00000
      151.500       0.00000
      151.600       0.00000
      151.700       0.00000
      151.800       0.00000
      151.900       0.00000
      152.000       0.00000
      152.100       0.00000
      152.200       0.00000
      152.300       0.00000
      152.400       0.00000
      152.500       0.00000
      152.600       0.00000
      152.700       0.00000
      152.800       0.00000
      152.900       0.00000
      153.000       0.00000
      153.100       0.00000
      153.200       0.00000
      153.300       0.00000
      153.400       0.00000
      153.500       0.00000
      153.600       0.00000
      153.700       0.00000
      153.800       0.00000
      153.900       0.00000
      154.000       0.00000
      154.100       0.00000
      154.200       0.00000
      154.300       0.00000
      154.400       0.00000
      154.500       0.00000
      154.600       0.00000
      154.700       0.00000
      154.800       0.00000
      154.900       0.00000
      155.000       0.00000
      155.100       0.00000
      155.200       0.00000
      155.300       0.00000
      155.400       0.00000
      155.500       0.00000
      155.600       0.00000
      155.700       0.00000
      155.800       0.00000
      155.900       0.00000
      156.000       0.00000
      156.100       0.00000
      156.200       0.00000
      156.300       0.00000
      156.400       0.00000
      156.500       0.00000
      156.600       0.00000
      156.700       0.00000
      156.800       0.00000
      156.900       0.00000
      157.000       0.00000
      157.100       0.00000
      157.200       0.00000
      157.300       0.00000
      157.400       0.00000
      157.500       0.00000
      157.600       0.00000
      157.700       0.00000
      157.800       0.00000
      157.900       0.00000
      158.000       0.00000
      158.100       0.00000
      158.200       0.00000
      158.300       0.00000
      158.400       0.00000
      158.500       0.00000
      158.600       0.00000
      158.700       0.00000
      158.800       0.00000
      158.900       0.00000
      159.000       0.00000
      159.100       0.00000
      159.200       0.00000
      159.300       0.00000
      159.400       0.00000
      159.500       0.00000
      159.600       0.00000
      159.700       0.00000
      159.800       0.00000
      159.900       0.00000
      160.000       0.00000
      160.100       0.00000
      160.200       0.00000
      160.300       0.00000
      160.400       0.00000
      160.500       0.00000
      160.600       0.00000
      160.700       0.00000
      160.800       0.00000
      160.900       0.00000
      161.000       0.00000
      161.100       0.00000
      161.200       0.00000
      161.300       0.00000
      161.400       0.00000
      161.500       0.00000
      161.600       0.00000
      161.700       0.00000
      161.800       0.00000
      161.900       0.00000
      162.000       0.00000
      162.100       0.00000
      162.200       0.00000
      162.300       0.00000
      162.400       0.00000
      162.500       0.00000
      162.600       0.00000
      162.700       0.00000
      162.800       0.00000
      162.900       0.00000
      163.000       0.00000
      163.100       0.00000
      163.200       0.00000
      163.300       0.00000
      163.400       0.00000
      163.500       0.00000
      163.600       0.00000
      163.700       0.00000
      163.800       0.00000
      163.900       0.00000
      164.000       0.00000
      164.100       0.00000
      164.200       0.00000
      164.300       0.00000
      164.400       0.00000
      164.500       0.00000
      164.600       0.00000
      164.700       0.00000
      164.800       0.00000
      164.900       0.00000
      165.000       0.00000
      165.100       0.00000
      165.200       0.00000
      165.300       0.00000
      165.400       0.00000
      165.500       0.00000
      165.600       0.00000
      165.700       0.00000
      165.800       0.00000
      165.900       0.00000
      166.000       0.00000
      166.100       0.00000
      166.200       0.00000
      166.300       0.00000
      166.400       0.00000
      166.500       0.00000
      166.600       0.00000
      166.700       0.00000
      166.800       0.00000
      166.900       0.00000
      167.000       0.00000
      167.100       0.00000
      167.200       0.00000
      167.300       0.00000
      167.400       0.00000
      167.500       0.00000
      167.600       0.00000
      167.700       0.00000
      167.800       0.00000
      167.900       0.00000
      168.000       0.00000
      168.100       0.00000
      168.200       0.00000
      168.300       0.00000
      168.400       0.00000
      168.500       0.00000
      168.600       0.00000
      168.700       0.00000
      168.800       0.00000
      168.900       0.00000
      169.000       0.00000
      169.100       0.00000
      169.200       0.00000
      169.300       0.00000
      169.400       0.00000
      169.500       0.00000
      169.600       0.00000
      169.700       0.00000
      169.800       0.00000
      169.900       0.00000
      170.000       0.00000
      170.100       0.00000
      170.200       0.00000
      170.300       0.00000
      170.400       0.00000
      170.500       0.00000
      170.600   5.85042e-42
      170.700   8.71361e-27
      170.800   1.22171e-22
      170.900   2.02250e-22
      171.000   2.05806e-22
      171.100   2.09395e-22
      171.200   2.13016e-22
      171.300   2.16671e-22
      171.400   2.20355e-22
      171.500   2.24066e-22
      171.600   2.27810e-22
      171.700   2.31589e-22
      171.800   2.35405e-22
      171.900   2.39256e-22
      172.000   2.43150e-22
      172.100   2.47098e-22
      172.200   2.51093e-22
      172.300   2.55138e-22
      172.400   2.59215e-22
      172.500   2.63343e-22
      172.600   2.67538e-22
      172.700   2.71794e-22
      172.800   2.76110e-22
      172.900   2.80501e-22
      173.000   2.84952e-22
      173.100   2.89471e-22
      173.200   2.94060e-22
      173.300   2.98723e-22
      173.400   3.03464e-22
      173.500   3.08274e-22
      173.600   3.13162e-22
      173.700   3.18124e-22
      173.800   3.23171e-22
      173.900   3.28286e-22
      174.000   3.33481e-22
      174.100   3.38767e-22
      174.200   3.44124e-22
      174.300   3.49553e-22
      174.400   3.55073e-22
      174.500   3.60666e-22
      174.600   3.66348e-22
      174.700   3.72110e-22
      174.800   3.77948e-22
      174.900   3.83869e-22
      175.000   3.89879e-22
      175.100   3.95957e-22
      175.200   4.02139e-22
      175.300   4.08392e-22
      175.400   4.14741e-22
      175.500   4.21172e-22
      175.600   4.27680e-22
      175.700   4.34281e-22
      175.800   4.40979e-22
      175.900   4.47758e-22
      176.000   4.54620e-22
      176.100   4.61578e-22
      176.200   4.68627e-22
      176.300   4.75775e-22
      176.400   4.83010e-22
      176.500   4.90335e-22
      176.600   4.97766e-22
      176.700   5.05284e-22
      176.800   5.12892e-22
      176.900   5.20593e-22
      177.000   5.28400e-22
      177.100   5.36302e-22
      177.200   5.44289e-22
      177.300   5.52368e-22
      177.400   5.60553e-22
      177.500   5.68828e-22
      177.600   5.77192e-22
      177.700   5.85648e-22
      177.800   5.94193e-22
      177.900   6.02840e-22
      178.000   6.11618e-22
      178.100   6.20475e-22
      178.200   6.29433e-22
      178.300   6.38498e-22
      178.400   6.47648e-22
      178.500   6.56894e-22
      178.600   6.66243e-22
      178.700   6.75707e-22
      178.800   6.85257e-22
      178.900   6.94901e-22
      179.000   7.04645e-22
      179.100   7.14501e-22
      179.200   7.24476e-22
      179.300   7.34545e-22
      179.400   7.44724e-22
      179.500   7.55021e-22
      179.600   7.65462e-22
      179.700   7.75995e-22
      179.800   7.86646e-22
      179.900   7.97421e-22
      180.000   8.08344e-22
      180.100   8.19368e-22
      180.200   8.30531e-22
      180.300   8.41818e-22
      180.400   8.53260e-22
      180.500   8.64835e-22
      180.600   8.76532e-22
      180.700   8.88367e-22
      180.800   9.00516e-22
      180.900   9.13105e-22
      181.000   9.25981e-22
      181.100   9.38998e-22
      181.200   9.52198e-22
      181.300   9.65582e-22
      181.400   9.79110e-22
      181.500   9.92800e-22
      181.600   1.00668e-21
      181.700   1.02074e-21
      181.800   1.03495e-21
      181.900   1.04935e-21
      182.000   1.06394e-21
      182.100   1.07868e-21
      182.200   1.09367e-21
      182.300   1.10880e-21
      182.400   1.12412e-21
      182.500   1.13964e-21
      182.600   1.15537e-21
      182.700   1.17127e-21
      182.800   1.18735e-21
      182.900   1.20365e-21
      183.000   1.22015e-21
      183.100   1.23685e-21
      183.200   1.25374e-21
      183.300   1.27085e-21
      183.400   1.28817e-21
      183.500   1.30569e-21
      183.600   1.32342e-21
      183.700   1.34219e-21
      183.800   1.36473e-21
      183.900   1.38977e-21
      184.000   1.41519e-21
      184.100   1.44109e-21
      184.200   1.46741e-21
      184.300   1.49421e-21
      184.400   1.52143e-21
      184.500   1.54909e-21
      184.600   1.57719e-21
      184.700   1.60578e-21
      184.800   1.63483e-21
      184.900   1.66433e-21
      185.000   1.69430e-21
      185.100   1.72477e-21
      185.200   1.75573e-21
      185.300   1.78715e-21
      185.400   1.81906e-21
      185.500   1.85145e-21
      185.600   1.88436e-21
      185.700   1.91782e-21
      185.800   1.95180e-21
      185.900   1.98627e-21
      186.000   2.02135e-21
      186.100   2.05689e-21
      186.200   2.09295e-21
      186.300   2.12953e-21
      186.400   2.16669e-21
      186.500   2.20440e-21
      186.600   2.24262e-21
      186.700   2.28134e-21
      186.800   2.32062e-21
      186.900   2.36049e-21
      187.000   2.40092e-21
      187.100   2.44185e-21
      187.200   2.48340e-21
      187.300   2.52560e-21
      187.400   2.56837e-21
      187.500   2.61170e-21
      187.600   2.65561e-21
      187.700   2.70011e-21
      187.800   2.74528e-21
      187.900   2.79104e-21
      188.000   2.83736e-21
      188.100   2.88428e-21
      188.200   2.93186e-21
      188.300   2.98009e-21
      188.400   3.02897e-21
      188.500   3.07847e-21
      188.600   3.12865e-21
      188.700   3.17961e-21
      188.800   3.23118e-21
      188.900   3.28340e-21
      189.000   3.33631e-21
      189.100   3.38999e-21
      189.200   3.44436e-21
      189.300   3.49939e-21
      189.400   3.55514e-21
      189.500   3.61165e-21
      189.600   3.66898e-21
      189.700   3.72698e-21
      189.800   3.78610e-21
      189.900   3.84612e-21
      190.000   3.90707e-21
      190.100   3.96875e-21
      190.200   4.03128e-21
      190.300   4.09463e-21
      190.400   4.15889e-21
      190.500   4.22402e-21
      190.600   4.28999e-21
      190.700   4.35685e-21
      190.800   4.42460e-21
      190.900   4.49328e-21
      191.000   4.56309e-21
      191.100   4.63381e-21
      191.200   4.70551e-21
      191.300   4.77816e-21
      191.400   4.85185e-21
      191.500   4.92656e-21
      191.600   5.00222e-21
      191.700   5.07890e-21
      191.800   5.15670e-21
      191.900   5.23547e-21
      192.000   5.31524e-21
      192.100   5.39619e-21
      192.200   5.47837e-21
      192.300   5.56159e-21
      192.400   5.64605e-21
      192.500   5.73158e-21
      192.600   5.81817e-21
      192.700   5.90589e-21
      192.800   5.98978e-21
      192.900   6.06198e-21
      193.000   6.13360e-21
      193.100   6.20603e-21
      193.200   6.27940e-21
      193.300   6.35340e-21
      193.400   6.42808e-21
      193.500   6.50353e-21
      193.600   6.57979e-21
      193.700   6.65683e-21
      193.800   6.73457e-21
      193.900   6.81298e-21
      194.000   6.89227e-21
      194.100   6.97261e-21
      194.200   7.05361e-21
      194.300   7.13543e-21
      194.400   7.21807e-21
      194.500   7.30163e-21
      194.600   7.38601e-21
      194.700   7.47109e-21
      194.800   7.55701e-21
      194.900   7.64383e-21
      195.000   7.73152e-21
      195.100   7.82041e-21
      195.200   7.90995e-21
      195.300   8.00033e-21
      195.400   8.09162e-21
      195.500   8.18384e-21
      195.600   8.27692e-21
      195.700   8.37076e-21
      195.800   8.46430e-21
      195.900   8.54994e-21
      196.000   8.33539e-21
      196.100   8.12240e-21
      196.200   7.91478e-21
      196.300   7.71237e-21
      196.400   7.51506e-21
      196.500   7.32262e-21
      196.600   7.13505e-21
      196.700   6.95215e-21
      196.800   6.77400e-21
      196.900   6.60057e-21
      197.000   6.43145e-21
      197.100   6.26652e-21
      197.200   6.10570e-21
      197.300   5.94885e-21
      197.400   5.79583e-21
      197.500   5.64660e-21
      197.600   5.50111e-21
      197.700   5.35957e-21
      197.800   5.22163e-21
      197.900   5.08704e-21
      198.000   4.95578e-21
      198.100   4.82778e-21
      198.200   4.70293e-21
      198.300   4.58118e-21
      198.400   4.46248e-21
      198.500   4.34697e-21
      198.600   4.23442e-21
      198.700   4.12466e-21
      198.800   4.01765e-21
      198.900   3.91334e-21
      199.000   3.81158e-21
      199.100   3.71237e-21
      199.200   3.61570e-21
      199.300   3.52167e-21
      199.400   3.43008e-21
      199.500   3.34080e-21
      199.600   3.25374e-21
      199.700   3.16887e-21
      199.800   3.08617e-21
      199.900   3.00554e-21
      200.000   2.92694e-21
      200.100   2.85065e-21
      200.200   2.77620e-21
      200.300   2.70369e-21
      200.400   2.63301e-21
      200.500   2.56414e-21
      200.600   2.49706e-21
      200.700   2.43169e-21
      200.800   2.36795e-21
      200.900   2.30591e-21
      201.000   2.24549e-21
      201.100   2.18667e-21
      201.200   2.12936e-21
      201.300   2.07352e-21
      201.400   2.01915e-21
      201.500   1.96615e-21
      201.600   1.91451e-21
      201.700   1.86422e-21
      201.800   1.81523e-21
      201.900   1.76752e-21
      202.000   1.72112e-21
      202.100   1.67590e-21
      202.200   1.63186e-21
      202.300   1.58931e-21
      202.400   1.54862e-21
      202.500   1.50916e-21
      202.600   1.47065e-21
      202.700   1.43316e-21
      202.800   1.39662e-21
      202.900   1.36103e-21
      203.000   1.32636e-21
      203.100   1.29258e-21
      203.200   1.25964e-21
      203.300   1.22754e-21
      203.400   1.19626e-21
      203.500   1.16577e-21
      203.600   1.13607e-21
      203.700   1.10713e-21
      203.800   1.07895e-21
      203.900   1.05152e-21
      204.000   1.02479e-21
      204.100   9.98739e-22
      204.200   9.73370e-22
      204.300   9.48647e-22
      204.400   9.24560e-22
      204.500   9.01093e-22
      204.600   8.78223e-22
      204.700   8.55943e-22
      204.800   8.34263e-22
      204.900   8.13150e-22
      205.000   7.92579e-22
      205.100   7.72538e-22
      205.200   7.53006e-22
      205.300   7.33982e-22
      205.400   7.15443e-22
      205.500   6.97378e-22
      205.600   6.78665e-22
      205.700   6.59465e-22
      205.800   6.40664e-22
      205.900   6.22418e-22
      206.000   6.04713e-22
      206.100   5.87507e-22
      206.200   5.70789e-22
      206.300   5.54553e-22
      206.400   5.38782e-22
      206.500   5.23449e-22
      206.600   5.08558e-22
      206.700   4.94092e-22
      206.800   4.80028e-22
      206.900   4.66364e-22
      207.000   4.53091e-22
      207.100   4.40206e-22
      207.200   4.27693e-22
      207.300   4.15529e-22
      207.400   4.03708e-22
      207.500   3.92219e-22
      207.600   3.81055e-22
      207.700   3.70204e-22
      207.800   3.59658e-22
      207.900   3.49407e-22
      208.000   3.39447e-22
      208.100   3.29769e-22
      208.200   3.20360e-22
      208.300   3.11220e-22
      208.400   3.02347e-22
      208.500   2.93725e-22
      208.600   2.85342e-22
      208.700   2.77195e-22
      208.800   2.69280e-22
      208.900   2.60832e-22
      209.000   2.51314e-22
      209.100   2.41821e-22
      209.200   2.32682e-22
      209.300   2.23881e-22
      209.400   2.15412e-22
      209.500   2.07257e-22
      209.600   1.99407e-22
      209.700   1.91855e-22
      209.800   1.84598e-22
      209.900   1.77606e-22
      210.000   1.70879e-22
      210.100   1.64403e-22
      210.200   1.58168e-22
      210.300   1.52167e-22
      210.400   1.46390e-22
      210.500   1.40830e-22
      210.600   1.35478e-22
      210.700   1.30327e-22
      210.800   1.25368e-22
      210.900   1.20596e-22
      211.000   1.16002e-22
      211.100   1.11582e-22
      211.200   1.07327e-22
      211.300   1.03238e-22
      211.400   9.93055e-23
      211.500   9.55184e-23
      211.600   9.18746e-23
      211.700   8.83680e-23
      211.800   8.49909e-23
      211.900   8.17411e-23
      212.000   7.86156e-23
      212.100   7.56066e-23
      212.200   7.27104e-23
      212.300   6.99240e-23
      212.400   6.72421e-23
      212.500   6.46619e-23
      212.600   6.21792e-23
      212.700   5.97902e-23
      212.800   5.74912e-23
      212.900   5.52799e-23
      213.000   5.31525e-23
      213.100   5.11081e-23
      213.200   4.91414e-23
      213.300   4.72487e-23
      213.400   4.54280e-23
      213.500   4.36763e-23
      213.600   4.19910e-23
      213.700   4.03703e-23
      213.800   3.88107e-23
      213.900   3.73113e-23
      214.000   3.58685e-23
      214.100   3.44809e-23
      214.200   3.31468e-23
      214.300   3.18632e-23
      214.400   3.06287e-23
      214.500   2.94417e-23
      214.600   2.83005e-23
      214.700   2.72028e-23
      214.800   2.61474e-23
      214.900   2.51329e-23
      215.000   2.41569e-23
      215.100   2.32190e-23
      215.200   2.23179e-23
      215.300   2.14520e-23
      215.400   2.06192e-23
      215.500   1.98186e-23
      215.600   1.90495e-23
      215.700   1.83095e-23
      215.800   1.75981e-23
      215.900   1.69146e-23
      216.000   1.62573e-23
      216.100   1.56254e-23
      216.200   1.50181e-23
      216.300   1.44344e-23
      216.400   1.38734e-23
      216.500   1.33339e-23
      216.600   1.28155e-23
      216.700   1.23173e-23
      216.800   1.18383e-23
      216.900   1.13780e-23
      217.000   1.09355e-23
      217.100   1.05101e-23
      217.200   1.01014e-23
      217.300   9.70850e-24
      217.400   9.33077e-24
      217.500   8.96792e-24
      217.600   8.61906e-24
      217.700   8.28360e-24
      217.800   7.96133e-24
      217.900   7.65168e-24
      218.000   7.35422e-24
      218.100   7.06825e-24
      218.200   6.79345e-24
      218.300   6.52934e-24
      218.400   6.27553e-24
      218.500   6.03143e-24
      218.600   5.79689e-24
      218.700   5.57141e-24
      218.800   5.35469e-24
      218.900   5.14646e-24
      219.000   4.94624e-24
      219.100   4.75375e-24
      219.200   4.56878e-24
      219.300   4.39096e-24
      219.400   4.22001e-24
      219.500   4.05571e-24
      219.600   3.89779e-24
      219.700   3.74601e-24
      219.800   3.60015e-24
      219.900   3.45992e-24
      220.000   3.32511e-24
      220.100   3.19555e-24
      220.200   3.07100e-24
      220.300   2.95131e-24
      220.400   2.83626e-24
      220.500   2.72570e-24
      220.600   2.61944e-24
      220.700   2.51727e-24
      220.800   2.41904e-24
      220.900   2.32469e-24
      221.000   2.23397e-24
      221.100   2.14676e-24
      221.200   2.06297e-24
      221.300   1.98243e-24
      221.400   1.90501e-24
      221.500   1.83061e-24
      221.600   1.75910e-24
      221.700   1.69035e-24
      221.800   1.62426e-24
      221.900   1.56075e-24
      222.000   1.49974e-24
      222.100   1.44106e-24
      222.200   1.38469e-24
      222.300   1.33049e-24
      222.400   1.27841e-24
      222.500   1.22834e-24
      222.600   1.18024e-24
      222.700   1.13400e-24
      222.800   1.08955e-24
      222.900   1.04684e-24
      223.000   1.00578e-24
      223.100   9.66322e-25
      223.200   9.28405e-25
      223.300   8.91959e-25
      223.400   8.56940e-25
      223.500   8.23267e-25
      223.600   7.90924e-25
      223.700   7.59831e-25
      223.800   7.29945e-25
      223.900   7.01248e-25
      224.000   6.73649e-25
      224.100   6.47129e-25
      224.200   6.21641e-25
      224.300   5.97153e-25
      224.400   5.73615e-25
      224.500   5.51000e-25
      224.600   5.29259e-25
      224.700   5.08382e-25
      224.800   4.88314e-25
      224.900   4.69028e-25
      225.000   4.50498e-25
      225.100   4.32689e-25
      225.200   4.15575e-25
      225.300   3.99143e-25
      225.400   3.83344e-25
      225.500   3.68162e-25
      225.600   3.53576e-25
      225.700   3.39567e-25
      225.800   3.26100e-25
      225.900   3.13165e-25
      226.000   3.00739e-25
      226.100   2.88799e-25
      226.200   2.77325e-25
      226.300   2.66326e-25
      226.400   2.55771e-25
      226.500   2.45623e-25
      226.600   2.35869e-25
      226.700   2.26498e-25
      226.800   2.17490e-25
      226.900   2.08835e-25
      227.000   2.00522e-25
      227.100   1.92534e-25
      227.200   1.84862e-25
      227.300   1.77492e-25
      227.400   1.70413e-25
      227.500   1.63613e-25
      227.600   1.57081e-25
      227.700   1.50807e-25
      227.800   1.44782e-25
      227.900   1.38995e-25
      228.000   1.33437e-25
      228.100   1.28099e-25
      228.200   1.22971e-25
      228.300   1.18047e-25
      228.400   1.13320e-25
      228.500   1.08778e-25
      228.600   1.04418e-25
      228.700   1.00230e-25
      228.800   9.62084e-26
      228.900   9.23487e-26
      229.000   8.86412e-26
      229.100   8.50817e-26
      229.200   8.16637e-26
      229.300   7.83822e-26
      229.400   7.52316e-26
      229.500   7.22070e-26
      229.600   6.93023e-26
      229.700   6.65143e-26
      229.800   6.38373e-26
      229.900   6.12676e-26
      230.000   5.87774e-26
      230.100   5.62214e-26
      230.200   5.37704e-26
      230.300   5.14269e-26
      230.400   4.91844e-26
      230.500   4.70394e-26
      230.600   4.49890e-26
      230.700   4.30268e-26
      230.800   4.11502e-26
      230.900   3.93551e-26
      231.000   3.76375e-26
      231.100   3.59945e-26
      231.200   3.44228e-26
      231.300   3.29197e-26
      231.400   3.14824e-26
      231.500   3.01066e-26
      231.600   2.87904e-26
      231.700   2.75320e-26
      231.800   2.63283e-26
      231.900   2.51769e-26
      232.000   2.40754e-26
      232.100   2.30218e-26
      232.200   2.20143e-26
      232.300   2.10507e-26
      232.400   2.01289e-26
      232.500   1.92470e-26
      232.600   1.84038e-26
      232.700   1.75973e-26
      232.800   1.68260e-26
      232.900   1.60882e-26
      233.000   1.53826e-26
      233.100   1.47079e-26
      233.200   1.40625e-26
      233.300   1.34454e-26
      233.400   1.28552e-26
      233.500   1.22913e-26
      233.600   1.17523e-26
      233.700   1.12365e-26
      233.800   1.06849e-26
      233.900   1.01523e-26
      234.000   9.64599e-27
      234.100   9.16483e-27
      234.200   8.70758e-27
      234.300   8.27293e-27
      234.400   7.85979e-27
      234.500   7.46715e-27
      234.600   7.09390e-27
      234.700   6.73925e-27
      234.800   6.40227e-27
      234.900   6.08191e-27
      235.000   5.77741e-27
      235.100   5.48808e-27
      235.200   5.21315e-27
      235.300   4.95187e-27
      235.400   4.70358e-27
      235.500   4.46763e-27
      235.600   4.24351e-27
      235.700   4.03056e-27
      235.800   3.82860e-27
      235.900   3.63668e-27
      236.000   3.45433e-27
      236.100   3.28102e-27
      236.200   3.11634e-27
      236.300   2.95984e-27
      236.400   2.81119e-27
      236.500   2.66992e-27
      236.600   2.53568e-27
      236.700   2.40815e-27
      236.800   2.28696e-27
      236.900   2.17182e-27
      237.000   2.06243e-27
      237.100   1.95849e-27
      237.200   1.85976e-27
      237.300   1.76596e-27
      237.400   1.67684e-27
      237.500   1.59217e-27
      237.600   1.51178e-27
      237.700   1.43556e-27
      237.800   1.36316e-27
      237.900   1.29436e-27
      238.000   1.22902e-27
      238.100   1.16692e-27
      238.200   1.10794e-27
      238.300   1.05191e-27
      238.400   9.98675e-28
      238.500   9.48100e-28
      238.600   9.00067e-28
      238.700   8.54452e-28
      238.800   8.11113e-28
      238.900   7.69948e-28
      239.000   7.30842e-28
      239.100   6.93705e-28
      239.200   6.58440e-28
      239.300   6.24995e-28
      239.400   5.93278e-28
      239.500   5.63149e-28
      239.600   5.34524e-28
      239.700   5.07353e-28
      239.800   4.81537e-28
      239.900   4.57017e-28
      240.000   4.33732e-28
      240.100   4.11611e-28
      240.200   3.90605e-28
      240.300   3.70659e-28
      240.400   3.51710e-28
      240.500   3.33728e-28
      240.600   3.16652e-28
      240.700   3.00435e-28
      240.800   2.85062e-28
      240.900   2.70488e-28
      241.000   2.56652e-28
      241.100   2.43511e-28
      241.200   2.31036e-28
      241.300   2.19189e-28
      241.400   2.07943e-28
      241.500   1.97265e-28
      241.600   1.87128e-28
      241.700   1.77504e-28
      241.800   1.68366e-28
      241.900   1.59691e-28
      242.000   1.51458e-28
      242.100   1.43645e-28
      242.200   1.36244e-28
      242.300   1.29231e-28
      242.400   1.22572e-28
      242.500   1.16251e-28
      242.600   1.10251e-28
      242.700   1.04556e-28
      242.800   9.91522e-29
      242.900   9.40231e-29
      243.000   8.91555e-29
      243.100   8.45362e-29
      243.200   8.01511e-29
      243.300   7.59911e-29
      243.400   7.20453e-29
      243.500   6.83080e-29
      243.600   6.47699e-29
      243.700   6.14107e-29
      243.800   5.82234e-29
      243.900   5.52002e-29
      244.000   5.23308e-29
      244.100   4.96085e-29
      244.200   4.70261e-29
      244.300   4.45753e-29
      244.400   4.22509e-29
      244.500   4.00459e-29
      244.600   3.79540e-29
      244.700   3.59731e-29
      244.800   3.40993e-29
      244.900   3.23219e-29
      245.000   3.06351e-29
      245.100   2.90351e-29
      245.200   2.75181e-29
      245.300   2.60792e-29
      245.400   2.47139e-29
      245.500   2.34196e-29
      245.600   2.21918e-29
      245.700   2.10271e-29
      245.800   1.99226e-29
      245.900   1.88790e-29
      246.000   1.78908e-29
      246.100   1.69531e-29
      246.200   1.60640e-29
      246.300   1.52207e-29
      246.400   1.44212e-29
      246.500   1.36629e-29
      246.600   1.29439e-29
      246.700   1.22622e-29
      246.800   1.16156e-29
      246.900   1.10027e-29
      247.000   1.04236e-29
      247.100   9.87526e-30
      247.200   9.35543e-30
      247.300   8.86258e-30
      247.400   8.39523e-30
      247.500   7.95211e-30
      247.600   7.53201e-30
      247.700   7.13376e-30
      247.800   6.75621e-30
      247.900   6.39830e-30
      248.000   6.05909e-30
      248.100   5.73941e-30
      248.200   5.43623e-30
      248.300   5.14876e-30
      248.400   4.87627e-30
      248.500   4.61790e-30
      248.600   4.37303e-30
      248.700   4.14097e-30
      248.800   3.92100e-30
      248.900   3.71253e-30
      249.000   3.51499e-30
      249.100   3.32861e-30
      249.200   3.15218e-30
      249.300   2.98488e-30
      249.400   2.82632e-30
      249.500   2.67608e-30
      249.600   2.53366e-30
      249.700   2.39870e-30
      249.800   2.27081e-30
      249.900   2.14963e-30
      250.000   2.03482e-30
      250.100   1.92641e-30
      250.200   1.82384e-30
      250.300   1.72675e-30
      250.400   1.63473e-30
      250.500   1.54757e-30
      250.600   1.46501e-30
      250.700   1.38679e-30
      250.800   1.31270e-30
      250.900   1.24253e-30
      251.000   1.17606e-30
      251.100   1.11310e-30
      251.200   1.05358e-30
      251.300   9.97329e-31
      251.400   9.44055e-31
      251.500   8.93572e-31
      251.600   8.45764e-31
      251.700   8.00514e-31
      251.800   7.57645e-31
      251.900   7.17044e-31
      252.000   6.78590e-31
      252.100   6.42194e-31
      252.200   6.07717e-31
      252.300   5.75125e-31
      252.400   5.44310e-31
      252.500   5.15149e-31
      252.600   4.87525e-31
      252.700   4.61371e-31
      252.800   4.36609e-31
      252.900   4.13162e-31
      253.000   3.90960e-31
      253.100   3.69942e-31
      253.200   3.50042e-31
      253.300   3.31360e-31
      253.400   3.13736e-31
      253.500   2.97066e-31
      253.600   2.81303e-31
      253.700   2.66365e-31
      253.800   2.52216e-31
      253.900   2.38814e-31
      254.000   2.26114e-31
      254.100   2.14081e-31
      254.200   2.02683e-31
      254.300   1.91888e-31
      254.400   1.81659e-31
      254.500   1.71971e-31
      254.600   1.62795e-31
      254.700   1.54105e-31
      254.800   1.45897e-31
      254.900   1.38122e-31
      255.000   1.30760e-31
      255.100   1.23782e-31
      255.200   1.17174e-31
      255.300   1.10917e-31
      255.400   1.04990e-31
      255.500   9.93764e-32
      255.600   9.40609e-32
      255.700   8.90264e-32
      255.800   8.42583e-32
      255.900   7.97421e-32
      256.000   7.54658e-32
      256.100   7.14218e-32
      256.200   6.75980e-32
      256.300   6.39769e-32
      256.400   6.05499e-32
      256.500   5.73019e-32
      256.600   5.42278e-32
      256.700   5.13172e-32
      256.800   4.85607e-32
      256.900   4.59505e-32
      257.000   4.34796e-32
      257.100   4.11401e-32
      257.200   3.89259e-32
      257.300   3.68290e-32
      257.400   3.50916e-32
      257.500   3.35241e-32
      257.600   3.20327e-32
      257.700   3.06079e-32
      257.800   2.92456e-32
      257.900   2.79439e-32
      258.000   2.66994e-32
      258.100   2.55097e-32
      258.200   2.43729e-32
      258.300   2.32866e-32
      258.400   2.22476e-32
      258.500   2.12546e-32
      258.600   2.03059e-32
      258.700   1.93991e-32
      258.800   1.85322e-32
      258.900   1.77043e-32
      259.000   1.69124e-32
      259.100   1.61560e-32
      259.200   1.54335e-32
      259.300   1.47442e-32
      259.400   1.40852e-32
      259.500   1.34552e-32
      259.600   1.28534e-32
      259.700   1.22783e-32
      259.800   1.17286e-32
      259.900   1.12031e-32
      260.000   1.07012e-32
      260.100   1.02216e-32
      260.200   9.76328e-33
      260.300   9.32531e-33
      260.400   8.90690e-33
      260.500   8.50718e-33
      260.600   8.12512e-33
      260.700   7.76004e-33
      260.800   7.41152e-33
      260.900   7.07823e-33
      261.000   6.76013e-33
      261.100   6.45651e-33
      261.200   6.16640e-33
      261.300   5.88917e-33
      261.400   5.62444e-33
      261.500   5.39490e-33
      261.600   5.25042e-33
      261.700   5.12282e-33
      261.800   4.99837e-33
      261.900   4.87683e-33
      262.000   4.75825e-33
      262.100   4.64252e-33
      262.200   4.52964e-33
      262.300   4.41942e-33
      262.400   4.31188e-33
      262.500   4.20695e-33
      262.600   4.10453e-33
      262.700   4.00460e-33
      262.800   3.90708e-33
      262.900   3.81182e-33
      263.000   3.71904e-33
      263.100   3.62841e-33
      263.200   3.54002e-33
      263.300   3.45378e-33
      263.400   3.36959e-33
      263.500   3.28745e-33
      263.600   3.20734e-33
      263.700   3.12913e-33
      263.800   3.05278e-33
      263.900   2.97836e-33
      264.000   2.90570e-33
      264.100   2.83478e-33
      264.200   2.76556e-33
      264.300   2.69808e-33
      264.400   2.63221e-33
      264.500   2.56793e-33
      264.600   2.50518e-33
      264.700   2.44397e-33
      264.800   2.38424e-33
      264.900   2.32599e-33
      265.000   2.26914e-33
      265.100   2.21364e-33
      265.200   2.15951e-33
      265.300   2.10668e-33
      265.400   2.05516e-33
      265.500   2.00487e-33
      265.600   1.95581e-33
      265.700   1.90793e-33
      265.800   1.86128e-33
      265.900   1.81576e-33
      266.000   1.77137e-33
      266.100   1.72808e-33
      266.200   1.68581e-33
      266.300   1.64457e-33
      266.400   1.60434e-33
      266.500   1.56508e-33
      266.600   1.52679e-33
      266.700   1.48941e-33
      266.800   1.45298e-33
      266.900   1.41742e-33
      267.000   1.38272e-33
      267.100   1.34887e-33
      267.200   1.31587e-33
      267.300   1.28366e-33
      267.400   1.25222e-33
      267.500   1.22155e-33
      267.600   1.19164e-33
      267.700   1.16245e-33
      267.800   1.13397e-33
      267.900   1.10620e-33
      268.000   1.07911e-33
      268.100   1.05268e-33
      268.200   1.02690e-33
      268.300   1.00175e-33
      268.400   9.77205e-34
      268.500   9.53265e-34
      268.600   9.29907e-34
      268.700   9.07137e-34
      268.800   8.84909e-34
      268.900   8.63234e-34
      269.000   8.42094e-34
      269.100   8.21462e-34
      269.200   8.01347e-34
      269.300   7.81721e-34
      269.400   7.62570e-34
      269.500   7.43884e-34
      269.600   7.25675e-34
      269.700   7.07897e-34
      269.800   6.90568e-34
      269.900   6.73651e-34
      270.000   6.57168e-34
      270.100   6.41086e-34
      270.200   6.25424e-34
      270.300   6.10134e-34
      270.400   5.95217e-34
      270.500   5.80670e-34
      270.600   5.66476e-34
      270.700   5.52634e-34
      270.800   5.39136e-34
      270.900   5.25959e-34
      271.000   5.13108e-34
      271.100   5.00569e-34
      271.200   4.88336e-34
      271.300   4.76411e-34
      271.400   4.64770e-34
      271.500   4.53425e-34
      271.600   4.42345e-34
      271.700   4.31542e-34
      271.800   4.21003e-34
      271.900   4.10724e-34
      272.000   4.00698e-34
      272.100   3.90914e-34
      272.200   3.81369e-34
      272.300   3.72057e-34
      272.400   3.62972e-34
      272.500   3.54113e-34
      272.600   3.45468e-34
      272.700   3.37036e-34
      272.800   3.28808e-34
      272.900   3.20782e-34
      273.000   3.12956e-34
      273.100   3.05319e-34
      273.200   2.97869e-34
      273.300   2.90602e-34
      273.400   2.83510e-34
      273.500   2.76592e-34
      273.600   2.69844e-34
      273.700   2.63258e-34
      273.800   2.56834e-34
      273.900   2.50571e-34
      274.000   2.44458e-34
      274.100   2.38496e-34
      274.200   2.32678e-34
      274.300   2.27003e-34
      274.400   2.21398e-34
      274.500   2.15753e-34
      274.600   2.10221e-34
      274.700   2.04835e-34
      274.800   1.99585e-34
      274.900   1.94469e-34
      275.000   1.89483e-34
      275.100   1.84625e-34
      275.200   1.79891e-34
      275.300   1.75278e-34
      275.400   1.70785e-34
      275.500   1.66407e-34
      275.600   1.62138e-34
      275.700   1.57980e-34
      275.800   1.53929e-34
      275.900   1.49981e-34
      276.000   1.46135e-34
      276.100   1.42386e-34
      276.200   1.38732e-34
      276.300   1.35173e-34
      276.400   1.31704e-34
      276.500   1.28325e-34
      276.600   1.25032e-34
      276.700   1.21823e-34
      276.800   1.18696e-34
      276.900   1.15649e-34
      277.000   1.12680e-34
      277.100   1.09786e-34
      277.200   1.06967e-34
      277.300   1.04221e-34
      277.400   1.01544e-34
      277.500   9.89346e-35
      277.600   9.63939e-35
      277.700   9.39170e-35
      277.800   9.15021e-35
      277.900   8.91508e-35
      278.000   8.68605e-35
      278.100   8.46282e-35
      278.200   8.24524e-35
      278.300   8.03326e-35
      278.400   7.82676e-35
      278.500   7.62539e-35
      278.600   7.42921e-35
      278.700   7.23817e-35
      278.800   7.05202e-35
      278.900   6.86990e-35
      279.000   6.69231e-35
      279.100   6.51930e-35
      279.200   6.35065e-35
      279.300   6.18647e-35
      279.400   6.02637e-35
      279.500   5.87045e-35
      279.600   5.71855e-35
      279.700   5.57061e-35
      279.800   5.42646e-35
      279.900   5.28595e-35
      280.000   5.14910e-35
      280.100   5.01572e-35
      280.200   4.88584e-35
      280.300   4.75925e-35
      280.400   4.63594e-35
      280.500   4.51589e-35
      280.600   4.39887e-35
      280.700   4.28484e-35
      280.800   4.17378e-35
      280.900   4.06555e-35
      281.000   3.96011e-35
      281.100   3.85738e-35
      281.200   3.75730e-35
      281.300   3.65983e-35
      281.400   3.56490e-35
      281.500   3.47235e-35
      281.600   3.38216e-35
      281.700   3.29434e-35
      281.800   3.20882e-35
      281.900   3.12547e-35
      282.000   3.04427e-35
      282.100   2.96516e-35
      282.200   2.88814e-35
      282.300   2.81306e-35
      282.400   2.73993e-35
      282.500   2.66866e-35
      282.600   2.59926e-35
      282.700   2.53162e-35
      282.800   2.46574e-35
      282.900   2.40162e-35
      283.000   2.33911e-35
      283.100   2.27824e-35
      283.200   2.21897e-35
      283.300   2.16120e-35
      283.400   2.10494e-35
      283.500   2.05015e-35
      283.600   1.99675e-35
      283.700   1.94472e-35
      283.800   1.89405e-35
      283.900   1.84472e-35
      284.000   1.79662e-35
      284.100   1.74976e-35
      284.200   1.70413e-35
      284.300   1.65969e-35
      284.400   1.61639e-35
      284.500   1.57422e-35
      284.600   1.53314e-35
      284.700   1.49313e-35
      284.800   1.45416e-35
      284.900   1.41619e-35
      285.000   1.37918e-35
      285.100   1.34315e-35
      285.200   1.30806e-35
      285.300   1.27387e-35
      285.400   1.24056e-35
      285.500   1.20812e-35
      285.600   1.17655e-35
      285.700   1.14576e-35
      285.800   1.11580e-35
      285.900   1.08661e-35
      286.000   1.05818e-35
      286.100   1.03051e-35
      286.200   1.00354e-35
      286.300   9.77291e-36
      286.400   9.51718e-36
      286.500   9.26798e-36
      286.600   9.02525e-36
      286.700   8.78882e-36
      286.800   8.55863e-36
      286.900   8.33440e-36
      287.000   8.11595e-36
      287.100   7.90316e-36
      287.200   7.69601e-36
      287.300   7.49420e-36
      287.400   7.29760e-36
      287.500   7.10616e-36
      287.600   6.91976e-36
      287.700   6.73811e-36
      287.800   6.56126e-36
      287.900   6.38901e-36
      288.000   6.22130e-36
      288.100   6.05790e-36
      288.200   5.89892e-36
      288.300   5.74410e-36
      288.400   5.59328e-36
      288.500   5.44644e-36
      288.600   5.30332e-36
      288.700   5.16402e-36
      288.800   5.02831e-36
      288.900   4.89622e-36
      289.000   4.76754e-36
      289.100   4.64217e-36
      289.200   4.52011e-36
      289.300   4.40126e-36
      289.400   4.28548e-36
      289.500   4.17272e-36
      289.600   4.06291e-36
      289.700   3.95606e-36
      289.800   3.85190e-36
      289.900   3.75042e-36
      290.000   3.65172e-36
      290.100   3.55553e-36
      290.200   3.46199e-36
      290.300   3.37085e-36
      290.400   3.28210e-36
      290.500   3.19574e-36
      290.600   3.11156e-36
      290.700   3.02959e-36
      290.800   2.94983e-36
      290.900   2.87212e-36
      291.000   2.79639e-36
      291.100   2.72266e-36
      291.200   2.65089e-36
      291.300   2.58098e-36
      291.400   2.51293e-36
      291.500   2.44664e-36
      291.600   2.38207e-36
      291.700   2.31924e-36
      291.800   2.25802e-36
      291.900   2.19848e-36
      292.000   2.14054e-36
      292.100   2.08408e-36
      292.200   2.02912e-36
      292.300   1.97557e-36
      292.400   1.92343e-36
      292.500   1.87265e-36
      292.600   1.82320e-36
      292.700   1.77506e-36
      292.800   1.72818e-36
      292.900   1.68253e-36
      293.000   1.63808e-36
      293.100   1.59479e-36
      293.200   1.55264e-36
      293.300   1.51158e-36
      293.400   1.47165e-36
      293.500   1.43276e-36
      293.600   1.39492e-36
      293.700   1.35805e-36
      293.800   1.32216e-36
      293.900   1.28721e-36
      294.000   1.25317e-36
      294.100   1.22003e-36
      294.200   1.18778e-36
      294.300   1.15637e-36
      294.400   1.12577e-36
      294.500   1.09598e-36
      294.600   1.06696e-36
      294.700   1.03871e-36
      294.800   1.01121e-36
      294.900   9.84433e-37
      295.000   9.58389e-37
      295.100   9.33039e-37
      295.200   9.08349e-37
      295.300   8.84292e-37
      295.400   8.60880e-37
      295.500   8.38092e-37
      295.600   8.15891e-37
      295.700   7.94277e-37
      295.800   7.73233e-37
      295.900   7.52728e-37
      296.000   7.32776e-37
      296.100   7.13336e-37
      296.200   6.94422e-37
      296.300   6.76011e-37
      296.400   6.58115e-37
      296.500   6.40663e-37
      296.600   6.23683e-37
      296.700   6.07147e-37
      296.800   5.91049e-37
      296.900   5.75371e-37
      297.000   5.60105e-37
      297.100   5.45238e-37
      297.200   5.30766e-37
      297.300   5.16675e-37
      297.400   5.02957e-37
      297.500   4.89591e-37
      297.600   4.76596e-37
      297.700   4.63946e-37
      297.800   4.51631e-37
      297.900   4.39645e-37
      298.000   4.27976e-37
      298.100   4.16608e-37
      298.200   4.05540e-37
      298.300   3.94769e-37
      298.400   3.84276e-37
      298.500   3.74058e-37
      298.600   3.64111e-37
      298.700   3.54426e-37
      298.800   3.44992e-37
      298.900   3.35824e-37
      299.000   3.26903e-37
      299.100   3.18216e-37
      299.200   3.09751e-37
      299.300   3.01513e-37
      299.400   2.93492e-37
      299.500   2.85682e-37
      299.600   2.78079e-37
      299.700   2.70674e-37
      299.800   2.63463e-37
      299.900   2.56447e-37
      300.000   2.49614e-37
      300.100   2.42964e-37
      300.192   2.37007e-37
      300.285   2.31125e-37
      300.377   2.25455e-37
      300.470   2.19866e-37
      300.562   2.14471e-37
      300.654   2.09207e-37
      300.747   2.04015e-37
      300.839   1.99009e-37
      300.932   1.94067e-37
      301.025   1.89250e-37
      301.117   1.84604e-37
      301.210   1.80017e-37
      301.303   1.75549e-37
      301.395   1.71239e-37
      301.488   1.66983e-37
      301.581   1.62836e-37
      301.674   1.58791e-37
      301.766   1.54886e-37
      301.859   1.51036e-37
      301.952   1.47284e-37
      302.045   1.43622e-37
      302.138   1.40262e-37
      302.231   1.37448e-37
      302.324   1.34711e-37
      302.417   1.32029e-37
      302.510   1.29398e-37
      302.603   1.26822e-37
      302.696   1.24294e-37
      302.789   1.21816e-37
      302.882   1.19387e-37
      302.976   1.16984e-37
      303.069   1.14651e-37
      303.162   1.12365e-37
      303.255   1.10122e-37
      303.349   1.07902e-37
      303.442   1.05748e-37
      303.535   1.03638e-37
      303.629   1.01547e-37
      303.722   9.95196e-38
      303.816   9.75120e-38
      303.909   9.55636e-38
      304.003   9.36343e-38
      304.096   9.17634e-38
      304.190   8.99099e-38
      304.283   8.81122e-38
      304.377   8.63325e-38
      304.471   8.45869e-38
      304.564   8.28948e-38
      304.658   8.12204e-38
      304.752   7.95769e-38
      304.846   7.79676e-38
      304.939   7.64072e-38
      305.033   7.48610e-38
      305.127   7.33456e-38
      305.221   7.18609e-38
      305.315   7.04071e-38
      305.409   6.89804e-38
      305.503   6.75835e-38
      305.597   6.62153e-38
      305.691   6.48734e-38
      305.785   6.35590e-38
      305.879   6.22703e-38
      305.973   6.10081e-38
      306.067   5.97705e-38
      306.161   5.85586e-38
      306.255   5.73708e-38
      306.350   5.61944e-38
      306.444   5.50536e-38
      306.538   5.39364e-38
      306.633   5.28304e-38
      306.727   5.17576e-38
      306.821   5.07065e-38
      306.916   4.96656e-38
      307.010   4.86689e-38
      307.105   4.77205e-38
      307.199   4.68062e-38
      307.294   4.58995e-38
      307.388   4.50200e-38
      307.483   4.41482e-38
      307.577   4.33019e-38
      307.672   4.24627e-38
      307.767   4.16398e-38
      307.861   4.08411e-38
      307.956   4.00486e-38
      308.051   3.92717e-38
      308.146   3.85104e-38
      308.240   3.77708e-38
      308.335   3.70376e-38
      308.430   3.63182e-38
      308.525   3.56131e-38
      308.620   3.49216e-38
      308.715   3.42433e-38
      308.810   3.35782e-38
      308.905   3.29257e-38
      309.000   3.22854e-38
      309.095   3.16578e-38
      309.190   3.10426e-38
      309.285   3.04390e-38
      309.380   2.98470e-38
      309.476   2.92606e-38
      309.571   2.86912e-38
      309.666   2.81327e-38
      309.761   2.75852e-38
      309.857   2.70427e-38
      309.952   2.65158e-38
      310.047   2.59995e-38
      310.143   2.54878e-38
      310.238   2.49912e-38
      310.334   2.44991e-38
      310.429   2.40216e-38
      310.525   2.35483e-38
      310.620   2.30893e-38
      310.716   2.26342e-38
      310.811   2.21931e-38
      310.907   2.17557e-38
      311.003   2.13268e-38
      311.098   2.09105e-38
      311.194   2.04981e-38
      311.290   2.00941e-38
      311.386   1.96978e-38
      311.481   1.93132e-38
      311.577   1.89321e-38
      311.673   1.85585e-38
      311.769   1.81922e-38
      311.865   1.78330e-38
      311.961   1.74822e-38
      312.057   1.71440e-38
      312.153   1.68148e-38
      312.249   1.64915e-38
      312.345   1.61745e-38
      312.441   1.58634e-38
      312.537   1.55584e-38
      312.633   1.52593e-38
      312.730   1.49625e-38
      312.826   1.46747e-38
      312.922   1.43923e-38
      313.018   1.41154e-38
      313.115   1.38409e-38
      313.211   1.35744e-38
      313.307   1.33131e-38
      313.404   1.30541e-38
      313.500   1.28027e-38
      313.597   1.25537e-38
      313.693   1.23119e-38
      313.790   1.20723e-38
      313.886   1.18398e-38
      313.983   1.16092e-38
      314.079   1.13854e-38
      314.176   1.11637e-38
      314.273   1.09463e-38
      314.369   1.07354e-38
      314.466   1.05264e-38
      314.563   1.03213e-38
      314.660   1.01202e-38
      314.756   9.92500e-39
      314.853   9.73150e-39
      314.950   9.54184e-39
      315.047   9.35591e-39
      315.144   9.17356e-39
      315.241   8.99470e-39
      315.338   8.81932e-39
      315.435   8.64732e-39
      315.532   8.47863e-39
      315.629   8.31323e-39
      315.726   8.15111e-39
      315.823   7.99197e-39
      315.921   7.83444e-39
      316.018   7.68157e-39
      316.115   7.53168e-39
      316.212   7.38462e-39
      316.310   7.23897e-39
      316.407   7.09760e-39
      316.504   6.95896e-39
      316.602   6.82167e-39
      316.699   6.68847e-39
      316.796   6.55776e-39
      316.894   6.42834e-39
      316.991   6.30308e-39
      317.089   6.18117e-39
      317.187   6.06294e-39
      317.284   5.94804e-39
      317.382   5.83413e-39
      317.479   5.72347e-39
      317.577   5.61382e-39
      317.675   5.50628e-39
      317.773   5.40075e-39
      317.870   5.29835e-39
      317.968   5.19677e-39
      318.066   5.09712e-39
      318.164   4.99939e-39
      318.262   4.90352e-39
      318.360   4.80949e-39
      318.458   4.71727e-39
      318.556   4.62686e-39
      318.654   4.53813e-39
      318.752   4.45103e-39
      318.850   4.36566e-39
      318.948   4.28188e-39
      319.046   4.19970e-39
      319.144   4.11906e-39
      319.242   4.03999e-39
      319.341   3.96165e-39
      319.439   3.88558e-39
      319.537   3.81100e-39
      319.635   3.73781e-39
      319.734   3.66527e-39
      319.832   3.59488e-39
      319.930   3.52579e-39
      320.029   3.45734e-39
      320.127   3.39091e-39
      320.226   3.32509e-39
      320.324   3.26114e-39
      320.423   3.19776e-39
      320.522   3.13570e-39
      320.620   3.07540e-39
      320.719   3.01562e-39
      320.818   2.95704e-39
      320.916   2.90015e-39
      321.015   2.84376e-39
      321.114   2.78846e-39
      321.213   2.73423e-39
      321.311   2.68161e-39
      321.410   2.62948e-39
      321.509   2.57830e-39
      321.608   2.52814e-39
      321.707   2.47895e-39
      321.806   2.43071e-39
      321.905   2.38340e-39
      322.004   2.33700e-39
      322.103   2.29151e-39
      322.202   2.24686e-39
      322.301   2.20311e-39
      322.401   2.15979e-39
      322.500   2.11772e-39
      322.599   2.07647e-39
      322.698   2.03600e-39
      322.798   1.99592e-39
      322.897   1.95701e-39
      322.996   1.91887e-39
      323.096   1.88106e-39
      323.195   1.84438e-39
      323.294   1.80839e-39
      323.394   1.77275e-39
      323.493   1.73816e-39
      323.593   1.70392e-39
      323.692   1.67065e-39
      323.792   1.63771e-39
      323.892   1.60541e-39
      323.991   1.57404e-39
      324.091   1.54300e-39
      324.191   1.51256e-39
      324.291   1.48270e-39
      324.390   1.45374e-39
      324.490   1.42503e-39
      324.590   1.39689e-39
      324.690   1.36931e-39
      324.790   1.34226e-39
      324.890   1.31575e-39
      324.990   1.28976e-39
      325.090   1.26427e-39
      325.190   1.23927e-39
      325.290   1.21478e-39
      325.390   1.19075e-39
      325.490   1.16721e-39
      325.590   1.14413e-39
      325.690   1.12147e-39
      325.790   1.09927e-39
      325.891   1.07731e-39
      325.991   1.05598e-39
      326.091   1.03506e-39
      326.192   1.01436e-39
      326.292   9.94269e-40
      326.392   9.74575e-40
      326.493   9.55073e-40
      326.593   9.36139e-40
      326.694   9.17408e-40
      326.794   8.99212e-40
      326.895   8.81202e-40
      326.995   8.63723e-40
      327.096   8.46418e-40
      327.197   8.29454e-40
      327.297   8.12990e-40
      327.398   7.96693e-40
      327.499   7.80724e-40
      327.599   7.65215e-40
      327.700   7.49864e-40
      327.801   7.34811e-40
      327.902   7.20074e-40
      328.003   7.05620e-40
      328.104   6.91457e-40
      328.205   6.77574e-40
      328.306   6.63967e-40
      328.407   6.50631e-40
      328.508   6.37552e-40
      328.609   6.24737e-40
      328.710   6.12174e-40
      328.811   5.99864e-40
      328.912   5.87805e-40
      329.013   5.75979e-40
      329.115   5.64285e-40
      329.216   5.52930e-40
      329.317   5.41795e-40
      329.419   5.30788e-40
      329.520   5.20098e-40
      329.621   5.09612e-40
      329.723   4.99245e-40
      329.824   4.89193e-40
      329.926   4.79237e-40
      330.027   4.69577e-40
      330.129   4.60014e-40
      330.230   4.50742e-40
      330.332   4.41556e-40
      330.434   4.32560e-40
      330.535   4.23834e-40
      330.637   4.15192e-40
      330.739   4.06728e-40
      330.840   3.98514e-40
      330.942   3.90386e-40
      331.044   3.82421e-40
      331.146   3.74616e-40
      331.248   3.66971e-40
      331.350   3.59481e-40
      331.452   3.52149e-40
      331.554   3.45155e-40
      331.656   3.38589e-40
      331.758   3.32148e-40
      331.860   3.25822e-40
      331.962   3.19621e-40
      332.064   3.13535e-40
      332.166   3.07572e-40
      332.268   3.01709e-40
      332.371   2.95908e-40
      332.473   2.90269e-40
      332.575   2.84731e-40
      332.677   2.79304e-40
      332.780   2.73926e-40
      332.882   2.68703e-40
      332.985   2.63530e-40
      333.087   2.58502e-40
      333.190   2.53520e-40
      333.292   2.48606e-40
      333.395   2.43536e-40
      333.497   2.38549e-40
      333.600   2.33612e-40
      333.702   2.28824e-40
      333.805   2.24089e-40
      333.908   2.19446e-40
      334.011   2.14903e-40
      334.113   2.10493e-40
      334.216   2.06132e-40
      334.319   2.01861e-40
      334.422   1.97676e-40
      334.525   1.93577e-40
      334.628   1.89561e-40
      334.731   1.85630e-40
      334.834   1.81781e-40
      334.937   1.78010e-40
      335.040   1.74315e-40
      335.143   1.70701e-40
      335.246   1.67154e-40
      335.349   1.63684e-40
      335.452   1.60285e-40
      335.555   1.56955e-40
      335.659   1.53665e-40
      335.762   1.50470e-40
      335.865   1.47345e-40
      335.969   1.44252e-40
      336.072   1.41252e-40
      336.175   1.38317e-40
      336.279   1.35412e-40
      336.382   1.32598e-40
      336.486   1.29811e-40
      336.589   1.27109e-40
      336.693   1.24441e-40
      336.796   1.21853e-40
      336.900   1.19290e-40
      337.004   1.16783e-40
      337.107   1.14350e-40
      337.211   1.11948e-40
      337.315   1.09597e-40
      337.419   1.07290e-40
      337.523   1.05032e-40
      337.626   1.02843e-40
      337.730   1.00683e-40
      337.834   9.85617e-41
      337.938   9.64878e-41
      338.042   9.44657e-41
      338.146   9.25095e-41
      338.250   9.05967e-41
      338.354   8.87204e-41
      338.458   8.68833e-41
      338.562   8.50854e-41
      338.667   8.33086e-41
      338.771   8.15836e-41
      338.875   7.98936e-41
      338.979   7.82387e-41
      339.084   7.66062e-41
      339.188   7.50171e-41
      339.292   7.34645e-41
      339.397   7.19287e-41
      339.501   7.04363e-41
      339.606   6.89635e-41
      339.710   6.75356e-41
      339.815   6.61231e-41
      339.919   6.47526e-41
      340.024   6.33975e-41
      340.128   6.20845e-41
      340.233   6.07841e-41
      340.338   5.95159e-41
      340.442   5.82786e-41
      340.547   5.70623e-41
      340.652   5.58670e-41
      340.757   5.46983e-41
      340.862   5.35506e-41
      340.966   5.24422e-41
      341.071   5.13436e-41
      341.176   5.02660e-41
      341.281   4.92150e-41
      341.386   4.81865e-41
      341.491   4.71761e-41
      341.596   4.61896e-41
      341.702   4.52157e-41
      341.807   4.42656e-41
      341.912   4.33394e-41
      342.017   4.24327e-41
      342.122   4.15443e-41
      342.228   4.06657e-41
      342.333   3.98123e-41
      342.438   3.89785e-41
      342.544   3.81546e-41
      342.649   3.73558e-41
      342.754   3.65725e-41
      342.860   3.57990e-41
      342.965   3.50493e-41
      343.071   3.43108e-41
      343.176   3.35919e-41
      343.282   3.28787e-41
      343.388   3.21864e-41
      343.493   3.15152e-41
      343.599   3.08888e-41
      343.705   3.02793e-41
      343.810   2.96837e-41
      343.916   2.90966e-41
      344.022   2.85248e-41
      344.128   2.79587e-41
      344.234   2.74066e-41
      344.340   2.68671e-41
      344.446   2.63332e-41
      344.552   2.58119e-41
      344.658   2.53046e-41
      344.764   2.48030e-41
      344.870   2.43139e-41
      344.976   2.38347e-41
      345.082   2.33610e-41
      345.188   2.28986e-41
      345.294   2.24474e-41
      345.401   2.20004e-41
      345.507   2.15632e-41
      345.613   2.11372e-41
      345.719   2.07196e-41
      345.826   2.03076e-41
      345.932   1.99040e-41
      346.039   1.95089e-41
      346.145   1.91221e-41
      346.252   1.87410e-41
      346.358   1.83710e-41
      346.465   1.80039e-41
      346.571   1.76494e-41
      346.678   1.72976e-41
      346.785   1.69529e-41
      346.891   1.66166e-41
      346.998   1.62845e-41
      347.105   1.59622e-41
      347.212   1.56427e-41
      347.319   1.53288e-41
      347.425   1.50261e-41
      347.532   1.47262e-41
      347.639   1.44320e-41
      347.746   1.41447e-41
      347.853   1.38630e-41
      347.960   1.35856e-41
      348.067   1.33137e-41
      348.174   1.30489e-41
      348.281   1.27897e-41
      348.389   1.25304e-41
      348.496   1.22810e-41
      348.603   1.20358e-41
      348.710   1.17961e-41
      348.818   1.15593e-41
      348.925   1.13267e-41
      349.032   1.11025e-41
      349.140   1.08755e-41
      349.247   1.06583e-41
      349.355   1.04439e-41
      349.462   1.02337e-41
      349.570   1.00291e-41
      349.677   9.82731e-42
      349.785   9.62972e-42
      349.892   9.43494e-42
      350.000   9.24296e-42
      350.100   9.07060e-42
      350.193   8.91366e-42
      350.287   8.75671e-42
      350.380   8.60397e-42
      350.473   8.45403e-42
      350.567   8.30409e-42
      350.660   8.15976e-42
      350.754   8.01683e-42
      350.847   7.87530e-42
      350.941   7.73797e-42
      351.034   7.60064e-42
      351.128   7.46612e-42
      351.221   7.33860e-42
      351.315   7.20828e-42
      351.409   7.07936e-42
      351.502   6.95885e-42
      351.596   6.83413e-42
      351.690   6.71222e-42
      351.783   6.59731e-42
      351.877   6.47960e-42
      351.971   6.36750e-42
      352.065   6.25259e-42
      352.159   6.14329e-42
      352.252   6.03539e-42
      352.346   5.93030e-42
      352.440   5.82380e-42
      352.534   5.72150e-42
      352.628   5.62061e-42
      352.722   5.52112e-42
      352.816   5.42443e-42
      352.910   5.32914e-42
      353.004   5.23385e-42
      353.098   5.14136e-42
      353.192   5.05168e-42
      353.287   4.95920e-42
      353.381   4.87231e-42
      353.475   4.78543e-42
      353.569   4.70276e-42
      353.663   4.62008e-42
      353.758   4.53740e-42
      353.852   4.45753e-42
      353.946   4.37766e-42
      354.041   4.29778e-42
      354.135   4.22351e-42
      354.229   4.14644e-42
      354.324   4.07357e-42
      354.418   4.00071e-42
      354.513   3.92924e-42
      354.607   3.85918e-42
      354.702   3.78911e-42
      354.796   3.72185e-42
      354.891   3.65459e-42
      354.985   3.58732e-42
      355.080   3.52427e-42
      355.175   3.45700e-42
      355.269   3.39675e-42
      355.364   3.33229e-42
      355.459   3.27203e-42
      355.553   3.21458e-42
      355.648   3.15713e-42
      355.743   3.09547e-42
      355.838   3.04222e-42
      355.933   2.98477e-42
      356.027   2.93012e-42
      356.122   2.87827e-42
      356.217   2.82502e-42
      356.312   2.77317e-42
      356.407   2.72272e-42
      356.502   2.67087e-42
      356.597   2.62323e-42
      356.692   2.57559e-42
      356.787   2.52654e-42
      356.882   2.48310e-42
      356.977   2.43406e-42
      357.073   2.38921e-42
      357.168   2.34858e-42
      357.263   2.30373e-42
      357.358   2.26170e-42
      357.453   2.22106e-42
      357.549   2.17902e-42
      357.644   2.14118e-42
      357.739   2.09915e-42
      357.835   2.06131e-42
      357.930   2.02207e-42
      358.025   1.98424e-42
      358.121   1.94921e-42
      358.216   1.91417e-42
      358.312   1.87914e-42
      358.407   1.84411e-42
      358.503   1.80768e-42
      358.598   1.77685e-42
      358.694   1.74181e-42
      358.790   1.70958e-42
      358.885   1.67735e-42
      358.981   1.64793e-42
      359.076   1.61710e-42
      359.172   1.58767e-42
      359.268   1.55544e-42
      359.364   1.52742e-42
      359.459   1.50219e-42
      359.555   1.47276e-42
      359.651   1.44474e-42
      359.747   1.41811e-42
      359.843   1.39009e-42
      359.939   1.36486e-42
      360.035   1.33824e-42
      360.131   1.31582e-42
      360.227   1.29060e-42
      360.323   1.26537e-42
      360.419   1.24295e-42
      360.515   1.22053e-42
      360.611   1.19531e-42
      360.707   1.17289e-42
      360.803   1.15327e-42
      360.899   1.13085e-42
      360.995   1.10843e-42
      361.092   1.08881e-42
      361.188   1.06779e-42
      361.284   1.04817e-42
      361.380   1.02855e-42
      361.477   1.00893e-42
      361.573   9.90718e-43
      361.669   9.71100e-43
      361.766   9.51482e-43
      361.862   9.33265e-43
      361.959   9.16449e-43
      362.055   9.01035e-43
      362.152   8.81417e-43
      362.248   8.66002e-43
      362.345   8.49187e-43
      362.441   8.33773e-43
      362.538   8.18358e-43
      362.635   8.01543e-43
      362.731   7.86128e-43
      362.828   7.73517e-43
      362.925   7.56701e-43
      363.021   7.44089e-43
      363.118   7.28675e-43
      363.215   7.16064e-43
      363.312   7.03452e-43
      363.409   6.86636e-43
      363.505   6.74025e-43
      363.602   6.61413e-43
      363.699   6.48801e-43
      363.796   6.36190e-43
      363.893   6.26380e-43
      363.990   6.13769e-43
      364.087   6.01157e-43
      364.184   5.91348e-43
      364.281   5.78736e-43
      364.378   5.68927e-43
      364.475   5.56315e-43
      364.573   5.46506e-43
      364.670   5.36697e-43
      364.767   5.24086e-43
      364.864   5.14277e-43
      364.961   5.04467e-43
      365.059   4.94658e-43
      365.156   4.86251e-43
      365.253   4.76441e-43
      365.351   4.66632e-43
      365.448   4.59626e-43
      365.545   4.49817e-43
      365.643   4.41409e-43
      365.740   4.31600e-43
      365.838   4.24593e-43
      365.935   4.14784e-43
      366.033   4.09179e-43
      366.130   3.99370e-43
      366.228   3.92364e-43
      366.326   3.86758e-43
      366.423   3.76949e-43
      366.521   3.69943e-43
      366.618   3.64338e-43
      366.716   3.57331e-43
      366.814   3.48923e-43
      366.912   3.41917e-43
      367.010   3.34910e-43
      367.107   3.29305e-43
      367.205   3.22299e-43
      367.303   3.16693e-43
      367.401   3.09687e-43
      367.499   3.04082e-43
      367.597   2.97075e-43
      367.695   2.90069e-43
      367.793   2.87266e-43
      367.891   2.81661e-43
      367.989   2.74654e-43
      368.087   2.71852e-43
      368.185   2.64845e-43
      368.283   2.59240e-43
      368.381   2.55036e-43
      368.480   2.49431e-43
      368.578   2.46629e-43
      368.676   2.39622e-43
      368.774   2.36819e-43
      368.873   2.29813e-43
      368.971   2.27010e-43
      369.069   2.20004e-43
      369.168   2.17201e-43
      369.266   2.14399e-43
      369.364   2.10195e-43
      369.463   2.04590e-43
      369.561   2.01787e-43
      369.660   1.97583e-43
      369.758   1.91978e-43
      369.857   1.89175e-43
      369.955   1.84971e-43
      370.054   1.82169e-43
      370.153   1.79366e-43
      370.251   1.75162e-43
      370.350   1.72360e-43
      370.449   1.66755e-43
      370.547   1.62551e-43
      370.646   1.59748e-43
      370.745   1.56945e-43
      370.844   1.52742e-43
      370.943   1.49939e-43
      371.041   1.49939e-43
      371.140   1.47136e-43
      371.239   1.44334e-43
      371.338   1.40130e-43
      371.437   1.37327e-43
      371.536   1.34525e-43
      371.635   1.30321e-43
      371.734   1.27518e-43
      371.833   1.27518e-43
      371.932   1.24716e-43
      372.032   1.21913e-43
      372.131   1.17709e-43
      372.230   1.17709e-43
      372.329   1.14906e-43
      372.428   1.12104e-43
      372.528   1.12104e-43
      372.627   1.09301e-43
      372.726   1.05097e-43
      372.826   1.05097e-43
      372.925   1.02295e-43
      373.024   9.94922e-44
      373.124   9.94922e-44
      373.223   9.52883e-44
      373.323   9.24857e-44
      373.422   9.24857e-44
      373.522   8.96831e-44
      373.621   8.96831e-44
      373.721   8.68805e-44
      373.820   8.26766e-44
      373.920   8.26766e-44
      374.020   7.98740e-44
      374.119   7.98740e-44
      374.219   7.70714e-44
      374.319   7.70714e-44
      374.419   7.28675e-44
      374.518   7.28675e-44
      374.618   7.00649e-44
      374.718   7.00649e-44
      374.818   7.00649e-44
      374.918   6.72623e-44
      375.018   6.72623e-44
      375.118   6.44597e-44
      375.218   6.44597e-44
      375.318   6.44597e-44
      375.418   6.02558e-44
      375.518   6.02558e-44
      375.618   5.74532e-44
      375.718   5.74532e-44
      375.818   5.74532e-44
      375.918   5.46506e-44
      376.019   5.46506e-44
      376.119   5.46506e-44
      376.219   5.04467e-44
      376.319   5.04467e-44
      376.420   5.04467e-44
      376.520   4.76441e-44
      376.620   4.76441e-44
      376.721   4.76441e-44
      376.821   4.48416e-44
      376.922   4.48416e-44
      377.022   4.48416e-44
      377.122   4.48416e-44
      377.223   4.20390e-44
      377.323   4.20390e-44
      377.424   4.20390e-44
      377.525   3.78351e-44
      377.625   3.78351e-44
      377.726   3.78351e-44
      377.827   3.78351e-44
      377.927   3.50325e-44
      378.028   3.50325e-44
      378.129   3.50325e-44
      378.230   3.50325e-44
      378.330   3.50325e-44
      378.431   3.22299e-44
      378.532   3.22299e-44
      378.633   3.22299e-44
      378.734   3.22299e-44
      378.835   3.22299e-44
      378.936   3.22299e-44
      379.037   3.22299e-44
      379.138   3.22299e-44
      379.239   3.22299e-44
      379.340   2.94273e-44
      379.441   2.94273e-44
      379.542   2.94273e-44
      379.643   2.94273e-44
      379.745   2.94273e-44
      379.846   2.94273e-44
      379.947   2.94273e-44
      380.048   2.52234e-44
      380.150   2.52234e-44
      380.251   2.52234e-44
      380.352   2.52234e-44
      380.454   2.52234e-44
      380.555   2.52234e-44
      380.656   2.52234e-44
      380.758   2.52234e-44
      380.859   2.52234e-44
      380.961   2.24208e-44
      381.062   2.24208e-44
      381.164   2.24208e-44
      381.266   2.24208e-44
      381.367   2.24208e-44
      381.469   2.24208e-44
      381.570   2.24208e-44
      381.672   2.24208e-44
      381.774   2.24208e-44
      381.876   2.24208e-44
      381.977   1.96182e-44
      382.079   1.96182e-44
      382.181   1.96182e-44
      382.283   1.96182e-44
      382.385   1.96182e-44
      382.487   1.96182e-44
      382.589   1.96182e-44
      382.691   1.96182e-44
      382.793   1.96182e-44
      382.895   1.96182e-44
      382.997   1.96182e-44
      383.099   1.54143e-44
      383.201   1.54143e-44
      383.303   1.54143e-44
      383.405   1.54143e-44
      383.507   1.54143e-44
      383.610   1.54143e-44
      383.712   1.54143e-44
      383.814   1.54143e-44
      383.916   1.54143e-44
      384.019   1.54143e-44
      384.121   1.54143e-44
      384.223   1.54143e-44
      384.326   1.54143e-44
      384.428   1.54143e-44
      384.531   1.54143e-44
      384.633   1.54143e-44
      384.736   1.54143e-44
      384.838   1.26117e-44
      384.941   1.26117e-44
      385.043   1.26117e-44
      385.146   1.26117e-44
      385.249   1.26117e-44
      385.351   1.26117e-44
      385.454   1.26117e-44
      385.557   1.26117e-44
      385.660   1.26117e-44
      385.762   1.26117e-44
      385.865   1.26117e-44
      385.968   1.26117e-44
      386.071   1.26117e-44
      386.174   1.26117e-44
      386.277   1.26117e-44
      386.380   1.26117e-44
      386.483   1.26117e-44
      386.586   1.26117e-44
      386.689   9.80909e-45
      386.792   9.80909e-45
      386.895   9.80909e-45
      386.998   9.80909e-45
      387.101   9.80909e-45
      387.204   9.80909e-45
      387.308   9.80909e-45
      387.411   9.80909e-45
      387.514   9.80909e-45
      387.617   9.80909e-45
      387.721   9.80909e-45
      387.824   9.80909e-45
      387.927   9.80909e-45
      388.031   9.80909e-45
      388.134   9.80909e-45
      388.238   9.80909e-45
      388.341   9.80909e-45
      388.445   9.80909e-45
      388.548   9.80909e-45
      388.652   9.80909e-45
      388.755   9.80909e-45
      388.859   9.80909e-45
      388.962   9.80909e-45
      389.066   9.80909e-45
      389.170   9.80909e-45
      389.274   9.80909e-45
      389.377   9.80909e-45
      389.481   9.80909e-45
      389.585   9.80909e-45
      389.689   9.80909e-45
      389.793   9.80909e-45
      389.897   7.00649e-45
      390.000   7.00649e-45
      390.104   7.00649e-45
      390.208   7.00649e-45
      390.312   7.00649e-45
      390.416   7.00649e-45
      390.520   7.00649e-45
      390.625   7.00649e-45
      390.729   7.00649e-45
      390.833   7.00649e-45
      390.937   7.00649e-45
      391.041   7.00649e-45
      391.145   7.00649e-45
      391.250   7.00649e-45
      391.354   7.00649e-45
      391.458   7.00649e-45
      391.563   7.00649e-45
      391.667   7.00649e-45
      391.771   7.00649e-45
      391.876   7.00649e-45
      391.980   7.00649e-45
      392.085   7.00649e-45
      392.189   7.00649e-45
      392.294   7.00649e-45
      392.398   7.00649e-45
      392.503   7.00649e-45
      392.607   7.00649e-45
      392.712   7.00649e-45
      392.817   7.00649e-45
      392.921   7.00649e-45
      393.026   7.00649e-45
      393.131   7.00649e-45
      393.236   7.00649e-45
      393.340   7.00649e-45
      393.445   7.00649e-45
      393.550   2.80260e-45
      393.655   2.80260e-45
      393.760   2.80260e-45
      393.865   2.80260e-45
      393.970   2.80260e-45
      394.075   2.80260e-45
      394.180   2.80260e-45
      394.285   2.80260e-45
      394.390   2.80260e-45
      394.495   2.80260e-45
      394.600   2.80260e-45
      394.706   2.80260e-45
      394.811   2.80260e-45
      394.916   2.80260e-45
      395.021   2.80260e-45
      395.126   2.80260e-45
      395.232   2.80260e-45
      395.337   2.80260e-45
      395.443   2.80260e-45
      395.548   2.80260e-45
      395.653   2.80260e-45
      395.759   2.80260e-45
      395.864   2.80260e-45
      395.970   2.80260e-45
      396.075   2.80260e-45
      396.181   2.80260e-45
      396.286   2.80260e-45
      396.392   2.80260e-45
      396.498   2.80260e-45
      396.603   2.80260e-45
      396.709   2.80260e-45
      396.815   2.80260e-45
      396.921   2.80260e-45
      397.026   2.80260e-45
      397.132   2.80260e-45
      397.238   2.80260e-45
      397.344   2.80260e-45
      397.450   2.80260e-45
      397.556   2.80260e-45
      397.662   2.80260e-45
      397.768   2.80260e-45
      397.874   2.80260e-45
      397.980   2.80260e-45
      398.086   2.80260e-45
      398.192   2.80260e-45
      398.298   2.80260e-45
      398.404   2.80260e-45
      398.510   2.80260e-45
      398.617   2.80260e-45
      398.723   2.80260e-45
      398.829   2.80260e-45
      398.935   2.80260e-45
      399.042   2.80260e-45
      399.148   2.80260e-45
      399.255   2.80260e-45
      399.361   2.80260e-45
      399.467   2.80260e-45
      399.574   2.80260e-45
      399.680   2.80260e-45
      399.787   2.80260e-45
      399.893       0.00000
      400.000       0.00000
