Filter Al-poly/Al-thick
observation_date 22Sept2019
wavelength effective area
      1.00000   2.52639e-10
      1.10000   6.98656e-10
      1.20000   1.74869e-09
      1.30000   3.99959e-09
      1.40000   8.61932e-09
      1.50000   1.73337e-08
      1.60000   3.28168e-08
      1.70000   5.90762e-08
      1.80000   1.01104e-07
      1.90000   1.65509e-07
      2.00000   2.59608e-07
      2.10000   3.91704e-07
      2.20000   5.70919e-07
      2.30000   8.02647e-07
      2.40000   1.09011e-06
      2.50000   1.42512e-06
      2.60000   1.83855e-06
      2.70000   2.28979e-06
      2.80000   2.76491e-06
      2.90000   3.25993e-06
      3.00000   3.73770e-06
      3.10000   4.17616e-06
      3.20000   4.55409e-06
      3.30000   4.84964e-06
      3.40000   5.04235e-06
      3.50000   5.12278e-06
      3.60000   5.10264e-06
      3.70000   4.96396e-06
      3.80000   4.73619e-06
      3.90000   4.42985e-06
      4.00000   4.05935e-06
      4.10000   3.64842e-06
      4.20000   3.21937e-06
      4.30000   2.79017e-06
      4.40000   2.37599e-06
      4.50000   1.98781e-06
      4.60000   1.63285e-06
      4.70000   1.32137e-06
      4.80000   1.05174e-06
      4.90000   8.14067e-07
      5.00000   6.36809e-07
      5.10000   4.83881e-07
      5.20000   3.63356e-07
      5.30000   2.66337e-07
      5.40000   1.92081e-07
      5.50000   1.36860e-07
      5.60000   9.30062e-08
      5.70000   6.55026e-08
      5.80000   4.09572e-08
      5.90000   3.30185e-08
      6.00000   2.31216e-08
      6.10000   1.51795e-08
      6.20000   9.60888e-09
      6.30000   5.73196e-09
      6.40000   3.21894e-09
      6.50000   1.70769e-09
      6.60000   8.50315e-10
      6.70000   4.07830e-10
      6.80000   1.89485e-10
      6.90000   1.13476e-10
      7.00000   5.63275e-11
      7.10000   2.66729e-11
      7.20000   1.22288e-11
      7.30000   5.52678e-12
      7.40000   2.54432e-12
      7.50000   1.12157e-12
      7.60000   4.71813e-13
      7.70000   2.04744e-13
      7.80000   8.38656e-14
      7.90000   3.35684e-14
      8.00000     0.0671059
      8.10000     0.0669903
      8.20000     0.0619154
      8.30000     0.0568318
      8.40000     0.0521185
      8.50000     0.0476531
      8.60000     0.0434666
      8.70000     0.0395117
      8.80000     0.0358270
      8.90000     0.0323675
      9.00000     0.0291588
      9.10000     0.0261926
      9.20000     0.0234406
      9.30000     0.0209408
      9.40000     0.0186442
      9.50000     0.0165391
      9.60000     0.0146518
      9.70000     0.0129362
      9.80000     0.0113754
      9.90000    0.00997644
      10.0000    0.00872342
      10.1000    0.00759784
      10.2000    0.00659113
      10.3000    0.00570506
      10.4000    0.00492795
      10.5000    0.00424217
      10.6000    0.00363936
      10.7000    0.00311148
      10.8000    0.00265335
      10.9000    0.00225955
      11.0000    0.00191791
      11.1000    0.00162263
      11.2000    0.00136832
      11.3000    0.00115014
      11.4000   0.000963637
      11.5000   0.000804751
      11.6000   0.000669902
      11.7000   0.000557009
      11.8000   0.000461810
      11.9000   0.000382504
      12.0000   0.000315987
      12.1000   0.000261488
      12.2000   0.000219886
      12.3000   0.000181953
      12.4000   0.000148758
      12.5000   0.000121136
      12.6000   9.82918e-05
      12.7000   7.94785e-05
      12.8000   6.40550e-05
      12.9000   5.14642e-05
      13.0000   4.12181e-05
      13.1000   3.29045e-05
      13.2000   2.61809e-05
      13.3000   2.07605e-05
      13.4000   1.64058e-05
      13.5000   1.29264e-05
      13.6000   1.01999e-05
      13.7000   8.02307e-06
      13.8000   6.28972e-06
      13.9000   4.91369e-06
      14.0000   3.82453e-06
      14.1000   2.96504e-06
      14.2000   2.28910e-06
      14.3000   1.75950e-06
      14.4000   1.34629e-06
      14.5000   1.02977e-06
      14.6000   7.89962e-07
      14.7000   6.03054e-07
      14.8000   4.57947e-07
      14.9000   3.45791e-07
      15.0000   2.59541e-07
      15.1000   1.93578e-07
      15.2000   1.45778e-07
      15.3000   1.09380e-07
      15.4000   8.14706e-08
      15.5000   6.02192e-08
      15.6000   4.41589e-08
      15.7000   3.25138e-08
      15.8000   2.40932e-08
      15.9000   1.76889e-08
      16.0000   1.28667e-08
      16.1000   9.27299e-09
      16.2000   6.79275e-09
      16.3000   4.96230e-09
      16.4000   3.58062e-09
      16.5000   2.55238e-09
      16.6000   1.83234e-09
      16.7000   1.32710e-09
      16.8000   9.45922e-10
      16.9000   6.63985e-10
      17.0000   4.71069e-10
      17.1000   3.36859e-10
      17.2000   2.36176e-10
      17.3000   1.62607e-10
      17.4000   1.15773e-10
      17.5000   8.19061e-11
      17.6000   5.69353e-11
      17.7000   3.97073e-11
      17.8000   2.86248e-11
      17.9000   2.01505e-11
      18.0000   1.38556e-11
      18.1000   9.91217e-12
      18.2000   6.90688e-12
      18.3000   4.65544e-12
      18.4000   3.21081e-12
      18.5000   2.18220e-12
      18.6000   1.41982e-12
      18.7000   9.40429e-13
      18.8000   6.21478e-13
      18.9000   3.92007e-13
      19.0000   2.56773e-13
      19.1000   1.67667e-13
      19.2000   1.04136e-13
      19.3000   6.85411e-14
      19.4000   4.42775e-14
      19.5000   2.71658e-14
      19.6000   1.81812e-14
      19.7000   1.15949e-14
      19.8000   7.11531e-15
      19.9000   4.78977e-15
      20.0000   2.98946e-15
      20.1000   1.89517e-15
      20.2000   1.23124e-15
      20.3000   7.42655e-16
      20.4000   4.86677e-16
      20.5000   3.02756e-16
      20.6000   1.82444e-16
      20.7000   1.19194e-16
      20.8000   7.05987e-17
      20.9000   4.50317e-17
      21.0000   2.75840e-17
      21.1000   1.61736e-17
      21.2000   1.04391e-17
      21.3000   5.99214e-18
      21.4000   3.80988e-18
      21.5000   2.25605e-18
      21.6000   1.33231e-18
      21.7000   8.26008e-19
      21.8000   4.52137e-19
      21.9000   2.94227e-19
      22.0000   1.65174e-19
      22.1000   1.01656e-19
      22.2000   5.88146e-20
      22.3000   3.37552e-20
      22.4000   2.01849e-20
      22.5000   1.03137e-20
      22.6000   6.20448e-21
      22.7000   2.92036e-21
      22.8000   2.48735e-21
      22.9000   2.04404e-21
      23.0000   1.57546e-21
      23.1000   1.13157e-21
      23.2000   7.11926e-22
      23.3000   4.43514e-22
      23.4000   2.49421e-22
      23.5000   1.53332e-22
      23.6000   8.13961e-23
      23.7000   5.17794e-23
      23.8000   2.62877e-23
      23.9000   1.70550e-23
      24.0000   8.67431e-24
      24.1000   5.51015e-24
      24.2000   2.80128e-24
      24.3000   1.74735e-24
      24.4000   8.89779e-25
      24.5000   5.46894e-25
      24.6000   2.78989e-25
      24.7000   1.69394e-25
      24.8000   8.63018e-26
      24.9000   5.21260e-26
      25.0000   2.65760e-26
      25.1000   1.59698e-26
      25.2000   8.06231e-27
      25.3000   4.85031e-27
      25.4000   2.42231e-27
      25.5000   1.46135e-27
      25.6000   7.15306e-28
      25.7000   4.34746e-28
      25.8000   2.07763e-28
      25.9000   1.27620e-28
      26.0000   5.92063e-29
      26.1000   3.68802e-29
      26.2000   1.65424e-29
      26.3000   1.04772e-29
      26.4000   4.52577e-30
      26.5000   2.92045e-30
      26.6000   1.33373e-30
      26.7000   7.97268e-31
      26.8000   3.88623e-31
      26.9000   2.12916e-31
      27.0000   1.10474e-31
      27.1000   5.55279e-32
      27.2000   3.05355e-32
      27.3000   1.41185e-32
      27.4000   8.21790e-33
      27.5000   3.53091e-33
      27.6000   2.15401e-33
      27.7000   8.52582e-34
      27.8000   5.43327e-34
      27.9000   2.37792e-34
      28.0000   1.32237e-34
      28.1000   6.60252e-35
      28.2000   3.13072e-35
      28.3000   1.74274e-35
      28.4000   7.38933e-36
      28.5000   4.44907e-36
      28.6000   1.70456e-36
      28.7000   1.10517e-36
      28.8000   5.13245e-37
      28.9000   2.80369e-37
      29.0000   1.50209e-37
      29.1000   6.84347e-38
      29.2000   4.05961e-38
      29.3000   1.60940e-38
      29.4000   1.03033e-38
      29.5000   4.58678e-39
      29.6000   2.47798e-39
      29.7000   1.32274e-39
      29.8000   5.67934e-40
      29.9000   3.41184e-40
      30.0000   1.24479e-40
      30.1000   8.12739e-41
      30.2000   3.86366e-41
      30.3000   1.83388e-41
      30.4000   1.07325e-41
      30.5000   4.45753e-42
      30.6000   2.82081e-42
      30.7000   1.20512e-42
      30.8000   6.13769e-43
      30.9000   3.32108e-43
      31.0000   1.24716e-43
      31.1000   7.70714e-44
      31.2000   3.22299e-44
      31.3000   1.54143e-44
      31.4000   9.80909e-45
      31.5000   2.80260e-45
      31.6000   2.80260e-45
      31.7000  -2.80260e-45
      31.8000       0.00000
      31.9000       0.00000
      32.0000       0.00000
      32.1000       0.00000
      32.2000       0.00000
      32.3000       0.00000
      32.4000       0.00000
      32.5000       0.00000
      32.6000       0.00000
      32.7000       0.00000
      32.8000       0.00000
      32.9000       0.00000
      33.0000       0.00000
      33.1000       0.00000
      33.2000       0.00000
      33.3000       0.00000
      33.4000       0.00000
      33.5000       0.00000
      33.6000       0.00000
      33.7000       0.00000
      33.8000       0.00000
      33.9000       0.00000
      34.0000       0.00000
      34.1000       0.00000
      34.2000       0.00000
      34.3000       0.00000
      34.4000       0.00000
      34.5000       0.00000
      34.6000       0.00000
      34.7000       0.00000
      34.8000       0.00000
      34.9000       0.00000
      35.0000       0.00000
      35.1000       0.00000
      35.2000       0.00000
      35.3000       0.00000
      35.4000       0.00000
      35.5000       0.00000
      35.6000       0.00000
      35.7000       0.00000
      35.8000       0.00000
      35.9000       0.00000
      36.0000       0.00000
      36.1000       0.00000
      36.2000       0.00000
      36.3000       0.00000
      36.4000       0.00000
      36.5000       0.00000
      36.6000       0.00000
      36.7000       0.00000
      36.8000       0.00000
      36.9000       0.00000
      37.0000       0.00000
      37.1000       0.00000
      37.2000       0.00000
      37.3000       0.00000
      37.4000       0.00000
      37.5000       0.00000
      37.6000       0.00000
      37.7000       0.00000
      37.8000       0.00000
      37.9000       0.00000
      38.0000       0.00000
      38.1000       0.00000
      38.2000       0.00000
      38.3000       0.00000
      38.4000       0.00000
      38.5000       0.00000
      38.6000       0.00000
      38.7000       0.00000
      38.8000       0.00000
      38.9000       0.00000
      39.0000       0.00000
      39.1000       0.00000
      39.2000       0.00000
      39.3000       0.00000
      39.4000       0.00000
      39.5000       0.00000
      39.6000       0.00000
      39.7000       0.00000
      39.8000       0.00000
      39.9000       0.00000
      40.0000       0.00000
      40.1000       0.00000
      40.2000       0.00000
      40.3000       0.00000
      40.4000       0.00000
      40.5000       0.00000
      40.6000       0.00000
      40.7000       0.00000
      40.8000       0.00000
      40.9000       0.00000
      41.0000       0.00000
      41.1000       0.00000
      41.2000       0.00000
      41.3000       0.00000
      41.4000       0.00000
      41.5000       0.00000
      41.6000       0.00000
      41.7000       0.00000
      41.8000       0.00000
      41.9000       0.00000
      42.0000       0.00000
      42.1000       0.00000
      42.2000       0.00000
      42.3000       0.00000
      42.4000       0.00000
      42.5000       0.00000
      42.6000       0.00000
      42.7000       0.00000
      42.8000       0.00000
      42.9000       0.00000
      43.0000       0.00000
      43.1000       0.00000
      43.2000       0.00000
      43.3000       0.00000
      43.4000       0.00000
      43.5000       0.00000
      43.6000       0.00000
      43.7000       0.00000
      43.8000       0.00000
      43.9000       0.00000
      44.0000       0.00000
      44.1000       0.00000
      44.2000       0.00000
      44.3000       0.00000
      44.4000       0.00000
      44.5000       0.00000
      44.6000       0.00000
      44.7000       0.00000
      44.8000       0.00000
      44.9000       0.00000
      45.0000       0.00000
      45.1000       0.00000
      45.2000       0.00000
      45.3000       0.00000
      45.4000       0.00000
      45.5000       0.00000
      45.6000       0.00000
      45.7000       0.00000
      45.8000       0.00000
      45.9000       0.00000
      46.0000       0.00000
      46.1000       0.00000
      46.2000       0.00000
      46.3000       0.00000
      46.4000       0.00000
      46.5000       0.00000
      46.6000       0.00000
      46.7000       0.00000
      46.8000       0.00000
      46.9000       0.00000
      47.0000       0.00000
      47.1000       0.00000
      47.2000       0.00000
      47.3000       0.00000
      47.4000       0.00000
      47.5000       0.00000
      47.6000       0.00000
      47.7000       0.00000
      47.8000       0.00000
      47.9000       0.00000
      48.0000       0.00000
      48.1000       0.00000
      48.2000       0.00000
      48.3000       0.00000
      48.4000       0.00000
      48.5000       0.00000
      48.6000       0.00000
      48.7000       0.00000
      48.8000       0.00000
      48.9000       0.00000
      49.0000       0.00000
      49.1000       0.00000
      49.2000       0.00000
      49.3000       0.00000
      49.4000       0.00000
      49.5000       0.00000
      49.6000       0.00000
      49.7000       0.00000
      49.8000       0.00000
      49.9000       0.00000
      50.0000       0.00000
      50.1000       0.00000
      50.2000       0.00000
      50.3000       0.00000
      50.4000       0.00000
      50.5000       0.00000
      50.6000       0.00000
      50.7000       0.00000
      50.8000       0.00000
      50.9000       0.00000
      51.0000       0.00000
      51.1000       0.00000
      51.2000       0.00000
      51.3000       0.00000
      51.4000       0.00000
      51.5000       0.00000
      51.6000       0.00000
      51.7000       0.00000
      51.8000       0.00000
      51.9000       0.00000
      52.0000       0.00000
      52.1000       0.00000
      52.2000       0.00000
      52.3000       0.00000
      52.4000       0.00000
      52.5000       0.00000
      52.6000       0.00000
      52.7000       0.00000
      52.8000       0.00000
      52.9000       0.00000
      53.0000       0.00000
      53.1000       0.00000
      53.2000       0.00000
      53.3000       0.00000
      53.4000       0.00000
      53.5000       0.00000
      53.6000       0.00000
      53.7000       0.00000
      53.8000       0.00000
      53.9000       0.00000
      54.0000       0.00000
      54.1000       0.00000
      54.2000       0.00000
      54.3000       0.00000
      54.4000       0.00000
      54.5000       0.00000
      54.6000       0.00000
      54.7000       0.00000
      54.8000       0.00000
      54.9000       0.00000
      55.0000       0.00000
      55.1000       0.00000
      55.2000       0.00000
      55.3000       0.00000
      55.4000       0.00000
      55.5000       0.00000
      55.6000       0.00000
      55.7000       0.00000
      55.8000       0.00000
      55.9000       0.00000
      56.0000       0.00000
      56.1000       0.00000
      56.2000       0.00000
      56.3000       0.00000
      56.4000       0.00000
      56.5000       0.00000
      56.6000       0.00000
      56.7000       0.00000
      56.8000       0.00000
      56.9000       0.00000
      57.0000       0.00000
      57.1000       0.00000
      57.2000       0.00000
      57.3000       0.00000
      57.4000       0.00000
      57.5000       0.00000
      57.6000       0.00000
      57.7000       0.00000
      57.8000       0.00000
      57.9000       0.00000
      58.0000       0.00000
      58.1000       0.00000
      58.2000       0.00000
      58.3000       0.00000
      58.4000       0.00000
      58.5000       0.00000
      58.6000       0.00000
      58.7000       0.00000
      58.8000       0.00000
      58.9000       0.00000
      59.0000       0.00000
      59.1000       0.00000
      59.2000       0.00000
      59.3000       0.00000
      59.4000       0.00000
      59.5000       0.00000
      59.6000       0.00000
      59.7000       0.00000
      59.8000       0.00000
      59.9000       0.00000
      60.0000       0.00000
      60.1000       0.00000
      60.2000       0.00000
      60.3000       0.00000
      60.4000       0.00000
      60.5000       0.00000
      60.6000       0.00000
      60.7000       0.00000
      60.8000       0.00000
      60.9000       0.00000
      61.0000       0.00000
      61.1000       0.00000
      61.2000       0.00000
      61.3000       0.00000
      61.4000       0.00000
      61.5000       0.00000
      61.6000       0.00000
      61.7000       0.00000
      61.8000       0.00000
      61.9000       0.00000
      62.0000       0.00000
      62.1000       0.00000
      62.2000       0.00000
      62.3000       0.00000
      62.4000       0.00000
      62.5000       0.00000
      62.6000       0.00000
      62.7000       0.00000
      62.8000       0.00000
      62.9000       0.00000
      63.0000       0.00000
      63.1000       0.00000
      63.2000       0.00000
      63.3000       0.00000
      63.4000       0.00000
      63.5000       0.00000
      63.6000       0.00000
      63.7000       0.00000
      63.8000       0.00000
      63.9000       0.00000
      64.0000       0.00000
      64.1000       0.00000
      64.2000       0.00000
      64.3000       0.00000
      64.4000       0.00000
      64.5000       0.00000
      64.6000       0.00000
      64.7000       0.00000
      64.8000       0.00000
      64.9000       0.00000
      65.0000       0.00000
      65.1000       0.00000
      65.2000       0.00000
      65.3000       0.00000
      65.4000       0.00000
      65.5000       0.00000
      65.6000       0.00000
      65.7000       0.00000
      65.8000       0.00000
      65.9000       0.00000
      66.0000       0.00000
      66.1000       0.00000
      66.2000       0.00000
      66.3000       0.00000
      66.4000       0.00000
      66.5000       0.00000
      66.6000       0.00000
      66.7000       0.00000
      66.8000       0.00000
      66.9000       0.00000
      67.0000       0.00000
      67.1000       0.00000
      67.2000       0.00000
      67.3000       0.00000
      67.4000       0.00000
      67.5000       0.00000
      67.6000       0.00000
      67.7000       0.00000
      67.8000       0.00000
      67.9000       0.00000
      68.0000       0.00000
      68.1000       0.00000
      68.2000       0.00000
      68.3000       0.00000
      68.4000       0.00000
      68.5000       0.00000
      68.6000       0.00000
      68.7000       0.00000
      68.8000       0.00000
      68.9000       0.00000
      69.0000       0.00000
      69.1000       0.00000
      69.2000       0.00000
      69.3000       0.00000
      69.4000       0.00000
      69.5000       0.00000
      69.6000       0.00000
      69.7000       0.00000
      69.8000       0.00000
      69.9000       0.00000
      70.0000       0.00000
      70.1000       0.00000
      70.2000       0.00000
      70.3000       0.00000
      70.4000       0.00000
      70.5000       0.00000
      70.6000       0.00000
      70.7000       0.00000
      70.8000       0.00000
      70.9000       0.00000
      71.0000       0.00000
      71.1000       0.00000
      71.2000       0.00000
      71.3000       0.00000
      71.4000       0.00000
      71.5000       0.00000
      71.6000       0.00000
      71.7000       0.00000
      71.8000       0.00000
      71.9000       0.00000
      72.0000       0.00000
      72.1000       0.00000
      72.2000       0.00000
      72.3000       0.00000
      72.4000       0.00000
      72.5000       0.00000
      72.6000       0.00000
      72.7000       0.00000
      72.8000       0.00000
      72.9000       0.00000
      73.0000       0.00000
      73.1000       0.00000
      73.2000       0.00000
      73.3000       0.00000
      73.4000       0.00000
      73.5000       0.00000
      73.6000       0.00000
      73.7000       0.00000
      73.8000       0.00000
      73.9000       0.00000
      74.0000       0.00000
      74.1000       0.00000
      74.2000       0.00000
      74.3000       0.00000
      74.4000       0.00000
      74.5000       0.00000
      74.6000       0.00000
      74.7000       0.00000
      74.8000       0.00000
      74.9000       0.00000
      75.0000       0.00000
      75.1000       0.00000
      75.2000       0.00000
      75.3000       0.00000
      75.4000       0.00000
      75.5000       0.00000
      75.6000       0.00000
      75.7000       0.00000
      75.8000       0.00000
      75.9000       0.00000
      76.0000       0.00000
      76.1000       0.00000
      76.2000       0.00000
      76.3000       0.00000
      76.4000       0.00000
      76.5000       0.00000
      76.6000       0.00000
      76.7000       0.00000
      76.8000       0.00000
      76.9000       0.00000
      77.0000       0.00000
      77.1000       0.00000
      77.2000       0.00000
      77.3000       0.00000
      77.4000       0.00000
      77.5000       0.00000
      77.6000       0.00000
      77.7000       0.00000
      77.8000       0.00000
      77.9000       0.00000
      78.0000       0.00000
      78.1000       0.00000
      78.2000       0.00000
      78.3000       0.00000
      78.4000       0.00000
      78.5000       0.00000
      78.6000       0.00000
      78.7000       0.00000
      78.8000       0.00000
      78.9000       0.00000
      79.0000       0.00000
      79.1000       0.00000
      79.2000       0.00000
      79.3000       0.00000
      79.4000       0.00000
      79.5000       0.00000
      79.6000       0.00000
      79.7000       0.00000
      79.8000       0.00000
      79.9000       0.00000
      80.0000       0.00000
      80.1000       0.00000
      80.2000       0.00000
      80.3000       0.00000
      80.4000       0.00000
      80.5000       0.00000
      80.6000       0.00000
      80.7000       0.00000
      80.8000       0.00000
      80.9000       0.00000
      81.0000       0.00000
      81.1000       0.00000
      81.2000       0.00000
      81.3000       0.00000
      81.4000       0.00000
      81.5000       0.00000
      81.6000       0.00000
      81.7000       0.00000
      81.8000       0.00000
      81.9000       0.00000
      82.0000       0.00000
      82.1000       0.00000
      82.2000       0.00000
      82.3000       0.00000
      82.4000       0.00000
      82.5000       0.00000
      82.6000       0.00000
      82.7000       0.00000
      82.8000       0.00000
      82.9000       0.00000
      83.0000       0.00000
      83.1000       0.00000
      83.2000       0.00000
      83.3000       0.00000
      83.4000       0.00000
      83.5000       0.00000
      83.6000       0.00000
      83.7000       0.00000
      83.8000       0.00000
      83.9000       0.00000
      84.0000       0.00000
      84.1000       0.00000
      84.2000       0.00000
      84.3000       0.00000
      84.4000       0.00000
      84.5000       0.00000
      84.6000       0.00000
      84.7000       0.00000
      84.8000       0.00000
      84.9000       0.00000
      85.0000       0.00000
      85.1000       0.00000
      85.2000       0.00000
      85.3000       0.00000
      85.4000       0.00000
      85.5000       0.00000
      85.6000       0.00000
      85.7000       0.00000
      85.8000       0.00000
      85.9000       0.00000
      86.0000       0.00000
      86.1000       0.00000
      86.2000       0.00000
      86.3000       0.00000
      86.4000       0.00000
      86.5000       0.00000
      86.6000       0.00000
      86.7000       0.00000
      86.8000       0.00000
      86.9000       0.00000
      87.0000       0.00000
      87.1000       0.00000
      87.2000       0.00000
      87.3000       0.00000
      87.4000       0.00000
      87.5000       0.00000
      87.6000       0.00000
      87.7000       0.00000
      87.8000       0.00000
      87.9000       0.00000
      88.0000       0.00000
      88.1000       0.00000
      88.2000       0.00000
      88.3000       0.00000
      88.4000       0.00000
      88.5000       0.00000
      88.6000       0.00000
      88.7000       0.00000
      88.8000       0.00000
      88.9000       0.00000
      89.0000       0.00000
      89.1000       0.00000
      89.2000       0.00000
      89.3000       0.00000
      89.4000       0.00000
      89.5000       0.00000
      89.6000       0.00000
      89.7000       0.00000
      89.8000       0.00000
      89.9000       0.00000
      90.0000       0.00000
      90.1000       0.00000
      90.2000       0.00000
      90.3000       0.00000
      90.4000       0.00000
      90.5000       0.00000
      90.6000       0.00000
      90.7000       0.00000
      90.8000       0.00000
      90.9000       0.00000
      91.0000       0.00000
      91.1000       0.00000
      91.2000       0.00000
      91.3000       0.00000
      91.4000       0.00000
      91.5000       0.00000
      91.6000       0.00000
      91.7000       0.00000
      91.8000       0.00000
      91.9000       0.00000
      92.0000       0.00000
      92.1000       0.00000
      92.2000       0.00000
      92.3000       0.00000
      92.4000       0.00000
      92.5000       0.00000
      92.6000       0.00000
      92.7000       0.00000
      92.8000       0.00000
      92.9000       0.00000
      93.0000       0.00000
      93.1000       0.00000
      93.2000       0.00000
      93.3000       0.00000
      93.4000       0.00000
      93.5000       0.00000
      93.6000       0.00000
      93.7000       0.00000
      93.8000       0.00000
      93.9000       0.00000
      94.0000       0.00000
      94.1000       0.00000
      94.2000       0.00000
      94.3000       0.00000
      94.4000       0.00000
      94.5000       0.00000
      94.6000       0.00000
      94.7000       0.00000
      94.8000       0.00000
      94.9000       0.00000
      95.0000       0.00000
      95.1000       0.00000
      95.2000       0.00000
      95.3000       0.00000
      95.4000       0.00000
      95.5000       0.00000
      95.6000       0.00000
      95.7000       0.00000
      95.8000       0.00000
      95.9000       0.00000
      96.0000       0.00000
      96.1000       0.00000
      96.2000       0.00000
      96.3000       0.00000
      96.4000       0.00000
      96.5000       0.00000
      96.6000       0.00000
      96.7000       0.00000
      96.8000       0.00000
      96.9000       0.00000
      97.0000       0.00000
      97.1000       0.00000
      97.2000       0.00000
      97.3000       0.00000
      97.4000       0.00000
      97.5000       0.00000
      97.6000       0.00000
      97.7000       0.00000
      97.8000       0.00000
      97.9000       0.00000
      98.0000       0.00000
      98.1000       0.00000
      98.2000       0.00000
      98.3000       0.00000
      98.4000       0.00000
      98.5000       0.00000
      98.6000       0.00000
      98.7000       0.00000
      98.8000       0.00000
      98.9000       0.00000
      99.0000       0.00000
      99.1000       0.00000
      99.2000       0.00000
      99.3000       0.00000
      99.4000       0.00000
      99.5000       0.00000
      99.6000       0.00000
      99.7000       0.00000
      99.8000       0.00000
      99.9000       0.00000
      100.000       0.00000
      100.100       0.00000
      100.200       0.00000
      100.300       0.00000
      100.400       0.00000
      100.500       0.00000
      100.600       0.00000
      100.700       0.00000
      100.800       0.00000
      100.900       0.00000
      101.000       0.00000
      101.100       0.00000
      101.200       0.00000
      101.300       0.00000
      101.400       0.00000
      101.500       0.00000
      101.600       0.00000
      101.700       0.00000
      101.800       0.00000
      101.900       0.00000
      102.000       0.00000
      102.100       0.00000
      102.200       0.00000
      102.300       0.00000
      102.400       0.00000
      102.500       0.00000
      102.600       0.00000
      102.700       0.00000
      102.800       0.00000
      102.900       0.00000
      103.000       0.00000
      103.100       0.00000
      103.200       0.00000
      103.300       0.00000
      103.400       0.00000
      103.500       0.00000
      103.600       0.00000
      103.700       0.00000
      103.800       0.00000
      103.900       0.00000
      104.000       0.00000
      104.100       0.00000
      104.200       0.00000
      104.300       0.00000
      104.400       0.00000
      104.500       0.00000
      104.600       0.00000
      104.700       0.00000
      104.800       0.00000
      104.900       0.00000
      105.000       0.00000
      105.100       0.00000
      105.200       0.00000
      105.300       0.00000
      105.400       0.00000
      105.500       0.00000
      105.600       0.00000
      105.700       0.00000
      105.800       0.00000
      105.900       0.00000
      106.000       0.00000
      106.100       0.00000
      106.200       0.00000
      106.300       0.00000
      106.400       0.00000
      106.500       0.00000
      106.600       0.00000
      106.700       0.00000
      106.800       0.00000
      106.900       0.00000
      107.000       0.00000
      107.100       0.00000
      107.200       0.00000
      107.300       0.00000
      107.400       0.00000
      107.500       0.00000
      107.600       0.00000
      107.700       0.00000
      107.800       0.00000
      107.900       0.00000
      108.000       0.00000
      108.100       0.00000
      108.200       0.00000
      108.300       0.00000
      108.400       0.00000
      108.500       0.00000
      108.600       0.00000
      108.700       0.00000
      108.800       0.00000
      108.900       0.00000
      109.000       0.00000
      109.100       0.00000
      109.200       0.00000
      109.300       0.00000
      109.400       0.00000
      109.500       0.00000
      109.600       0.00000
      109.700       0.00000
      109.800       0.00000
      109.900       0.00000
      110.000       0.00000
      110.100       0.00000
      110.200       0.00000
      110.300       0.00000
      110.400       0.00000
      110.500       0.00000
      110.600       0.00000
      110.700       0.00000
      110.800       0.00000
      110.900       0.00000
      111.000       0.00000
      111.100       0.00000
      111.200       0.00000
      111.300       0.00000
      111.400       0.00000
      111.500       0.00000
      111.600       0.00000
      111.700       0.00000
      111.800       0.00000
      111.900       0.00000
      112.000       0.00000
      112.100       0.00000
      112.200       0.00000
      112.300       0.00000
      112.400       0.00000
      112.500       0.00000
      112.600       0.00000
      112.700       0.00000
      112.800       0.00000
      112.900       0.00000
      113.000       0.00000
      113.100       0.00000
      113.200       0.00000
      113.300       0.00000
      113.400       0.00000
      113.500       0.00000
      113.600       0.00000
      113.700       0.00000
      113.800       0.00000
      113.900       0.00000
      114.000       0.00000
      114.100       0.00000
      114.200       0.00000
      114.300       0.00000
      114.400       0.00000
      114.500       0.00000
      114.600       0.00000
      114.700       0.00000
      114.800       0.00000
      114.900       0.00000
      115.000       0.00000
      115.100       0.00000
      115.200       0.00000
      115.300       0.00000
      115.400       0.00000
      115.500       0.00000
      115.600       0.00000
      115.700       0.00000
      115.800       0.00000
      115.900       0.00000
      116.000       0.00000
      116.100       0.00000
      116.200       0.00000
      116.300       0.00000
      116.400       0.00000
      116.500       0.00000
      116.600       0.00000
      116.700       0.00000
      116.800       0.00000
      116.900       0.00000
      117.000       0.00000
      117.100       0.00000
      117.200       0.00000
      117.300       0.00000
      117.400       0.00000
      117.500       0.00000
      117.600       0.00000
      117.700       0.00000
      117.800       0.00000
      117.900       0.00000
      118.000       0.00000
      118.100       0.00000
      118.200       0.00000
      118.300       0.00000
      118.400       0.00000
      118.500       0.00000
      118.600       0.00000
      118.700       0.00000
      118.800       0.00000
      118.900       0.00000
      119.000       0.00000
      119.100       0.00000
      119.200       0.00000
      119.300       0.00000
      119.400       0.00000
      119.500       0.00000
      119.600       0.00000
      119.700       0.00000
      119.800       0.00000
      119.900       0.00000
      120.000       0.00000
      120.100       0.00000
      120.200       0.00000
      120.300       0.00000
      120.400       0.00000
      120.500       0.00000
      120.600       0.00000
      120.700       0.00000
      120.800       0.00000
      120.900       0.00000
      121.000       0.00000
      121.100       0.00000
      121.200       0.00000
      121.300       0.00000
      121.400       0.00000
      121.500       0.00000
      121.600       0.00000
      121.700       0.00000
      121.800       0.00000
      121.900       0.00000
      122.000       0.00000
      122.100       0.00000
      122.200       0.00000
      122.300       0.00000
      122.400       0.00000
      122.500       0.00000
      122.600       0.00000
      122.700       0.00000
      122.800       0.00000
      122.900       0.00000
      123.000       0.00000
      123.100       0.00000
      123.200       0.00000
      123.300       0.00000
      123.400       0.00000
      123.500       0.00000
      123.600       0.00000
      123.700       0.00000
      123.800       0.00000
      123.900       0.00000
      124.000       0.00000
      124.100       0.00000
      124.200       0.00000
      124.300       0.00000
      124.400       0.00000
      124.500       0.00000
      124.600       0.00000
      124.700       0.00000
      124.800       0.00000
      124.900       0.00000
      125.000       0.00000
      125.100       0.00000
      125.200       0.00000
      125.300       0.00000
      125.400       0.00000
      125.500       0.00000
      125.600       0.00000
      125.700       0.00000
      125.800       0.00000
      125.900       0.00000
      126.000       0.00000
      126.100       0.00000
      126.200       0.00000
      126.300       0.00000
      126.400       0.00000
      126.500       0.00000
      126.600       0.00000
      126.700       0.00000
      126.800       0.00000
      126.900       0.00000
      127.000       0.00000
      127.100       0.00000
      127.200       0.00000
      127.300       0.00000
      127.400       0.00000
      127.500       0.00000
      127.600       0.00000
      127.700       0.00000
      127.800       0.00000
      127.900       0.00000
      128.000       0.00000
      128.100       0.00000
      128.200       0.00000
      128.300       0.00000
      128.400       0.00000
      128.500       0.00000
      128.600       0.00000
      128.700       0.00000
      128.800       0.00000
      128.900       0.00000
      129.000       0.00000
      129.100       0.00000
      129.200       0.00000
      129.300       0.00000
      129.400       0.00000
      129.500       0.00000
      129.600       0.00000
      129.700       0.00000
      129.800       0.00000
      129.900       0.00000
      130.000       0.00000
      130.100       0.00000
      130.200       0.00000
      130.300       0.00000
      130.400       0.00000
      130.500       0.00000
      130.600       0.00000
      130.700       0.00000
      130.800       0.00000
      130.900       0.00000
      131.000       0.00000
      131.100       0.00000
      131.200       0.00000
      131.300       0.00000
      131.400       0.00000
      131.500       0.00000
      131.600       0.00000
      131.700       0.00000
      131.800       0.00000
      131.900       0.00000
      132.000       0.00000
      132.100       0.00000
      132.200       0.00000
      132.300       0.00000
      132.400       0.00000
      132.500       0.00000
      132.600       0.00000
      132.700       0.00000
      132.800       0.00000
      132.900       0.00000
      133.000       0.00000
      133.100       0.00000
      133.200       0.00000
      133.300       0.00000
      133.400       0.00000
      133.500       0.00000
      133.600       0.00000
      133.700       0.00000
      133.800       0.00000
      133.900       0.00000
      134.000       0.00000
      134.100       0.00000
      134.200       0.00000
      134.300       0.00000
      134.400       0.00000
      134.500       0.00000
      134.600       0.00000
      134.700       0.00000
      134.800       0.00000
      134.900       0.00000
      135.000       0.00000
      135.100       0.00000
      135.200       0.00000
      135.300       0.00000
      135.400       0.00000
      135.500       0.00000
      135.600       0.00000
      135.700       0.00000
      135.800       0.00000
      135.900       0.00000
      136.000       0.00000
      136.100       0.00000
      136.200       0.00000
      136.300       0.00000
      136.400       0.00000
      136.500       0.00000
      136.600       0.00000
      136.700       0.00000
      136.800       0.00000
      136.900       0.00000
      137.000       0.00000
      137.100       0.00000
      137.200       0.00000
      137.300       0.00000
      137.400       0.00000
      137.500       0.00000
      137.600       0.00000
      137.700       0.00000
      137.800       0.00000
      137.900       0.00000
      138.000       0.00000
      138.100       0.00000
      138.200       0.00000
      138.300       0.00000
      138.400       0.00000
      138.500       0.00000
      138.600       0.00000
      138.700       0.00000
      138.800       0.00000
      138.900       0.00000
      139.000       0.00000
      139.100       0.00000
      139.200       0.00000
      139.300       0.00000
      139.400       0.00000
      139.500       0.00000
      139.600       0.00000
      139.700       0.00000
      139.800       0.00000
      139.900       0.00000
      140.000       0.00000
      140.100       0.00000
      140.200       0.00000
      140.300       0.00000
      140.400       0.00000
      140.500       0.00000
      140.600       0.00000
      140.700       0.00000
      140.800       0.00000
      140.900       0.00000
      141.000       0.00000
      141.100       0.00000
      141.200       0.00000
      141.300       0.00000
      141.400       0.00000
      141.500       0.00000
      141.600       0.00000
      141.700       0.00000
      141.800       0.00000
      141.900       0.00000
      142.000       0.00000
      142.100       0.00000
      142.200       0.00000
      142.300       0.00000
      142.400       0.00000
      142.500       0.00000
      142.600       0.00000
      142.700       0.00000
      142.800       0.00000
      142.900       0.00000
      143.000       0.00000
      143.100       0.00000
      143.200       0.00000
      143.300       0.00000
      143.400       0.00000
      143.500       0.00000
      143.600       0.00000
      143.700       0.00000
      143.800       0.00000
      143.900       0.00000
      144.000       0.00000
      144.100       0.00000
      144.200       0.00000
      144.300       0.00000
      144.400       0.00000
      144.500       0.00000
      144.600       0.00000
      144.700       0.00000
      144.800       0.00000
      144.900       0.00000
      145.000       0.00000
      145.100       0.00000
      145.200       0.00000
      145.300       0.00000
      145.400       0.00000
      145.500       0.00000
      145.600       0.00000
      145.700       0.00000
      145.800       0.00000
      145.900       0.00000
      146.000       0.00000
      146.100       0.00000
      146.200       0.00000
      146.300       0.00000
      146.400       0.00000
      146.500       0.00000
      146.600       0.00000
      146.700       0.00000
      146.800       0.00000
      146.900       0.00000
      147.000       0.00000
      147.100       0.00000
      147.200       0.00000
      147.300       0.00000
      147.400       0.00000
      147.500       0.00000
      147.600       0.00000
      147.700       0.00000
      147.800       0.00000
      147.900       0.00000
      148.000       0.00000
      148.100       0.00000
      148.200       0.00000
      148.300       0.00000
      148.400       0.00000
      148.500       0.00000
      148.600       0.00000
      148.700       0.00000
      148.800       0.00000
      148.900       0.00000
      149.000       0.00000
      149.100       0.00000
      149.200       0.00000
      149.300       0.00000
      149.400       0.00000
      149.500       0.00000
      149.600       0.00000
      149.700       0.00000
      149.800       0.00000
      149.900       0.00000
      150.000       0.00000
      150.100       0.00000
      150.200       0.00000
      150.300       0.00000
      150.400       0.00000
      150.500       0.00000
      150.600       0.00000
      150.700       0.00000
      150.800       0.00000
      150.900       0.00000
      151.000       0.00000
      151.100       0.00000
      151.200       0.00000
      151.300       0.00000
      151.400       0.00000
      151.500       0.00000
      151.600       0.00000
      151.700       0.00000
      151.800       0.00000
      151.900       0.00000
      152.000       0.00000
      152.100       0.00000
      152.200       0.00000
      152.300       0.00000
      152.400       0.00000
      152.500       0.00000
      152.600       0.00000
      152.700       0.00000
      152.800       0.00000
      152.900       0.00000
      153.000       0.00000
      153.100       0.00000
      153.200       0.00000
      153.300       0.00000
      153.400       0.00000
      153.500       0.00000
      153.600       0.00000
      153.700       0.00000
      153.800       0.00000
      153.900       0.00000
      154.000       0.00000
      154.100       0.00000
      154.200       0.00000
      154.300       0.00000
      154.400       0.00000
      154.500       0.00000
      154.600       0.00000
      154.700       0.00000
      154.800       0.00000
      154.900       0.00000
      155.000       0.00000
      155.100       0.00000
      155.200       0.00000
      155.300       0.00000
      155.400       0.00000
      155.500       0.00000
      155.600       0.00000
      155.700       0.00000
      155.800       0.00000
      155.900       0.00000
      156.000       0.00000
      156.100       0.00000
      156.200       0.00000
      156.300       0.00000
      156.400       0.00000
      156.500       0.00000
      156.600       0.00000
      156.700       0.00000
      156.800       0.00000
      156.900       0.00000
      157.000       0.00000
      157.100       0.00000
      157.200       0.00000
      157.300       0.00000
      157.400       0.00000
      157.500       0.00000
      157.600       0.00000
      157.700       0.00000
      157.800       0.00000
      157.900       0.00000
      158.000       0.00000
      158.100       0.00000
      158.200       0.00000
      158.300       0.00000
      158.400       0.00000
      158.500       0.00000
      158.600       0.00000
      158.700       0.00000
      158.800       0.00000
      158.900       0.00000
      159.000       0.00000
      159.100       0.00000
      159.200       0.00000
      159.300       0.00000
      159.400       0.00000
      159.500       0.00000
      159.600       0.00000
      159.700       0.00000
      159.800       0.00000
      159.900       0.00000
      160.000       0.00000
      160.100       0.00000
      160.200       0.00000
      160.300       0.00000
      160.400       0.00000
      160.500       0.00000
      160.600       0.00000
      160.700       0.00000
      160.800       0.00000
      160.900       0.00000
      161.000       0.00000
      161.100       0.00000
      161.200       0.00000
      161.300       0.00000
      161.400       0.00000
      161.500       0.00000
      161.600       0.00000
      161.700       0.00000
      161.800       0.00000
      161.900       0.00000
      162.000       0.00000
      162.100       0.00000
      162.200       0.00000
      162.300       0.00000
      162.400       0.00000
      162.500       0.00000
      162.600       0.00000
      162.700       0.00000
      162.800       0.00000
      162.900       0.00000
      163.000       0.00000
      163.100       0.00000
      163.200       0.00000
      163.300       0.00000
      163.400       0.00000
      163.500       0.00000
      163.600       0.00000
      163.700       0.00000
      163.800       0.00000
      163.900       0.00000
      164.000       0.00000
      164.100       0.00000
      164.200       0.00000
      164.300       0.00000
      164.400       0.00000
      164.500       0.00000
      164.600       0.00000
      164.700       0.00000
      164.800       0.00000
      164.900       0.00000
      165.000       0.00000
      165.100       0.00000
      165.200       0.00000
      165.300       0.00000
      165.400       0.00000
      165.500       0.00000
      165.600       0.00000
      165.700       0.00000
      165.800       0.00000
      165.900       0.00000
      166.000       0.00000
      166.100       0.00000
      166.200       0.00000
      166.300       0.00000
      166.400       0.00000
      166.500       0.00000
      166.600       0.00000
      166.700       0.00000
      166.800       0.00000
      166.900       0.00000
      167.000       0.00000
      167.100       0.00000
      167.200       0.00000
      167.300       0.00000
      167.400       0.00000
      167.500       0.00000
      167.600       0.00000
      167.700       0.00000
      167.800       0.00000
      167.900       0.00000
      168.000       0.00000
      168.100       0.00000
      168.200       0.00000
      168.300       0.00000
      168.400       0.00000
      168.500       0.00000
      168.600       0.00000
      168.700       0.00000
      168.800       0.00000
      168.900       0.00000
      169.000       0.00000
      169.100       0.00000
      169.200       0.00000
      169.300       0.00000
      169.400       0.00000
      169.500       0.00000
      169.600       0.00000
      169.700       0.00000
      169.800       0.00000
      169.900       0.00000
      170.000       0.00000
      170.100       0.00000
      170.200       0.00000
      170.300       0.00000
      170.400       0.00000
      170.500       0.00000
      170.600   5.58838e-42
      170.700   8.32212e-27
      170.800   1.16675e-22
      170.900   1.93140e-22
      171.000   1.96524e-22
      171.100   1.99939e-22
      171.200   2.03384e-22
      171.300   2.06863e-22
      171.400   2.10366e-22
      171.500   2.13897e-22
      171.600   2.17458e-22
      171.700   2.21053e-22
      171.800   2.24682e-22
      171.900   2.28343e-22
      172.000   2.32046e-22
      172.100   2.35799e-22
      172.200   2.39598e-22
      172.300   2.43443e-22
      172.400   2.47319e-22
      172.500   2.51243e-22
      172.600   2.55230e-22
      172.700   2.59275e-22
      172.800   2.63377e-22
      172.900   2.67550e-22
      173.000   2.71780e-22
      173.100   2.76074e-22
      173.200   2.80435e-22
      173.300   2.84865e-22
      173.400   2.89369e-22
      173.500   2.93939e-22
      173.600   2.98582e-22
      173.700   3.03296e-22
      173.800   3.08091e-22
      173.900   3.12949e-22
      174.000   3.17883e-22
      174.100   3.22904e-22
      174.200   3.27992e-22
      174.300   3.33148e-22
      174.400   3.38389e-22
      174.500   3.43701e-22
      174.600   3.49096e-22
      174.700   3.54567e-22
      174.800   3.60109e-22
      174.900   3.65731e-22
      175.000   3.71437e-22
      175.100   3.77207e-22
      175.200   3.83075e-22
      175.300   3.89010e-22
      175.400   3.95037e-22
      175.500   4.01140e-22
      175.600   4.07317e-22
      175.700   4.13581e-22
      175.800   4.19937e-22
      175.900   4.26370e-22
      176.000   4.32881e-22
      176.100   4.39483e-22
      176.200   4.46171e-22
      176.300   4.52953e-22
      176.400   4.59817e-22
      176.500   4.66765e-22
      176.600   4.73815e-22
      176.700   4.80946e-22
      176.800   4.88161e-22
      176.900   4.95466e-22
      177.000   5.02870e-22
      177.100   5.10364e-22
      177.200   5.17938e-22
      177.300   5.25600e-22
      177.400   5.33361e-22
      177.500   5.41207e-22
      177.600   5.49137e-22
      177.700   5.57154e-22
      177.800   5.65255e-22
      177.900   5.73452e-22
      178.000   5.81772e-22
      178.100   5.90168e-22
      178.200   5.98659e-22
      178.300   6.07250e-22
      178.400   6.15922e-22
      178.500   6.24684e-22
      178.600   6.33544e-22
      178.700   6.42511e-22
      178.800   6.51560e-22
      178.900   6.60697e-22
      179.000   6.69929e-22
      179.100   6.79266e-22
      179.200   6.88716e-22
      179.300   6.98253e-22
      179.400   7.07895e-22
      179.500   7.17648e-22
      179.600   7.27537e-22
      179.700   7.37513e-22
      179.800   7.47600e-22
      179.900   7.57803e-22
      180.000   7.68147e-22
      180.100   7.78585e-22
      180.200   7.89155e-22
      180.300   7.99840e-22
      180.400   8.10673e-22
      180.500   8.21631e-22
      180.600   8.32703e-22
      180.700   8.43906e-22
      180.800   8.55407e-22
      180.900   8.67323e-22
      181.000   8.79511e-22
      181.100   8.91832e-22
      181.200   9.04326e-22
      181.300   9.16993e-22
      181.400   9.29796e-22
      181.500   9.42751e-22
      181.600   9.55881e-22
      181.700   9.69186e-22
      181.800   9.82634e-22
      181.900   9.96254e-22
      182.000   1.01006e-21
      182.100   1.02401e-21
      182.200   1.03818e-21
      182.300   1.05250e-21
      182.400   1.06699e-21
      182.500   1.08166e-21
      182.600   1.09654e-21
      182.700   1.11158e-21
      182.800   1.12679e-21
      182.900   1.14220e-21
      183.000   1.15780e-21
      183.100   1.17358e-21
      183.200   1.18955e-21
      183.300   1.20572e-21
      183.400   1.22210e-21
      183.500   1.23866e-21
      183.600   1.25542e-21
      183.700   1.27316e-21
      183.800   1.29447e-21
      183.900   1.31816e-21
      184.000   1.34220e-21
      184.100   1.36669e-21
      184.200   1.39158e-21
      184.300   1.41692e-21
      184.400   1.44267e-21
      184.500   1.46881e-21
      184.600   1.49538e-21
      184.700   1.52241e-21
      184.800   1.54987e-21
      184.900   1.57776e-21
      185.000   1.60608e-21
      185.100   1.63488e-21
      185.200   1.66414e-21
      185.300   1.69383e-21
      185.400   1.72397e-21
      185.500   1.75458e-21
      185.600   1.78567e-21
      185.700   1.81728e-21
      185.800   1.84937e-21
      185.900   1.88193e-21
      186.000   1.91506e-21
      186.100   1.94863e-21
      186.200   1.98267e-21
      186.300   2.01722e-21
      186.400   2.05230e-21
      186.500   2.08790e-21
      186.600   2.12398e-21
      186.700   2.16053e-21
      186.800   2.19760e-21
      186.900   2.23522e-21
      187.000   2.27338e-21
      187.100   2.31200e-21
      187.200   2.35120e-21
      187.300   2.39102e-21
      187.400   2.43136e-21
      187.500   2.47223e-21
      187.600   2.51365e-21
      187.700   2.55562e-21
      187.800   2.59820e-21
      187.900   2.64136e-21
      188.000   2.68503e-21
      188.100   2.72926e-21
      188.200   2.77411e-21
      188.300   2.81957e-21
      188.400   2.86564e-21
      188.500   2.91229e-21
      188.600   2.95957e-21
      188.700   3.00758e-21
      188.800   3.05616e-21
      188.900   3.10535e-21
      189.000   3.15519e-21
      189.100   3.20575e-21
      189.200   3.25695e-21
      189.300   3.30877e-21
      189.400   3.36126e-21
      189.500   3.41446e-21
      189.600   3.46843e-21
      189.700   3.52302e-21
      189.800   3.57867e-21
      189.900   3.63516e-21
      190.000   3.69251e-21
      190.100   3.75055e-21
      190.200   3.80938e-21
      190.300   3.86897e-21
      190.400   3.92941e-21
      190.500   3.99067e-21
      190.600   4.05271e-21
      190.700   4.11559e-21
      190.800   4.17929e-21
      190.900   4.24386e-21
      191.000   4.30950e-21
      191.100   4.37597e-21
      191.200   4.44336e-21
      191.300   4.51164e-21
      191.400   4.58089e-21
      191.500   4.65109e-21
      191.600   4.72217e-21
      191.700   4.79421e-21
      191.800   4.86729e-21
      191.900   4.94128e-21
      192.000   5.01620e-21
      192.100   5.09221e-21
      192.200   5.16937e-21
      192.300   5.24751e-21
      192.400   5.32680e-21
      192.500   5.40709e-21
      192.600   5.48835e-21
      192.700   5.57068e-21
      192.800   5.64938e-21
      192.900   5.71704e-21
      193.000   5.78415e-21
      193.100   5.85201e-21
      193.200   5.92074e-21
      193.300   5.99004e-21
      193.400   6.05998e-21
      193.500   6.13064e-21
      193.600   6.20205e-21
      193.700   6.27417e-21
      193.800   6.34695e-21
      193.900   6.42034e-21
      194.000   6.49456e-21
      194.100   6.56975e-21
      194.200   6.64554e-21
      194.300   6.72210e-21
      194.400   6.79941e-21
      194.500   6.87758e-21
      194.600   6.95651e-21
      194.700   7.03608e-21
      194.800   7.11644e-21
      194.900   7.19762e-21
      195.000   7.27961e-21
      195.100   7.36272e-21
      195.200   7.44642e-21
      195.300   7.53091e-21
      195.400   7.61623e-21
      195.500   7.70242e-21
      195.600   7.78940e-21
      195.700   7.87707e-21
      195.800   7.96446e-21
      195.900   8.04439e-21
      196.000   7.84190e-21
      196.100   7.64091e-21
      196.200   7.44500e-21
      196.300   7.25402e-21
      196.400   7.06786e-21
      196.500   6.88632e-21
      196.600   6.70938e-21
      196.700   6.53688e-21
      196.800   6.36885e-21
      196.900   6.20529e-21
      197.000   6.04582e-21
      197.100   5.89030e-21
      197.200   5.73867e-21
      197.300   5.59080e-21
      197.400   5.44656e-21
      197.500   5.30590e-21
      197.600   5.16877e-21
      197.700   5.03538e-21
      197.800   4.90540e-21
      197.900   4.77857e-21
      198.000   4.65490e-21
      198.100   4.53431e-21
      198.200   4.41670e-21
      198.300   4.30201e-21
      198.400   4.19021e-21
      198.500   4.08142e-21
      198.600   3.97544e-21
      198.700   3.87209e-21
      198.800   3.77133e-21
      198.900   3.67312e-21
      199.000   3.57733e-21
      199.100   3.48395e-21
      199.200   3.39296e-21
      199.300   3.30446e-21
      199.400   3.21828e-21
      199.500   3.13427e-21
      199.600   3.05235e-21
      199.700   2.97251e-21
      199.800   2.89470e-21
      199.900   2.81886e-21
      200.000   2.74493e-21
      200.100   2.67318e-21
      200.200   2.60317e-21
      200.300   2.53498e-21
      200.400   2.46853e-21
      200.500   2.40378e-21
      200.600   2.34071e-21
      200.700   2.27926e-21
      200.800   2.21936e-21
      200.900   2.16104e-21
      201.000   2.10426e-21
      201.100   2.04899e-21
      201.200   1.99515e-21
      201.300   1.94268e-21
      201.400   1.89160e-21
      201.500   1.84181e-21
      201.600   1.79331e-21
      201.700   1.74608e-21
      201.800   1.70007e-21
      201.900   1.65527e-21
      202.000   1.61170e-21
      202.100   1.56924e-21
      202.200   1.52789e-21
      202.300   1.48795e-21
      202.400   1.44976e-21
      202.500   1.41273e-21
      202.600   1.37660e-21
      202.700   1.34142e-21
      202.800   1.30714e-21
      202.900   1.27375e-21
      203.000   1.24122e-21
      203.100   1.20954e-21
      203.200   1.17864e-21
      203.300   1.14854e-21
      203.400   1.11920e-21
      203.500   1.09061e-21
      203.600   1.06276e-21
      203.700   1.03562e-21
      203.800   1.00920e-21
      203.900   9.83489e-22
      204.000   9.58429e-22
      204.100   9.34014e-22
      204.200   9.10236e-22
      204.300   8.87064e-22
      204.400   8.64491e-22
      204.500   8.42501e-22
      204.600   8.21071e-22
      204.700   8.00196e-22
      204.800   7.79884e-22
      204.900   7.60104e-22
      205.000   7.40834e-22
      205.100   7.22061e-22
      205.200   7.03767e-22
      205.300   6.85949e-22
      205.400   6.68588e-22
      205.500   6.51671e-22
      205.600   6.34151e-22
      205.700   6.16179e-22
      205.800   5.98582e-22
      205.900   5.81505e-22
      206.000   5.64936e-22
      206.100   5.48835e-22
      206.200   5.33191e-22
      206.300   5.17999e-22
      206.400   5.03243e-22
      206.500   4.88899e-22
      206.600   4.74967e-22
      206.700   4.61435e-22
      206.800   4.48279e-22
      206.900   4.35498e-22
      207.000   4.23085e-22
      207.100   4.11034e-22
      207.200   3.99332e-22
      207.300   3.87957e-22
      207.400   3.76903e-22
      207.500   3.66159e-22
      207.600   3.55722e-22
      207.700   3.45577e-22
      207.800   3.35717e-22
      207.900   3.26134e-22
      208.000   3.16824e-22
      208.100   3.07777e-22
      208.200   2.98983e-22
      208.300   2.90440e-22
      208.400   2.82148e-22
      208.500   2.74090e-22
      208.600   2.66256e-22
      208.700   2.58643e-22
      208.800   2.51247e-22
      208.900   2.43355e-22
      209.000   2.34464e-22
      209.100   2.25599e-22
      209.200   2.17064e-22
      209.300   2.08845e-22
      209.400   2.00937e-22
      209.500   1.93322e-22
      209.600   1.85992e-22
      209.700   1.78942e-22
      209.800   1.72165e-22
      209.900   1.65638e-22
      210.000   1.59358e-22
      210.100   1.53312e-22
      210.200   1.47493e-22
      210.300   1.41891e-22
      210.400   1.36499e-22
      210.500   1.31309e-22
      210.600   1.26315e-22
      210.700   1.21507e-22
      210.800   1.16880e-22
      210.900   1.12426e-22
      211.000   1.08139e-22
      211.100   1.04015e-22
      211.200   1.00044e-22
      211.300   9.62297e-23
      211.400   9.25604e-23
      211.500   8.90272e-23
      211.600   8.56277e-23
      211.700   8.23565e-23
      211.800   7.92062e-23
      211.900   7.61747e-23
      212.000   7.32593e-23
      212.100   7.04528e-23
      212.200   6.77514e-23
      212.300   6.51526e-23
      212.400   6.26514e-23
      212.500   6.02451e-23
      212.600   5.79299e-23
      212.700   5.57021e-23
      212.800   5.35583e-23
      212.900   5.14963e-23
      213.000   4.95127e-23
      213.100   4.76066e-23
      213.200   4.57729e-23
      213.300   4.40084e-23
      213.400   4.23109e-23
      213.500   4.06779e-23
      213.600   3.91068e-23
      213.700   3.75961e-23
      213.800   3.61423e-23
      213.900   3.47447e-23
      214.000   3.33999e-23
      214.100   3.21066e-23
      214.200   3.08632e-23
      214.300   2.96669e-23
      214.400   2.85164e-23
      214.500   2.74102e-23
      214.600   2.63467e-23
      214.700   2.53239e-23
      214.800   2.43404e-23
      214.900   2.33951e-23
      215.000   2.24858e-23
      215.100   2.16119e-23
      215.200   2.07724e-23
      215.300   1.99657e-23
      215.400   1.91899e-23
      215.500   1.84440e-23
      215.600   1.77275e-23
      215.700   1.70382e-23
      215.800   1.63756e-23
      215.900   1.57389e-23
      216.000   1.51267e-23
      216.100   1.45382e-23
      216.200   1.39726e-23
      216.300   1.34289e-23
      216.400   1.29065e-23
      216.500   1.24041e-23
      216.600   1.19213e-23
      216.700   1.14574e-23
      216.800   1.10114e-23
      216.900   1.05828e-23
      217.000   1.01708e-23
      217.100   9.77475e-24
      217.200   9.39422e-24
      217.300   9.02844e-24
      217.400   8.67680e-24
      217.500   8.33902e-24
      217.600   8.01427e-24
      217.700   7.70201e-24
      217.800   7.40204e-24
      217.900   7.11382e-24
      218.000   6.83696e-24
      218.100   6.57081e-24
      218.200   6.31506e-24
      218.300   6.06927e-24
      218.400   5.83307e-24
      218.500   5.60592e-24
      218.600   5.38768e-24
      218.700   5.17787e-24
      218.800   4.97622e-24
      218.900   4.78248e-24
      219.000   4.59619e-24
      219.100   4.41711e-24
      219.200   4.24503e-24
      219.300   4.07962e-24
      219.400   3.92059e-24
      219.500   3.76776e-24
      219.600   3.62087e-24
      219.700   3.47970e-24
      219.800   3.34403e-24
      219.900   3.21361e-24
      220.000   3.08824e-24
      220.100   2.96776e-24
      220.200   2.85194e-24
      220.300   2.74064e-24
      220.400   2.63366e-24
      220.500   2.53086e-24
      220.600   2.43207e-24
      220.700   2.33708e-24
      220.800   2.24576e-24
      220.900   2.15805e-24
      221.000   2.07372e-24
      221.100   1.99265e-24
      221.200   1.91476e-24
      221.300   1.83990e-24
      221.400   1.76795e-24
      221.500   1.69880e-24
      221.600   1.63235e-24
      221.700   1.56846e-24
      221.800   1.50705e-24
      221.900   1.44804e-24
      222.000   1.39135e-24
      222.100   1.33683e-24
      222.200   1.28446e-24
      222.300   1.23411e-24
      222.400   1.18573e-24
      222.500   1.13922e-24
      222.600   1.09454e-24
      222.700   1.05159e-24
      222.800   1.01031e-24
      222.900   9.70640e-25
      223.000   9.32516e-25
      223.100   8.95872e-25
      223.200   8.60664e-25
      223.300   8.26823e-25
      223.400   7.94310e-25
      223.500   7.63047e-25
      223.600   7.33021e-25
      223.700   7.04158e-25
      223.800   6.76416e-25
      223.900   6.49779e-25
      224.000   6.24163e-25
      224.100   5.99550e-25
      224.200   5.75897e-25
      224.300   5.53173e-25
      224.400   5.31331e-25
      224.500   5.10347e-25
      224.600   4.90176e-25
      224.700   4.70807e-25
      224.800   4.52191e-25
      224.900   4.34300e-25
      225.000   4.17112e-25
      225.100   4.00594e-25
      225.200   3.84721e-25
      225.300   3.69482e-25
      225.400   3.54831e-25
      225.500   3.40753e-25
      225.600   3.27228e-25
      225.700   3.14240e-25
      225.800   3.01755e-25
      225.900   2.89763e-25
      226.000   2.78245e-25
      226.100   2.67177e-25
      226.200   2.56543e-25
      226.300   2.46349e-25
      226.400   2.36568e-25
      226.500   2.27164e-25
      226.600   2.18125e-25
      226.700   2.09444e-25
      226.800   2.01098e-25
      226.900   1.93080e-25
      227.000   1.85379e-25
      227.100   1.77980e-25
      227.200   1.70874e-25
      227.300   1.64049e-25
      227.400   1.57493e-25
      227.500   1.51197e-25
      227.600   1.45148e-25
      227.700   1.39340e-25
      227.800   1.33761e-25
      227.900   1.28404e-25
      228.000   1.23260e-25
      228.100   1.18319e-25
      228.200   1.13573e-25
      228.300   1.09016e-25
      228.400   1.04642e-25
      228.500   1.00439e-25
      228.600   9.64051e-26
      228.700   9.25312e-26
      228.800   8.88107e-26
      228.900   8.52405e-26
      229.000   8.18114e-26
      229.100   7.85194e-26
      229.200   7.53585e-26
      229.300   7.23241e-26
      229.400   6.94110e-26
      229.500   6.66145e-26
      229.600   6.39293e-26
      229.700   6.13520e-26
      229.800   5.88776e-26
      229.900   5.65026e-26
      230.000   5.42013e-26
      230.100   5.18395e-26
      230.200   4.95749e-26
      230.300   4.74099e-26
      230.400   4.53383e-26
      230.500   4.33571e-26
      230.600   4.14633e-26
      230.700   3.96512e-26
      230.800   3.79183e-26
      230.900   3.62608e-26
      231.000   3.46749e-26
      231.100   3.31582e-26
      231.200   3.17073e-26
      231.300   3.03199e-26
      231.400   2.89934e-26
      231.500   2.77237e-26
      231.600   2.65092e-26
      231.700   2.53481e-26
      231.800   2.42376e-26
      231.900   2.31753e-26
      232.000   2.21594e-26
      232.100   2.11876e-26
      232.200   2.02584e-26
      232.300   1.93698e-26
      232.400   1.85198e-26
      232.500   1.77067e-26
      232.600   1.69294e-26
      232.700   1.61859e-26
      232.800   1.54750e-26
      232.900   1.47950e-26
      233.000   1.41448e-26
      233.100   1.35231e-26
      233.200   1.29284e-26
      233.300   1.23599e-26
      233.400   1.18162e-26
      233.500   1.12968e-26
      233.600   1.08003e-26
      233.700   1.03254e-26
      233.800   9.81748e-27
      233.900   9.32721e-27
      234.000   8.86112e-27
      234.100   8.41827e-27
      234.200   7.99745e-27
      234.300   7.59748e-27
      234.400   7.21734e-27
      234.500   6.85610e-27
      234.600   6.51274e-27
      234.700   6.18652e-27
      234.800   5.87658e-27
      234.900   5.58197e-27
      235.000   5.30196e-27
      235.100   5.03594e-27
      235.200   4.78317e-27
      235.300   4.54299e-27
      235.400   4.31476e-27
      235.500   4.09791e-27
      235.600   3.89194e-27
      235.700   3.69626e-27
      235.800   3.51070e-27
      235.900   3.33439e-27
      236.000   3.16688e-27
      236.100   3.00769e-27
      236.200   2.85644e-27
      236.300   2.71272e-27
      236.400   2.57623e-27
      236.500   2.44652e-27
      236.600   2.32329e-27
      236.700   2.20622e-27
      236.800   2.09498e-27
      236.900   1.98931e-27
      237.000   1.88893e-27
      237.100   1.79355e-27
      237.200   1.70297e-27
      237.300   1.61692e-27
      237.400   1.53518e-27
      237.500   1.45751e-27
      237.600   1.38379e-27
      237.700   1.31389e-27
      237.800   1.24750e-27
      237.900   1.18443e-27
      238.000   1.12453e-27
      238.100   1.06761e-27
      238.200   1.01355e-27
      238.300   9.62194e-28
      238.400   9.13416e-28
      238.500   8.67076e-28
      238.600   8.23069e-28
      238.700   7.81281e-28
      238.800   7.41583e-28
      238.900   7.03881e-28
      239.000   6.68067e-28
      239.100   6.34060e-28
      239.200   6.01771e-28
      239.300   5.71151e-28
      239.400   5.42115e-28
      239.500   5.14537e-28
      239.600   4.88337e-28
      239.700   4.63471e-28
      239.800   4.39847e-28
      239.900   4.17412e-28
      240.000   3.96108e-28
      240.100   3.75872e-28
      240.200   3.56657e-28
      240.300   3.38413e-28
      240.400   3.21084e-28
      240.500   3.04640e-28
      240.600   2.89026e-28
      240.700   2.74200e-28
      240.800   2.60146e-28
      240.900   2.46824e-28
      241.000   2.34177e-28
      241.100   2.22168e-28
      241.200   2.10768e-28
      241.300   1.99942e-28
      241.400   1.89667e-28
      241.500   1.79912e-28
      241.600   1.70652e-28
      241.700   1.61861e-28
      241.800   1.53515e-28
      241.900   1.45593e-28
      242.000   1.38075e-28
      242.100   1.30941e-28
      242.200   1.24184e-28
      242.300   1.17782e-28
      242.400   1.11704e-28
      242.500   1.05934e-28
      242.600   1.00459e-28
      242.700   9.52615e-29
      242.800   9.03304e-29
      242.900   8.56506e-29
      243.000   8.12098e-29
      243.100   7.69959e-29
      243.200   7.29961e-29
      243.300   6.92018e-29
      243.400   6.56033e-29
      243.500   6.21952e-29
      243.600   5.89690e-29
      243.700   5.59062e-29
      243.800   5.30004e-29
      243.900   5.02445e-29
      244.000   4.76289e-29
      244.100   4.51477e-29
      244.200   4.27942e-29
      244.300   4.05609e-29
      244.400   3.84428e-29
      244.500   3.64338e-29
      244.600   3.45280e-29
      244.700   3.27234e-29
      244.800   3.10166e-29
      244.900   2.93976e-29
      245.000   2.78613e-29
      245.100   2.64043e-29
      245.200   2.50229e-29
      245.300   2.37127e-29
      245.400   2.24696e-29
      245.500   2.12913e-29
      245.600   2.01736e-29
      245.700   1.91135e-29
      245.800   1.81082e-29
      245.900   1.71584e-29
      246.000   1.62591e-29
      246.100   1.54059e-29
      246.200   1.45969e-29
      246.300   1.38297e-29
      246.400   1.31023e-29
      246.500   1.24126e-29
      246.600   1.17585e-29
      246.700   1.11385e-29
      246.800   1.05504e-29
      246.900   9.99306e-30
      247.000   9.46645e-30
      247.100   8.96789e-30
      247.200   8.49525e-30
      247.300   8.04719e-30
      247.400   7.62234e-30
      247.500   7.21954e-30
      247.600   6.83770e-30
      247.700   6.47574e-30
      247.800   6.13262e-30
      247.900   5.80737e-30
      248.000   5.49915e-30
      248.100   5.20868e-30
      248.200   4.93323e-30
      248.300   4.67207e-30
      248.400   4.42453e-30
      248.500   4.18984e-30
      248.600   3.96742e-30
      248.700   3.75665e-30
      248.800   3.55688e-30
      248.900   3.36757e-30
      249.000   3.18819e-30
      249.100   3.01896e-30
      249.200   2.85877e-30
      249.300   2.70689e-30
      249.400   2.56295e-30
      249.500   2.42656e-30
      249.600   2.29729e-30
      249.700   2.17479e-30
      249.800   2.05873e-30
      249.900   1.94875e-30
      250.000   1.84456e-30
      250.100   1.74619e-30
      250.200   1.65312e-30
      250.300   1.56503e-30
      250.400   1.48154e-30
      250.500   1.40248e-30
      250.600   1.32758e-30
      250.700   1.25663e-30
      250.800   1.18943e-30
      250.900   1.12579e-30
      251.000   1.06551e-30
      251.100   1.00841e-30
      251.200   9.54439e-31
      251.300   9.03432e-31
      251.400   8.55128e-31
      251.500   8.09358e-31
      251.600   7.66015e-31
      251.700   7.24994e-31
      251.800   6.86133e-31
      251.900   6.49330e-31
      252.000   6.14476e-31
      252.100   5.81489e-31
      252.200   5.50243e-31
      252.300   5.20706e-31
      252.400   4.92782e-31
      252.500   4.66358e-31
      252.600   4.41328e-31
      252.700   4.17632e-31
      252.800   3.95198e-31
      252.900   3.73956e-31
      253.000   3.53842e-31
      253.100   3.34803e-31
      253.200   3.16778e-31
      253.300   2.99857e-31
      253.400   2.83896e-31
      253.500   2.68799e-31
      253.600   2.54525e-31
      253.700   2.40998e-31
      253.800   2.28187e-31
      253.900   2.16051e-31
      254.000   2.04553e-31
      254.100   1.93659e-31
      254.200   1.83340e-31
      254.300   1.73567e-31
      254.400   1.64308e-31
      254.500   1.55538e-31
      254.600   1.47232e-31
      254.700   1.39367e-31
      254.800   1.31938e-31
      254.900   1.24902e-31
      255.000   1.18240e-31
      255.100   1.11925e-31
      255.200   1.05945e-31
      255.300   1.00284e-31
      255.400   9.49204e-32
      255.500   8.98416e-32
      255.600   8.50324e-32
      255.700   8.04777e-32
      255.800   7.61642e-32
      255.900   7.20787e-32
      256.000   6.82105e-32
      256.100   6.45525e-32
      256.200   6.10939e-32
      256.300   5.78187e-32
      256.400   5.47193e-32
      256.500   5.17819e-32
      256.600   4.90018e-32
      256.700   4.63698e-32
      256.800   4.38772e-32
      256.900   4.15170e-32
      257.000   3.92829e-32
      257.100   3.71675e-32
      257.200   3.51657e-32
      257.300   3.32700e-32
      257.400   3.16992e-32
      257.500   3.02819e-32
      257.600   2.89336e-32
      257.700   2.76455e-32
      257.800   2.64140e-32
      257.900   2.52373e-32
      258.000   2.41123e-32
      258.100   2.30370e-32
      258.200   2.20095e-32
      258.300   2.10277e-32
      258.400   2.00886e-32
      258.500   1.91912e-32
      258.600   1.83338e-32
      258.700   1.75143e-32
      258.800   1.67310e-32
      258.900   1.59829e-32
      259.000   1.52674e-32
      259.100   1.45839e-32
      259.200   1.39312e-32
      259.300   1.33084e-32
      259.400   1.27131e-32
      259.500   1.21440e-32
      259.600   1.16003e-32
      259.700   1.10808e-32
      259.800   1.05842e-32
      259.900   1.01096e-32
      260.000   9.65630e-33
      260.100   9.22314e-33
      260.200   8.80917e-33
      260.300   8.41365e-33
      260.400   8.03580e-33
      260.500   7.67484e-33
      260.600   7.32984e-33
      260.700   7.00019e-33
      260.800   6.68550e-33
      260.900   6.38458e-33
      261.000   6.09738e-33
      261.100   5.82327e-33
      261.200   5.56137e-33
      261.300   5.31111e-33
      261.400   5.07213e-33
      261.500   4.86491e-33
      261.600   4.73441e-33
      261.700   4.61914e-33
      261.800   4.50672e-33
      261.900   4.39694e-33
      262.000   4.28982e-33
      262.100   4.18530e-33
      262.200   4.08335e-33
      262.300   3.98380e-33
      262.400   3.88667e-33
      262.500   3.79192e-33
      262.600   3.69943e-33
      262.700   3.60919e-33
      262.800   3.52113e-33
      262.900   3.43511e-33
      263.000   3.35134e-33
      263.100   3.26952e-33
      263.200   3.18971e-33
      263.300   3.11185e-33
      263.400   3.03584e-33
      263.500   2.96169e-33
      263.600   2.88938e-33
      263.700   2.81878e-33
      263.800   2.74986e-33
      263.900   2.68269e-33
      264.000   2.61711e-33
      264.100   2.55311e-33
      264.200   2.49064e-33
      264.300   2.42974e-33
      264.400   2.37029e-33
      264.500   2.31228e-33
      264.600   2.25566e-33
      264.700   2.20044e-33
      264.800   2.14655e-33
      264.900   2.09399e-33
      265.000   2.04270e-33
      265.100   1.99263e-33
      265.200   1.94379e-33
      265.300   1.89614e-33
      265.400   1.84966e-33
      265.500   1.80431e-33
      265.600   1.76006e-33
      265.700   1.71687e-33
      265.800   1.67480e-33
      265.900   1.63374e-33
      266.000   1.59372e-33
      266.100   1.55467e-33
      266.200   1.51656e-33
      266.300   1.47937e-33
      266.400   1.44310e-33
      266.500   1.40770e-33
      266.600   1.37318e-33
      266.700   1.33948e-33
      266.800   1.30664e-33
      266.900   1.27458e-33
      267.000   1.24330e-33
      267.100   1.21279e-33
      267.200   1.18305e-33
      267.300   1.15402e-33
      267.400   1.12568e-33
      267.500   1.09805e-33
      267.600   1.07109e-33
      267.700   1.04479e-33
      267.800   1.01913e-33
      267.900   9.94099e-34
      268.000   9.69693e-34
      268.100   9.45882e-34
      268.200   9.22654e-34
      268.300   9.00003e-34
      268.400   8.77892e-34
      268.500   8.56328e-34
      268.600   8.35289e-34
      268.700   8.14782e-34
      268.800   7.94762e-34
      268.900   7.75243e-34
      269.000   7.56205e-34
      269.100   7.37627e-34
      269.200   7.19515e-34
      269.300   7.01844e-34
      269.400   6.84602e-34
      269.500   6.67779e-34
      269.600   6.51387e-34
      269.700   6.35384e-34
      269.800   6.19785e-34
      269.900   6.04558e-34
      270.000   5.89723e-34
      270.100   5.75250e-34
      270.200   5.61154e-34
      270.300   5.47395e-34
      270.400   5.33973e-34
      270.500   5.20884e-34
      270.600   5.08113e-34
      270.700   4.95660e-34
      270.800   4.83516e-34
      270.900   4.71663e-34
      271.000   4.60103e-34
      271.100   4.48825e-34
      271.200   4.37822e-34
      271.300   4.27098e-34
      271.400   4.16629e-34
      271.500   4.06427e-34
      271.600   3.96464e-34
      271.700   3.86751e-34
      271.800   3.77276e-34
      271.900   3.68034e-34
      272.000   3.59022e-34
      272.100   3.50227e-34
      272.200   3.41647e-34
      272.300   3.33278e-34
      272.400   3.25113e-34
      272.500   3.17152e-34
      272.600   3.09383e-34
      272.700   3.01806e-34
      272.800   2.94414e-34
      272.900   2.87203e-34
      273.000   2.80173e-34
      273.100   2.73312e-34
      273.200   2.66620e-34
      273.300   2.60093e-34
      273.400   2.53724e-34
      273.500   2.47511e-34
      273.600   2.41452e-34
      273.700   2.35538e-34
      273.800   2.29769e-34
      273.900   2.24147e-34
      274.000   2.18659e-34
      274.100   2.13307e-34
      274.200   2.08084e-34
      274.300   2.02991e-34
      274.400   1.97961e-34
      274.500   1.92893e-34
      274.600   1.87929e-34
      274.700   1.83095e-34
      274.800   1.78384e-34
      274.900   1.73793e-34
      275.000   1.69320e-34
      275.100   1.64962e-34
      275.200   1.60715e-34
      275.300   1.56577e-34
      275.400   1.52548e-34
      275.500   1.48621e-34
      275.600   1.44793e-34
      275.700   1.41065e-34
      275.800   1.37433e-34
      275.900   1.33894e-34
      276.000   1.30447e-34
      276.100   1.27086e-34
      276.200   1.23812e-34
      276.300   1.20622e-34
      276.400   1.17514e-34
      276.500   1.14486e-34
      276.600   1.11536e-34
      276.700   1.08661e-34
      276.800   1.05861e-34
      276.900   1.03131e-34
      277.000   1.00473e-34
      277.100   9.78812e-35
      277.200   9.53573e-35
      277.300   9.28983e-35
      277.400   9.05025e-35
      277.500   8.81665e-35
      277.600   8.58926e-35
      277.700   8.36760e-35
      277.800   8.15151e-35
      277.900   7.94113e-35
      278.000   7.73623e-35
      278.100   7.53654e-35
      278.200   7.34192e-35
      278.300   7.15234e-35
      278.400   6.96767e-35
      278.500   6.78760e-35
      278.600   6.61220e-35
      278.700   6.44141e-35
      278.800   6.27502e-35
      278.900   6.11224e-35
      279.000   5.95352e-35
      279.100   5.79892e-35
      279.200   5.64822e-35
      279.300   5.50154e-35
      279.400   5.35851e-35
      279.500   5.21924e-35
      279.600   5.08358e-35
      279.700   4.95146e-35
      279.800   4.82274e-35
      279.900   4.69729e-35
      280.000   4.57512e-35
      280.100   4.45606e-35
      280.200   4.34014e-35
      280.300   4.22716e-35
      280.400   4.11712e-35
      280.500   4.01002e-35
      280.600   3.90562e-35
      280.700   3.80390e-35
      280.800   3.70484e-35
      280.900   3.60832e-35
      281.000   3.51430e-35
      281.100   3.42270e-35
      281.200   3.33349e-35
      281.300   3.24660e-35
      281.400   3.16199e-35
      281.500   3.07951e-35
      281.600   2.99914e-35
      281.700   2.92089e-35
      281.800   2.84470e-35
      281.900   2.77046e-35
      282.000   2.69814e-35
      282.100   2.62768e-35
      282.200   2.55911e-35
      282.300   2.49226e-35
      282.400   2.42716e-35
      282.500   2.36372e-35
      282.600   2.30195e-35
      282.700   2.24176e-35
      282.800   2.18314e-35
      282.900   2.12609e-35
      283.000   2.07048e-35
      283.100   2.01634e-35
      283.200   1.96362e-35
      283.300   1.91226e-35
      283.400   1.86223e-35
      283.500   1.81352e-35
      283.600   1.76606e-35
      283.700   1.71981e-35
      283.800   1.67478e-35
      283.900   1.63094e-35
      284.000   1.58822e-35
      284.100   1.54659e-35
      284.200   1.50605e-35
      284.300   1.46659e-35
      284.400   1.42814e-35
      284.500   1.39070e-35
      284.600   1.35422e-35
      284.700   1.31871e-35
      284.800   1.28412e-35
      284.900   1.25042e-35
      285.000   1.21758e-35
      285.100   1.18561e-35
      285.200   1.15449e-35
      285.300   1.12416e-35
      285.400   1.09462e-35
      285.500   1.06585e-35
      285.600   1.03786e-35
      285.700   1.01057e-35
      285.800   9.84012e-36
      285.900   9.58140e-36
      286.000   9.32948e-36
      286.100   9.08434e-36
      286.200   8.84539e-36
      286.300   8.61287e-36
      286.400   8.38636e-36
      286.500   8.16567e-36
      286.600   7.95074e-36
      286.700   7.74142e-36
      286.800   7.53766e-36
      286.900   7.33919e-36
      287.000   7.14586e-36
      287.100   6.95757e-36
      287.200   6.77430e-36
      287.300   6.59576e-36
      287.400   6.42187e-36
      287.500   6.25256e-36
      287.600   6.08773e-36
      287.700   5.92712e-36
      287.800   5.77079e-36
      287.900   5.61853e-36
      288.000   5.47030e-36
      288.100   5.32591e-36
      288.200   5.18544e-36
      288.300   5.04867e-36
      288.400   4.91545e-36
      288.500   4.78576e-36
      288.600   4.65937e-36
      288.700   4.53638e-36
      288.800   4.41656e-36
      288.900   4.29997e-36
      289.000   4.18639e-36
      289.100   4.07576e-36
      289.200   3.96805e-36
      289.300   3.86320e-36
      289.400   3.76107e-36
      289.500   3.66162e-36
      289.600   3.56478e-36
      289.700   3.47056e-36
      289.800   3.37873e-36
      289.900   3.28928e-36
      290.000   3.20229e-36
      290.100   3.11751e-36
      290.200   3.03510e-36
      290.300   2.95480e-36
      290.400   2.87662e-36
      290.500   2.80055e-36
      290.600   2.72642e-36
      290.700   2.65424e-36
      290.800   2.58401e-36
      290.900   2.51561e-36
      291.000   2.44895e-36
      291.100   2.38406e-36
      291.200   2.32091e-36
      291.300   2.25940e-36
      291.400   2.19954e-36
      291.500   2.14123e-36
      291.600   2.08445e-36
      291.700   2.02919e-36
      291.800   1.97537e-36
      291.900   1.92303e-36
      292.000   1.87210e-36
      292.100   1.82248e-36
      292.200   1.77419e-36
      292.300   1.72713e-36
      292.400   1.68133e-36
      292.500   1.63673e-36
      292.600   1.59330e-36
      292.700   1.55102e-36
      292.800   1.50986e-36
      292.900   1.46979e-36
      293.000   1.43077e-36
      293.100   1.39278e-36
      293.200   1.35579e-36
      293.300   1.31977e-36
      293.400   1.28473e-36
      293.500   1.25063e-36
      293.600   1.21743e-36
      293.700   1.18510e-36
      293.800   1.15363e-36
      293.900   1.12300e-36
      294.000   1.09316e-36
      294.100   1.06411e-36
      294.200   1.03584e-36
      294.300   1.00833e-36
      294.400   9.81514e-37
      294.500   9.55418e-37
      294.600   9.30002e-37
      294.700   9.05269e-37
      294.800   8.81185e-37
      294.900   8.57742e-37
      295.000   8.34944e-37
      295.100   8.12756e-37
      295.200   7.91149e-37
      295.300   7.70099e-37
      295.400   7.49615e-37
      295.500   7.29680e-37
      295.600   7.10262e-37
      295.700   6.91359e-37
      295.800   6.72957e-37
      295.900   6.55030e-37
      296.000   6.37588e-37
      296.100   6.20595e-37
      296.200   6.04065e-37
      296.300   5.87977e-37
      296.400   5.72340e-37
      296.500   5.57094e-37
      296.600   5.42261e-37
      296.700   5.27819e-37
      296.800   5.13761e-37
      296.900   5.00072e-37
      297.000   4.86744e-37
      297.100   4.73766e-37
      297.200   4.61135e-37
      297.300   4.48838e-37
      297.400   4.36868e-37
      297.500   4.25206e-37
      297.600   4.13871e-37
      297.700   4.02836e-37
      297.800   3.92097e-37
      297.900   3.81645e-37
      298.000   3.71470e-37
      298.100   3.61560e-37
      298.200   3.51913e-37
      298.300   3.42524e-37
      298.400   3.33381e-37
      298.500   3.24478e-37
      298.600   3.15812e-37
      298.700   3.07375e-37
      298.800   2.99158e-37
      298.900   2.91174e-37
      299.000   2.83406e-37
      299.100   2.75842e-37
      299.200   2.68473e-37
      299.300   2.61303e-37
      299.400   2.54321e-37
      299.500   2.47525e-37
      299.600   2.40909e-37
      299.700   2.34468e-37
      299.800   2.28195e-37
      299.900   2.22093e-37
      300.000   2.16150e-37
      300.100   2.10368e-37
      300.192   2.05188e-37
      300.285   2.00074e-37
      300.377   1.95146e-37
      300.470   1.90289e-37
      300.562   1.85600e-37
      300.654   1.81025e-37
      300.747   1.76515e-37
      300.839   1.72165e-37
      300.932   1.67872e-37
      301.025   1.63688e-37
      301.117   1.59654e-37
      301.210   1.55671e-37
      301.303   1.51791e-37
      301.395   1.48050e-37
      301.488   1.44355e-37
      301.581   1.40756e-37
      301.674   1.37245e-37
      301.766   1.33857e-37
      301.859   1.30516e-37
      301.952   1.27260e-37
      302.045   1.24084e-37
      302.138   1.21169e-37
      302.231   1.18726e-37
      302.324   1.16350e-37
      302.417   1.14022e-37
      302.510   1.11739e-37
      302.603   1.09504e-37
      302.696   1.07311e-37
      302.789   1.05161e-37
      302.882   1.03053e-37
      302.976   1.00969e-37
      303.069   9.89460e-38
      303.162   9.69632e-38
      303.255   9.50188e-38
      303.349   9.30937e-38
      303.442   9.12262e-38
      303.535   8.93973e-38
      303.629   8.75849e-38
      303.722   8.58284e-38
      303.816   8.40888e-38
      303.909   8.24008e-38
      304.003   8.07293e-38
      304.096   7.91088e-38
      304.190   7.75034e-38
      304.283   7.59465e-38
      304.377   7.44055e-38
      304.471   7.28940e-38
      304.564   7.14291e-38
      304.658   6.99797e-38
      304.752   6.85572e-38
      304.846   6.71644e-38
      304.939   6.58141e-38
      305.033   6.44762e-38
      305.127   6.31651e-38
      305.221   6.18806e-38
      305.315   6.06231e-38
      305.409   5.93892e-38
      305.503   5.81811e-38
      305.597   5.69980e-38
      305.691   5.58377e-38
      305.785   5.47014e-38
      305.879   5.35873e-38
      305.973   5.24963e-38
      306.067   5.14268e-38
      306.161   5.03794e-38
      306.255   4.93531e-38
      306.350   4.83367e-38
      306.444   4.73512e-38
      306.538   4.63861e-38
      306.633   4.54307e-38
      306.727   4.45042e-38
      306.821   4.35966e-38
      306.916   4.26978e-38
      307.010   4.18372e-38
      307.105   4.10183e-38
      307.199   4.02288e-38
      307.294   3.94460e-38
      307.388   3.86868e-38
      307.483   3.79342e-38
      307.577   3.72038e-38
      307.672   3.64796e-38
      307.767   3.57695e-38
      307.861   3.50804e-38
      307.956   3.43967e-38
      308.051   3.37264e-38
      308.146   3.30698e-38
      308.240   3.24319e-38
      308.335   3.17996e-38
      308.430   3.11792e-38
      308.525   3.05713e-38
      308.620   2.99751e-38
      308.715   2.93904e-38
      308.810   2.88171e-38
      308.905   2.82547e-38
      309.000   2.77029e-38
      309.095   2.71621e-38
      309.190   2.66320e-38
      309.285   2.61120e-38
      309.380   2.56020e-38
      309.476   2.50968e-38
      309.571   2.46064e-38
      309.666   2.41255e-38
      309.761   2.36540e-38
      309.857   2.31868e-38
      309.952   2.27332e-38
      310.047   2.22887e-38
      310.143   2.18482e-38
      310.238   2.14208e-38
      310.334   2.09973e-38
      310.429   2.05863e-38
      310.525   2.01791e-38
      310.620   1.97841e-38
      310.716   1.93926e-38
      310.811   1.90131e-38
      310.907   1.86369e-38
      311.003   1.82680e-38
      311.098   1.79100e-38
      311.194   1.75553e-38
      311.290   1.72079e-38
      311.386   1.68672e-38
      311.481   1.65365e-38
      311.577   1.62089e-38
      311.673   1.58878e-38
      311.769   1.55729e-38
      311.865   1.52643e-38
      311.961   1.49628e-38
      312.057   1.46723e-38
      312.153   1.43894e-38
      312.249   1.41117e-38
      312.345   1.38394e-38
      312.441   1.35722e-38
      312.537   1.33103e-38
      312.633   1.30534e-38
      312.730   1.27986e-38
      312.826   1.25515e-38
      312.922   1.23090e-38
      313.018   1.20713e-38
      313.115   1.18357e-38
      313.211   1.16069e-38
      313.307   1.13827e-38
      313.404   1.11605e-38
      313.500   1.09447e-38
      313.597   1.07311e-38
      313.693   1.05236e-38
      313.790   1.03181e-38
      313.886   1.01186e-38
      313.983   9.92081e-39
      314.079   9.72888e-39
      314.176   9.53876e-39
      314.273   9.35228e-39
      314.369   9.17151e-39
      314.466   8.99226e-39
      314.563   8.81644e-39
      314.660   8.64403e-39
      314.756   8.47672e-39
      314.853   8.31086e-39
      314.950   8.14831e-39
      315.047   7.98896e-39
      315.144   7.83270e-39
      315.241   7.67944e-39
      315.338   7.52917e-39
      315.435   7.38181e-39
      315.532   7.23729e-39
      315.629   7.09561e-39
      315.726   6.95675e-39
      315.823   6.82045e-39
      315.921   6.68554e-39
      316.018   6.55463e-39
      316.115   6.42628e-39
      316.212   6.30037e-39
      316.310   6.17567e-39
      316.407   6.05464e-39
      316.504   5.93596e-39
      316.602   5.81844e-39
      316.699   5.70444e-39
      316.796   5.59257e-39
      316.894   5.48182e-39
      316.991   5.37464e-39
      317.089   5.27032e-39
      317.187   5.16919e-39
      317.284   5.07090e-39
      317.382   4.97347e-39
      317.479   4.87883e-39
      317.577   4.78504e-39
      317.675   4.69308e-39
      317.773   4.60284e-39
      317.870   4.51528e-39
      317.968   4.42843e-39
      318.066   4.34323e-39
      318.164   4.25968e-39
      318.262   4.17774e-39
      318.360   4.09735e-39
      318.458   4.01854e-39
      318.556   3.94127e-39
      318.654   3.86544e-39
      318.752   3.79101e-39
      318.850   3.71806e-39
      318.948   3.64648e-39
      319.046   3.57627e-39
      319.144   3.50738e-39
      319.242   3.43983e-39
      319.341   3.37291e-39
      319.439   3.30794e-39
      319.537   3.24424e-39
      319.635   3.18173e-39
      319.734   3.11979e-39
      319.832   3.05968e-39
      319.930   3.00068e-39
      320.029   2.94224e-39
      320.127   2.88552e-39
      320.226   2.82933e-39
      320.324   2.77475e-39
      320.423   2.72064e-39
      320.522   2.66767e-39
      320.620   2.61621e-39
      320.719   2.56519e-39
      320.818   2.51520e-39
      320.916   2.46665e-39
      321.015   2.41854e-39
      321.114   2.37136e-39
      321.213   2.32509e-39
      321.311   2.28021e-39
      321.410   2.23573e-39
      321.509   2.19208e-39
      321.608   2.14930e-39
      321.707   2.10734e-39
      321.806   2.06620e-39
      321.905   2.02586e-39
      322.004   1.98629e-39
      322.103   1.94750e-39
      322.202   1.90944e-39
      322.301   1.87214e-39
      322.401   1.83520e-39
      322.500   1.79934e-39
      322.599   1.76418e-39
      322.698   1.72969e-39
      322.798   1.69552e-39
      322.897   1.66237e-39
      322.996   1.62986e-39
      323.096   1.59765e-39
      323.195   1.56639e-39
      323.294   1.53573e-39
      323.394   1.50537e-39
      323.493   1.47590e-39
      323.593   1.44673e-39
      323.692   1.41839e-39
      323.792   1.39033e-39
      323.892   1.36282e-39
      323.991   1.33610e-39
      324.091   1.30967e-39
      324.191   1.28375e-39
      324.291   1.25833e-39
      324.390   1.23367e-39
      324.490   1.20923e-39
      324.590   1.18527e-39
      324.690   1.16179e-39
      324.790   1.13877e-39
      324.890   1.11620e-39
      324.990   1.09408e-39
      325.090   1.07239e-39
      325.190   1.05111e-39
      325.290   1.03028e-39
      325.390   1.00982e-39
      325.490   9.89792e-40
      325.590   9.70160e-40
      325.690   9.50885e-40
      325.790   9.32002e-40
      325.891   9.13314e-40
      325.991   8.95173e-40
      326.091   8.77384e-40
      326.192   8.59776e-40
      326.292   8.42690e-40
      326.392   8.25942e-40
      326.493   8.09363e-40
      326.593   7.93261e-40
      326.694   7.77337e-40
      326.794   7.61868e-40
      326.895   7.46557e-40
      326.995   7.31696e-40
      327.096   7.16987e-40
      327.197   7.02569e-40
      327.297   6.88578e-40
      327.398   6.74728e-40
      327.499   6.61159e-40
      327.599   6.47980e-40
      327.700   6.34934e-40
      327.801   6.22148e-40
      327.902   6.09628e-40
      328.003   5.97348e-40
      328.104   5.85317e-40
      328.205   5.73525e-40
      328.306   5.61968e-40
      328.407   5.50642e-40
      328.508   5.39534e-40
      328.609   5.28651e-40
      328.710   5.17983e-40
      328.811   5.07532e-40
      328.912   4.97293e-40
      329.013   4.87251e-40
      329.115   4.77324e-40
      329.216   4.67688e-40
      329.317   4.58234e-40
      329.419   4.48892e-40
      329.520   4.39819e-40
      329.621   4.30923e-40
      329.723   4.22124e-40
      329.824   4.13595e-40
      329.926   4.05146e-40
      330.027   3.96951e-40
      330.129   3.88839e-40
      330.230   3.80974e-40
      330.332   3.73181e-40
      330.434   3.65551e-40
      330.535   3.58148e-40
      330.637   3.50819e-40
      330.739   3.43640e-40
      330.840   3.36676e-40
      330.942   3.29784e-40
      331.044   3.23033e-40
      331.146   3.16413e-40
      331.248   3.09934e-40
      331.350   3.03586e-40
      331.452   2.97371e-40
      331.554   2.91441e-40
      331.656   2.85876e-40
      331.758   2.80415e-40
      331.860   2.75054e-40
      331.962   2.69795e-40
      332.064   2.64638e-40
      332.166   2.59584e-40
      332.268   2.54616e-40
      332.371   2.49702e-40
      332.473   2.44923e-40
      332.575   2.40232e-40
      332.677   2.35635e-40
      332.780   2.31078e-40
      332.882   2.26653e-40
      332.985   2.22270e-40
      333.087   2.18011e-40
      333.190   2.13793e-40
      333.292   2.09634e-40
      333.395   2.05343e-40
      333.497   2.01120e-40
      333.600   1.96940e-40
      333.702   1.92889e-40
      333.805   1.88880e-40
      333.908   1.84953e-40
      334.011   1.81109e-40
      334.113   1.77378e-40
      334.216   1.73688e-40
      334.319   1.70074e-40
      334.422   1.66535e-40
      334.525   1.63068e-40
      334.628   1.59671e-40
      334.731   1.56348e-40
      334.834   1.53093e-40
      334.937   1.49904e-40
      335.040   1.46779e-40
      335.143   1.43723e-40
      335.246   1.40725e-40
      335.349   1.37790e-40
      335.452   1.34917e-40
      335.555   1.32102e-40
      335.659   1.29323e-40
      335.762   1.26623e-40
      335.865   1.23984e-40
      335.969   1.21371e-40
      336.072   1.18833e-40
      336.175   1.16354e-40
      336.279   1.13900e-40
      336.382   1.11524e-40
      336.486   1.09168e-40
      336.589   1.06887e-40
      336.693   1.04632e-40
      336.796   1.02446e-40
      336.900   1.00287e-40
      337.004   9.81652e-41
      337.107   9.61137e-41
      337.211   9.40846e-41
      337.315   9.21017e-41
      337.419   9.01553e-41
      337.523   8.82482e-41
      337.626   8.64013e-41
      337.730   8.45768e-41
      337.834   8.27873e-41
      337.938   8.10399e-41
      338.042   7.93345e-41
      338.146   7.76824e-41
      338.250   7.60695e-41
      338.354   7.44874e-41
      338.458   7.29376e-41
      338.562   7.14200e-41
      338.667   6.99220e-41
      338.771   6.84674e-41
      338.875   6.70437e-41
      338.979   6.56494e-41
      339.084   6.42692e-41
      339.188   6.29337e-41
      339.292   6.16249e-41
      339.397   6.03301e-41
      339.501   5.90745e-41
      339.606   5.78316e-41
      339.710   5.66307e-41
      339.815   5.54396e-41
      339.919   5.42849e-41
      340.024   5.31456e-41
      340.128   5.20358e-41
      340.233   5.09442e-41
      340.338   4.98736e-41
      340.442   4.88353e-41
      340.547   4.78095e-41
      340.652   4.68034e-41
      340.757   4.58183e-41
      340.862   4.48542e-41
      340.966   4.39181e-41
      341.071   4.29946e-41
      341.176   4.20908e-41
      341.281   4.12052e-41
      341.386   4.03392e-41
      341.491   3.94900e-41
      341.596   3.86590e-41
      341.702   3.78379e-41
      341.807   3.70419e-41
      341.912   3.62628e-41
      342.017   3.54991e-41
      342.122   3.47522e-41
      342.228   3.40137e-41
      342.333   3.32977e-41
      342.438   3.25956e-41
      342.544   3.19048e-41
      342.649   3.12307e-41
      342.754   3.05763e-41
      342.860   2.99233e-41
      342.965   2.92941e-41
      343.071   2.86720e-41
      343.176   2.80680e-41
      343.282   2.74697e-41
      343.388   2.68881e-41
      343.493   2.63262e-41
      343.599   2.57993e-41
      343.705   2.52878e-41
      343.810   2.47904e-41
      343.916   2.42971e-41
      344.022   2.38151e-41
      344.128   2.33428e-41
      344.234   2.28762e-41
      344.340   2.24222e-41
      344.446   2.19780e-41
      344.552   2.15408e-41
      344.658   2.11120e-41
      344.764   2.06944e-41
      344.870   2.02810e-41
      344.976   1.98788e-41
      345.082   1.94823e-41
      345.188   1.90969e-41
      345.294   1.87157e-41
      345.401   1.83416e-41
      345.507   1.79787e-41
      345.613   1.76199e-41
      345.719   1.72682e-41
      345.826   1.69235e-41
      345.932   1.65886e-41
      346.039   1.62523e-41
      346.145   1.59300e-41
      346.252   1.56105e-41
      346.358   1.53008e-41
      346.465   1.49939e-41
      346.571   1.46968e-41
      346.678   1.43997e-41
      346.785   1.41125e-41
      346.891   1.38308e-41
      346.998   1.35534e-41
      347.105   1.32815e-41
      347.212   1.30167e-41
      347.319   1.27546e-41
      347.425   1.25024e-41
      347.532   1.22502e-41
      347.639   1.20035e-41
      347.746   1.17639e-41
      347.853   1.15271e-41
      347.960   1.12973e-41
      348.067   1.10675e-41
      348.174   1.08475e-41
      348.281   1.06303e-41
      348.389   1.04130e-41
      348.496   1.02043e-41
      348.603   9.99967e-42
      348.710   9.79928e-42
      348.818   9.60030e-42
      348.925   9.40552e-42
      349.032   9.21774e-42
      349.140   9.03277e-42
      349.247   8.85060e-42
      349.355   8.67123e-42
      349.462   8.49607e-42
      349.570   8.32231e-42
      349.677   8.15416e-42
      349.785   7.98740e-42
      349.892   7.82765e-42
      350.000   7.66791e-42
      350.100   7.52357e-42
      350.193   7.39325e-42
      350.287   7.26153e-42
      350.380   7.13401e-42
      350.473   7.00929e-42
      350.567   6.88458e-42
      350.660   6.76407e-42
      350.754   6.64215e-42
      350.847   6.52725e-42
      350.941   6.41234e-42
      351.034   6.29744e-42
      351.128   6.18533e-42
      351.221   6.07743e-42
      351.315   5.97093e-42
      351.409   5.86303e-42
      351.502   5.76074e-42
      351.596   5.65844e-42
      351.690   5.55895e-42
      351.783   5.46086e-42
      351.877   5.36417e-42
      351.971   5.26888e-42
      352.065   5.17640e-42
      352.159   5.08251e-42
      352.252   4.99423e-42
      352.346   4.90454e-42
      352.440   4.81766e-42
      352.534   4.73218e-42
      352.628   4.64811e-42
      352.722   4.56543e-42
      352.816   4.48556e-42
      352.910   4.40288e-42
      353.004   4.32581e-42
      353.098   4.24874e-42
      353.192   4.17307e-42
      353.287   4.09880e-42
      353.381   4.02593e-42
      353.475   3.95166e-42
      353.569   3.88440e-42
      353.663   3.81433e-42
      353.758   3.74427e-42
      353.852   3.68121e-42
      353.946   3.61395e-42
      354.041   3.54949e-42
      354.135   3.48503e-42
      354.229   3.42197e-42
      354.324   3.36172e-42
      354.418   3.30006e-42
      354.513   3.24260e-42
      354.607   3.18515e-42
      354.702   3.12770e-42
      354.796   3.07024e-42
      354.891   3.01279e-42
      354.985   2.95814e-42
      355.080   2.90489e-42
      355.175   2.85024e-42
      355.269   2.79839e-42
      355.364   2.74795e-42
      355.459   2.69610e-42
      355.553   2.64845e-42
      355.648   2.60081e-42
      355.743   2.54896e-42
      355.838   2.50552e-42
      355.933   2.45648e-42
      356.027   2.41163e-42
      356.122   2.36679e-42
      356.217   2.32616e-42
      356.312   2.28131e-42
      356.407   2.23927e-42
      356.502   2.19864e-42
      356.597   2.15940e-42
      356.692   2.11876e-42
      356.787   2.07953e-42
      356.882   2.04169e-42
      356.977   2.00386e-42
      357.073   1.96462e-42
      357.168   1.92959e-42
      357.263   1.89456e-42
      357.358   1.85952e-42
      357.453   1.82449e-42
      357.549   1.79226e-42
      357.644   1.75723e-42
      357.739   1.72500e-42
      357.835   1.69277e-42
      357.930   1.66194e-42
      358.025   1.62971e-42
      358.121   1.60028e-42
      358.216   1.56805e-42
      358.312   1.54003e-42
      358.407   1.51060e-42
      358.503   1.48538e-42
      358.598   1.45735e-42
      358.694   1.42792e-42
      358.790   1.40270e-42
      358.885   1.37748e-42
      358.981   1.35085e-42
      359.076   1.32563e-42
      359.172   1.30040e-42
      359.268   1.27518e-42
      359.364   1.25276e-42
      359.459   1.23034e-42
      359.555   1.20512e-42
      359.651   1.18270e-42
      359.747   1.16308e-42
      359.843   1.14066e-42
      359.939   1.11824e-42
      360.035   1.09582e-42
      360.131   1.07620e-42
      360.227   1.05378e-42
      360.323   1.03556e-42
      360.419   1.01594e-42
      360.515   9.96323e-43
      360.611   9.78106e-43
      360.707   9.58488e-43
      360.803   9.43074e-43
      360.899   9.23456e-43
      360.995   9.08041e-43
      361.092   8.91226e-43
      361.188   8.71608e-43
      361.284   8.56193e-43
      361.380   8.40779e-43
      361.477   8.23963e-43
      361.573   8.08549e-43
      361.669   7.91734e-43
      361.766   7.79122e-43
      361.862   7.63708e-43
      361.959   7.48293e-43
      362.055   7.34280e-43
      362.152   7.21669e-43
      362.248   7.06254e-43
      362.345   6.93643e-43
      362.441   6.81031e-43
      362.538   6.68419e-43
      362.635   6.54406e-43
      362.731   6.41795e-43
      362.828   6.29183e-43
      362.925   6.16571e-43
      363.021   6.06762e-43
      363.118   5.94151e-43
      363.215   5.84341e-43
      363.312   5.71730e-43
      363.409   5.61921e-43
      363.505   5.49309e-43
      363.602   5.39500e-43
      363.699   5.29691e-43
      363.796   5.17079e-43
      363.893   5.08671e-43
      363.990   4.98862e-43
      364.087   4.89053e-43
      364.184   4.79244e-43
      364.281   4.72238e-43
      364.378   4.63830e-43
      364.475   4.54021e-43
      364.573   4.44212e-43
      364.670   4.34403e-43
      364.767   4.28797e-43
      364.864   4.18988e-43
      364.961   4.11982e-43
      365.059   4.02173e-43
      365.156   3.96567e-43
      365.253   3.86758e-43
      365.351   3.79752e-43
      365.448   3.74147e-43
      365.545   3.64338e-43
      365.643   3.57331e-43
      365.740   3.51726e-43
      365.838   3.44719e-43
      365.935   3.39114e-43
      366.033   3.32108e-43
      366.130   3.26503e-43
      366.228   3.19496e-43
      366.326   3.12490e-43
      366.423   3.06884e-43
      366.521   2.99878e-43
      366.618   2.94273e-43
      366.716   2.87266e-43
      366.814   2.84464e-43
      366.912   2.77457e-43
      367.010   2.71852e-43
      367.107   2.69049e-43
      367.205   2.62043e-43
      367.303   2.55036e-43
      367.401   2.52234e-43
      367.499   2.46629e-43
      367.597   2.42425e-43
      367.695   2.36819e-43
      367.793   2.32616e-43
      367.891   2.27010e-43
      367.989   2.24208e-43
      368.087   2.17201e-43
      368.185   2.14399e-43
      368.283   2.10195e-43
      368.381   2.07392e-43
      368.480   2.01787e-43
      368.578   1.97583e-43
      368.676   1.94780e-43
      368.774   1.91978e-43
      368.873   1.84971e-43
      368.971   1.82169e-43
      369.069   1.79366e-43
      369.168   1.75162e-43
      369.266   1.72360e-43
      369.364   1.69557e-43
      369.463   1.66755e-43
      369.561   1.62551e-43
      369.660   1.59748e-43
      369.758   1.56945e-43
      369.857   1.52742e-43
      369.955   1.49939e-43
      370.054   1.47136e-43
      370.153   1.44334e-43
      370.251   1.40130e-43
      370.350   1.37327e-43
      370.449   1.34525e-43
      370.547   1.30321e-43
      370.646   1.30321e-43
      370.745   1.27518e-43
      370.844   1.24716e-43
      370.943   1.21913e-43
      371.041   1.21913e-43
      371.140   1.17709e-43
      371.239   1.14906e-43
      371.338   1.12104e-43
      371.437   1.12104e-43
      371.536   1.09301e-43
      371.635   1.05097e-43
      371.734   1.05097e-43
      371.833   1.02295e-43
      371.932   9.94922e-44
      372.032   9.94922e-44
      372.131   9.52883e-44
      372.230   9.52883e-44
      372.329   9.24857e-44
      372.428   8.96831e-44
      372.528   8.96831e-44
      372.627   8.68805e-44
      372.726   8.68805e-44
      372.826   8.26766e-44
      372.925   8.26766e-44
      373.024   7.98740e-44
      373.124   7.98740e-44
      373.223   7.70714e-44
      373.323   7.70714e-44
      373.422   7.28675e-44
      373.522   7.28675e-44
      373.621   7.00649e-44
      373.721   7.00649e-44
      373.820   6.72623e-44
      373.920   6.72623e-44
      374.020   6.44597e-44
      374.119   6.44597e-44
      374.219   6.44597e-44
      374.319   6.02558e-44
      374.419   6.02558e-44
      374.518   5.74532e-44
      374.618   5.74532e-44
      374.718   5.74532e-44
      374.818   5.46506e-44
      374.918   5.46506e-44
      375.018   5.46506e-44
      375.118   5.04467e-44
      375.218   5.04467e-44
      375.318   5.04467e-44
      375.418   4.76441e-44
      375.518   4.76441e-44
      375.618   4.76441e-44
      375.718   4.48416e-44
      375.818   4.48416e-44
      375.918   4.48416e-44
      376.019   4.48416e-44
      376.119   4.20390e-44
      376.219   4.20390e-44
      376.319   4.20390e-44
      376.420   4.20390e-44
      376.520   3.78351e-44
      376.620   3.78351e-44
      376.721   3.78351e-44
      376.821   3.50325e-44
      376.922   3.50325e-44
      377.022   3.50325e-44
      377.122   3.50325e-44
      377.223   3.50325e-44
      377.323   3.22299e-44
      377.424   3.22299e-44
      377.525   3.22299e-44
      377.625   3.22299e-44
      377.726   3.22299e-44
      377.827   2.94273e-44
      377.927   2.94273e-44
      378.028   2.94273e-44
      378.129   2.94273e-44
      378.230   2.94273e-44
      378.330   2.94273e-44
      378.431   2.52234e-44
      378.532   2.52234e-44
      378.633   2.52234e-44
      378.734   2.52234e-44
      378.835   2.52234e-44
      378.936   2.52234e-44
      379.037   2.52234e-44
      379.138   2.52234e-44
      379.239   2.52234e-44
      379.340   2.24208e-44
      379.441   2.24208e-44
      379.542   2.24208e-44
      379.643   2.24208e-44
      379.745   2.24208e-44
      379.846   2.24208e-44
      379.947   2.24208e-44
      380.048   2.24208e-44
      380.150   2.24208e-44
      380.251   2.24208e-44
      380.352   1.96182e-44
      380.454   1.96182e-44
      380.555   1.96182e-44
      380.656   1.96182e-44
      380.758   1.96182e-44
      380.859   1.96182e-44
      380.961   1.96182e-44
      381.062   1.96182e-44
      381.164   1.96182e-44
      381.266   1.96182e-44
      381.367   1.96182e-44
      381.469   1.54143e-44
      381.570   1.54143e-44
      381.672   1.54143e-44
      381.774   1.54143e-44
      381.876   1.54143e-44
      381.977   1.54143e-44
      382.079   1.54143e-44
      382.181   1.54143e-44
      382.283   1.54143e-44
      382.385   1.54143e-44
      382.487   1.54143e-44
      382.589   1.54143e-44
      382.691   1.54143e-44
      382.793   1.54143e-44
      382.895   1.54143e-44
      382.997   1.54143e-44
      383.099   1.26117e-44
      383.201   1.26117e-44
      383.303   1.26117e-44
      383.405   1.26117e-44
      383.507   1.26117e-44
      383.610   1.26117e-44
      383.712   1.26117e-44
      383.814   1.26117e-44
      383.916   1.26117e-44
      384.019   1.26117e-44
      384.121   1.26117e-44
      384.223   1.26117e-44
      384.326   1.26117e-44
      384.428   1.26117e-44
      384.531   1.26117e-44
      384.633   1.26117e-44
      384.736   1.26117e-44
      384.838   9.80909e-45
      384.941   9.80909e-45
      385.043   9.80909e-45
      385.146   9.80909e-45
      385.249   9.80909e-45
      385.351   9.80909e-45
      385.454   9.80909e-45
      385.557   9.80909e-45
      385.660   9.80909e-45
      385.762   9.80909e-45
      385.865   9.80909e-45
      385.968   9.80909e-45
      386.071   9.80909e-45
      386.174   9.80909e-45
      386.277   9.80909e-45
      386.380   9.80909e-45
      386.483   9.80909e-45
      386.586   9.80909e-45
      386.689   9.80909e-45
      386.792   9.80909e-45
      386.895   9.80909e-45
      386.998   9.80909e-45
      387.101   9.80909e-45
      387.204   9.80909e-45
      387.308   9.80909e-45
      387.411   9.80909e-45
      387.514   9.80909e-45
      387.617   9.80909e-45
      387.721   9.80909e-45
      387.824   7.00649e-45
      387.927   7.00649e-45
      388.031   7.00649e-45
      388.134   7.00649e-45
      388.238   7.00649e-45
      388.341   7.00649e-45
      388.445   7.00649e-45
      388.548   7.00649e-45
      388.652   7.00649e-45
      388.755   7.00649e-45
      388.859   7.00649e-45
      388.962   7.00649e-45
      389.066   7.00649e-45
      389.170   7.00649e-45
      389.274   7.00649e-45
      389.377   7.00649e-45
      389.481   7.00649e-45
      389.585   7.00649e-45
      389.689   7.00649e-45
      389.793   7.00649e-45
      389.897   7.00649e-45
      390.000   7.00649e-45
      390.104   7.00649e-45
      390.208   7.00649e-45
      390.312   7.00649e-45
      390.416   7.00649e-45
      390.520   7.00649e-45
      390.625   7.00649e-45
      390.729   7.00649e-45
      390.833   7.00649e-45
      390.937   7.00649e-45
      391.041   7.00649e-45
      391.145   7.00649e-45
      391.250   7.00649e-45
      391.354   7.00649e-45
      391.458   7.00649e-45
      391.563   2.80260e-45
      391.667   2.80260e-45
      391.771   2.80260e-45
      391.876   2.80260e-45
      391.980   2.80260e-45
      392.085   2.80260e-45
      392.189   2.80260e-45
      392.294   2.80260e-45
      392.398   2.80260e-45
      392.503   2.80260e-45
      392.607   2.80260e-45
      392.712   2.80260e-45
      392.817   2.80260e-45
      392.921   2.80260e-45
      393.026   2.80260e-45
      393.131   2.80260e-45
      393.236   2.80260e-45
      393.340   2.80260e-45
      393.445   2.80260e-45
      393.550   2.80260e-45
      393.655   2.80260e-45
      393.760   2.80260e-45
      393.865   2.80260e-45
      393.970   2.80260e-45
      394.075   2.80260e-45
      394.180   2.80260e-45
      394.285   2.80260e-45
      394.390   2.80260e-45
      394.495   2.80260e-45
      394.600   2.80260e-45
      394.706   2.80260e-45
      394.811   2.80260e-45
      394.916   2.80260e-45
      395.021   2.80260e-45
      395.126   2.80260e-45
      395.232   2.80260e-45
      395.337   2.80260e-45
      395.443   2.80260e-45
      395.548   2.80260e-45
      395.653   2.80260e-45
      395.759   2.80260e-45
      395.864   2.80260e-45
      395.970   2.80260e-45
      396.075   2.80260e-45
      396.181   2.80260e-45
      396.286   2.80260e-45
      396.392   2.80260e-45
      396.498   2.80260e-45
      396.603   2.80260e-45
      396.709   2.80260e-45
      396.815   2.80260e-45
      396.921   2.80260e-45
      397.026   2.80260e-45
      397.132   2.80260e-45
      397.238   2.80260e-45
      397.344   2.80260e-45
      397.450   2.80260e-45
      397.556   2.80260e-45
      397.662   2.80260e-45
      397.768   2.80260e-45
      397.874   2.80260e-45
      397.980   2.80260e-45
      398.086   2.80260e-45
      398.192   2.80260e-45
      398.298   2.80260e-45
      398.404   2.80260e-45
      398.510   2.80260e-45
      398.617   2.80260e-45
      398.723   2.80260e-45
      398.829   2.80260e-45
      398.935   2.80260e-45
      399.042   2.80260e-45
      399.148   2.80260e-45
      399.255   2.80260e-45
      399.361   2.80260e-45
      399.467   2.80260e-45
      399.574   2.80260e-45
      399.680   2.80260e-45
      399.787   2.80260e-45
      399.893       0.00000
      400.000       0.00000
