Filter C-poly
observation_date 22Sept2020
wavelength effective area
      1.00000   2.78570e-10
      1.10000   7.95340e-10
      1.20000   2.06791e-09
      1.30000   4.94565e-09
      1.40000   1.12243e-08
      1.50000   2.39515e-08
      1.60000   4.85000e-08
      1.70000   9.41843e-08
      1.80000   1.75404e-07
      1.90000   3.15371e-07
      2.00000   5.48494e-07
      2.10000   9.26847e-07
      2.20000   1.52902e-06
      2.30000   2.45922e-06
      2.40000   3.86306e-06
      2.50000   5.90741e-06
      2.60000   9.02122e-06
      2.70000   1.34593e-05
      2.80000   1.96977e-05
      2.90000   2.85330e-05
      3.00000   4.06883e-05
      3.10000   5.72792e-05
      3.20000   7.97595e-05
      3.30000   0.000109939
      3.40000   0.000149968
      3.50000   0.000202604
      3.60000   0.000272472
      3.70000   0.000362563
      3.80000   0.000480476
      3.90000   0.000633246
      4.00000   0.000829447
      4.10000    0.00108147
      4.20000    0.00140513
      4.30000    0.00182060
      4.40000    0.00235277
      4.50000    0.00303236
      4.60000    0.00389536
      4.70000    0.00500418
      4.80000    0.00642256
      4.90000    0.00813735
      5.00000     0.0105825
      5.10000     0.0135689
      5.20000     0.0174515
      5.30000     0.0222560
      5.40000     0.0283403
      5.50000     0.0361535
      5.60000     0.0447084
      5.70000     0.0582504
      5.80000     0.0684562
      5.90000      0.104780
      6.00000      0.141204
      6.10000      0.180935
      6.20000      0.222766
      6.30000      0.262917
      6.40000      0.297670
      6.50000      0.323631
      6.60000      0.335957
      6.70000      0.347473
      6.80000      0.348975
      6.90000      0.459234
      7.00000      0.500978
      7.10000      0.531520
      7.20000      0.556306
      7.30000      0.577001
      7.40000      0.593382
      7.50000      0.606937
      7.60000      0.617766
      7.70000      0.624204
      7.80000      0.624984
      7.90000      0.626556
      8.00000      0.909299
      8.10000      0.998807
      8.20000       1.01861
      8.30000       1.03391
      8.40000       1.04528
      8.50000       1.05507
      8.60000       1.06298
      8.70000       1.06966
      8.80000       1.07479
      8.90000       1.07887
      9.00000       1.08182
      9.10000       1.08369
      9.20000       1.08467
      9.30000       1.08466
      9.40000       1.08383
      9.50000       1.08222
      9.60000       1.07977
      9.70000       1.07659
      9.80000       1.07284
      9.90000       1.06854
      10.0000       1.06375
      10.1000       1.05849
      10.2000       1.05278
      10.3000       1.04655
      10.4000       1.03983
      10.5000       1.03266
      10.6000       1.02506
      10.7000       1.01707
      10.8000       1.00869
      10.9000      0.999945
      11.0000      0.990854
      11.1000      0.981451
      11.2000      0.971738
      11.3000      0.961754
      11.4000      0.951488
      11.5000      0.940935
      11.6000      0.930113
      11.7000      0.918941
      11.8000      0.907523
      11.9000      0.895716
      12.0000      0.882590
      12.1000      0.872571
      12.2000      0.877782
      12.3000      0.873756
      12.4000      0.863226
      12.5000      0.852048
      12.6000      0.840560
      12.7000      0.828897
      12.8000      0.817105
      12.9000      0.805199
      13.0000      0.793229
      13.1000      0.781226
      13.2000      0.769213
      13.3000      0.757205
      13.4000      0.745229
      13.5000      0.733416
      13.6000      0.721744
      13.7000      0.710121
      13.8000      0.698539
      13.9000      0.687029
      14.0000      0.675588
      14.1000      0.664196
      14.2000      0.652853
      14.3000      0.641557
      14.4000      0.630290
      14.5000      0.619067
      14.6000      0.607880
      14.7000      0.596736
      14.8000      0.585641
      14.9000      0.574599
      15.0000      0.563621
      15.1000      0.552718
      15.2000      0.541907
      15.3000      0.531183
      15.4000      0.520545
      15.5000      0.510000
      15.6000      0.499582
      15.7000      0.489269
      15.8000      0.479104
      15.9000      0.469067
      16.0000      0.459156
      16.1000      0.449377
      16.2000      0.439762
      16.3000      0.430269
      16.4000      0.420889
      16.5000      0.411620
      16.6000      0.402469
      16.7000      0.393440
      16.8000      0.384516
      16.9000      0.375695
      17.0000      0.366997
      17.1000      0.358421
      17.2000      0.349944
      17.3000      0.341579
      17.4000      0.333493
      17.5000      0.325668
      17.6000      0.318066
      17.7000      0.310725
      17.8000      0.303789
      17.9000      0.296963
      18.0000      0.290191
      18.1000      0.283521
      18.2000      0.276888
      18.3000      0.270278
      18.4000      0.263673
      18.5000      0.257093
      18.6000      0.250524
      18.7000      0.243940
      18.8000      0.237466
      18.9000      0.231077
      19.0000      0.224802
      19.1000      0.218653
      19.2000      0.212599
      19.3000      0.206688
      19.4000      0.200904
      19.5000      0.195219
      19.6000      0.189708
      19.7000      0.184300
      19.8000      0.178987
      19.9000      0.173835
      20.0000      0.168761
      20.1000      0.163792
      20.2000      0.158929
      20.3000      0.154135
      20.4000      0.149467
      20.5000      0.144873
      20.6000      0.140349
      20.7000      0.135947
      20.8000      0.131601
      20.9000      0.127346
      21.0000      0.123176
      21.1000      0.119078
      21.2000      0.115062
      21.3000      0.111096
      21.4000      0.107237
      21.5000      0.103422
      21.6000     0.0996478
      21.7000     0.0959487
      21.8000     0.0922844
      21.9000     0.0886082
      22.0000     0.0849497
      22.1000     0.0813046
      22.2000     0.0775394
      22.3000     0.0736739
      22.4000     0.0687328
      22.5000     0.0634743
      22.6000     0.0536644
      22.7000     0.0479952
      22.8000     0.0632041
      22.9000     0.0819175
      23.0000      0.103282
      23.1000      0.116542
      23.2000      0.122092
      23.3000      0.122329
      23.4000      0.119889
      23.5000      0.117332
      23.6000      0.114756
      23.7000      0.111928
      23.8000      0.109094
      23.9000      0.106291
      24.0000      0.103498
      24.1000      0.100701
      24.2000     0.0979303
      24.3000     0.0952207
      24.4000     0.0925372
      24.5000     0.0899009
      24.6000     0.0873027
      24.7000     0.0847712
      24.8000     0.0822772
      24.9000     0.0798426
      25.0000     0.0774507
      25.1000     0.0751246
      25.2000     0.0728387
      25.3000     0.0706150
      25.4000     0.0684336
      25.5000     0.0663228
      25.6000     0.0642554
      25.7000     0.0622695
      25.8000     0.0603150
      25.9000     0.0584304
      26.0000     0.0565706
      26.1000     0.0547822
      26.2000     0.0530120
      26.3000     0.0513195
      26.4000     0.0496370
      26.5000     0.0480336
      26.6000     0.0464393
      26.7000     0.0449186
      26.8000     0.0434160
      26.9000     0.0419706
      27.0000     0.0405484
      27.1000     0.0391662
      27.2000     0.0378124
      27.3000     0.0365742
      27.4000     0.0354774
      27.5000     0.0343701
      27.6000     0.0332215
      27.7000     0.0320815
      27.8000     0.0309816
      27.9000     0.0298880
      28.0000     0.0288491
      28.1000     0.0278256
      28.2000     0.0268417
      28.3000     0.0258860
      28.4000     0.0249544
      28.5000     0.0240637
      28.6000     0.0231819
      28.7000     0.0223562
      28.8000     0.0215353
      28.9000     0.0207565
      29.0000     0.0199930
      29.1000     0.0192551
      29.2000     0.0185456
      29.3000     0.0178463
      29.4000     0.0171884
      29.5000     0.0165344
      29.6000     0.0159167
      29.7000     0.0153113
      29.8000     0.0147259
      29.9000     0.0141664
      30.0000     0.0136117
      30.1000     0.0130952
      30.2000     0.0125819
      30.3000     0.0126564
      30.4000     0.0130646
      30.5000     0.0132779
      30.6000     0.0127766
      30.7000     0.0122783
      30.8000     0.0118089
      30.9000     0.0113501
      31.0000     0.0109038
      31.1000     0.0104821
      31.2000     0.0100630
      31.3000    0.00967079
      31.4000    0.00928626
      31.5000    0.00891299
      31.6000    0.00856079
      31.7000    0.00821080
      31.8000    0.00788363
      31.9000    0.00756369
      32.0000    0.00725195
      32.1000    0.00696003
      32.2000    0.00666996
      32.3000    0.00639749
      32.4000    0.00613369
      32.5000    0.00587468
      32.6000    0.00564231
      32.7000    0.00541153
      32.8000    0.00519148
      32.9000    0.00498176
      33.0000    0.00477339
      33.1000    0.00458959
      33.2000    0.00441022
      33.3000    0.00423526
      33.4000    0.00407178
      33.5000    0.00390936
      33.6000    0.00375527
      33.7000    0.00360760
      33.8000    0.00346084
      33.9000    0.00332532
      34.0000    0.00319208
      34.1000    0.00306192
      34.2000    0.00294133
      34.3000    0.00282145
      34.4000    0.00270664
      34.5000    0.00259812
      34.6000    0.00249025
      34.7000    0.00238865
      34.8000    0.00229029
      34.9000    0.00219251
      35.0000    0.00210309
      35.1000    0.00201501
      35.2000    0.00192830
      35.3000    0.00184909
      35.4000    0.00177036
      35.5000    0.00169416
      35.6000    0.00162351
      35.7000    0.00155328
      35.8000    0.00148637
      35.9000    0.00142348
      36.0000    0.00136097
      36.1000    0.00130227
      36.2000    0.00124640
      36.3000    0.00119088
      36.4000    0.00113938
      36.5000    0.00108986
      36.6000    0.00104063
      36.7000   0.000995474
      36.8000   0.000951671
      36.9000   0.000908137
      37.0000   0.000868545
      37.1000   0.000829889
      37.2000   0.000791470
      37.3000   0.000756758
      37.4000   0.000722722
      37.5000   0.000688898
      37.6000   0.000658458
      37.7000   0.000628559
      37.8000   0.000598847
      37.9000   0.000572142
      38.0000   0.000545942
      38.1000   0.000519904
      38.2000   0.000496456
      38.3000   0.000473543
      38.4000   0.000450773
      38.5000   0.000430172
      38.6000   0.000410185
      38.7000   0.000390325
      38.8000   0.000372212
      38.9000   0.000354822
      39.0000   0.000337541
      39.1000   0.000321603
      39.2000   0.000306510
      39.3000   0.000291511
      39.4000   0.000277473
      39.5000   0.000264406
      39.6000   0.000251423
      39.7000   0.000239047
      39.8000   0.000227766
      39.9000   0.000216557
      40.0000   0.000205638
      40.1000   0.000195925
      40.2000   0.000186273
      40.3000   0.000176685
      40.4000   0.000168288
      40.5000   0.000159999
      40.6000   0.000151762
      40.7000   0.000144328
      40.8000   0.000137225
      40.9000   0.000130169
      41.0000   0.000123580
      41.1000   0.000117512
      41.2000   0.000111484
      41.3000   0.000105643
      41.4000   0.000100479
      41.5000   9.53480e-05
      41.6000   9.02506e-05
      41.7000   8.57797e-05
      41.8000   8.14216e-05
      41.9000   7.70920e-05
      42.0000   7.31092e-05
      42.1000   6.94202e-05
      42.2000   6.57550e-05
      42.3000   6.22035e-05
      42.4000   5.90887e-05
      42.5000   5.59939e-05
      42.6000   5.29194e-05
      42.7000   5.02051e-05
      42.8000   4.75993e-05
      42.9000   4.50101e-05
      43.0000   4.25760e-05
      43.1000   4.03890e-05
      43.2000   3.82164e-05
      43.3000   3.60580e-05
      43.4000     0.0362556
      43.5000     0.0802530
      43.6000      0.136264
      43.7000      0.185015
      43.8000      0.205680
      43.9000      0.208726
      44.0000      0.205181
      44.1000      0.195374
      44.2000      0.192478
      44.3000      0.190187
      44.4000      0.187924
      44.5000      0.185693
      44.6000      0.183468
      44.7000      0.181249
      44.8000      0.179080
      44.9000      0.176922
      45.0000      0.174770
      45.1000      0.172637
      45.2000      0.170544
      45.3000      0.168456
      45.4000      0.166373
      45.5000      0.164329
      45.6000      0.162306
      45.7000      0.160288
      45.8000      0.158277
      45.9000      0.156317
      46.0000      0.154363
      46.1000      0.152413
      46.2000      0.150554
      46.3000      0.148846
      46.4000      0.147144
      46.5000      0.145445
      46.6000      0.143802
      46.7000      0.142188
      46.8000      0.140579
      46.9000      0.138974
      47.0000      0.137445
      47.1000      0.135926
      47.2000      0.134410
      47.3000      0.132906
      47.4000      0.131441
      47.5000      0.129980
      47.6000      0.128522
      47.7000      0.127082
      47.8000      0.125666
      47.9000      0.124254
      48.0000      0.122845
      48.1000      0.121459
      48.2000      0.120092
      48.3000      0.118729
      48.4000      0.117368
      48.5000      0.116035
      48.6000      0.114714
      48.7000      0.113396
      48.8000      0.112082
      48.9000      0.110799
      49.0000      0.109525
      49.1000      0.108255
      49.2000      0.106988
      49.3000      0.105755
      49.4000      0.104527
      49.5000      0.103303
      49.6000      0.102081
      49.7000      0.100895
      49.8000     0.0997117
      49.9000     0.0985317
      50.0000     0.0973560
      50.1000     0.0962177
      50.2000     0.0951404
      50.3000     0.0940720
      50.4000     0.0930142
      50.5000     0.0919659
      50.6000     0.0909279
      50.7000     0.0899012
      50.8000     0.0888828
      50.9000     0.0878759
      51.0000     0.0868875
      51.1000     0.0859118
      51.2000     0.0849450
      51.3000     0.0839877
      51.4000     0.0830412
      51.5000     0.0821018
      51.6000     0.0811705
      51.7000     0.0802479
      51.8000     0.0793266
      51.9000     0.0784132
      52.0000     0.0775084
      52.1000     0.0766123
      52.2000     0.0757251
      52.3000     0.0748454
      52.4000     0.0739746
      52.5000     0.0731125
      52.6000     0.0722576
      52.7000     0.0714094
      52.8000     0.0705688
      52.9000     0.0697364
      53.0000     0.0689124
      53.1000     0.0680962
      53.2000     0.0672894
      53.3000     0.0664907
      53.4000     0.0656992
      53.5000     0.0649148
      53.6000     0.0641374
      53.7000     0.0633673
      53.8000     0.0626063
      53.9000     0.0618527
      54.0000     0.0611074
      54.1000     0.0603706
      54.2000     0.0596398
      54.3000     0.0589162
      54.4000     0.0581999
      54.5000     0.0574905
      54.6000     0.0567896
      54.7000     0.0560957
      54.8000     0.0554095
      54.9000     0.0547304
      55.0000     0.0540582
      55.1000     0.0533918
      55.2000     0.0527079
      55.3000     0.0520095
      55.4000     0.0513181
      55.5000     0.0506346
      55.6000     0.0499585
      55.7000     0.0492905
      55.8000     0.0486294
      55.9000     0.0479750
      56.0000     0.0473351
      56.1000     0.0466913
      56.2000     0.0460448
      56.3000     0.0454055
      56.4000     0.0447737
      56.5000     0.0441485
      56.6000     0.0435303
      56.7000     0.0429200
      56.8000     0.0423166
      56.9000     0.0417222
      57.0000     0.0411342
      57.1000     0.0405522
      57.2000     0.0399760
      57.3000     0.0394066
      57.4000     0.0388436
      57.5000     0.0382879
      57.6000     0.0377385
      57.7000     0.0371957
      57.8000     0.0366604
      57.9000     0.0361324
      58.0000     0.0356103
      58.1000     0.0350935
      58.2000     0.0345836
      58.3000     0.0340798
      58.4000     0.0335822
      58.5000     0.0330906
      58.6000     0.0326057
      58.7000     0.0321265
      58.8000     0.0316536
      58.9000     0.0311862
      59.0000     0.0307246
      59.1000     0.0302685
      59.2000     0.0298185
      59.3000     0.0293742
      59.4000     0.0289359
      59.5000     0.0285031
      59.6000     0.0280761
      59.7000     0.0276539
      59.8000     0.0272373
      59.9000     0.0268257
      60.0000     0.0264199
      60.1000     0.0260190
      60.2000     0.0256237
      60.3000     0.0252338
      60.4000     0.0248489
      60.5000     0.0244695
      60.6000     0.0240944
      60.7000     0.0237234
      60.8000     0.0233570
      60.9000     0.0229956
      61.0000     0.0226389
      61.1000     0.0222875
      61.2000     0.0219405
      61.3000     0.0215987
      61.4000     0.0212611
      61.5000     0.0209282
      61.6000     0.0205992
      61.7000     0.0202746
      61.8000     0.0199552
      61.9000     0.0196411
      62.0000     0.0193313
      62.1000     0.0190257
      62.2000     0.0187247
      62.3000     0.0184276
      62.4000     0.0181348
      62.5000     0.0178458
      62.6000     0.0175606
      62.7000     0.0172790
      62.8000     0.0170028
      62.9000     0.0167305
      63.0000     0.0164621
      63.1000     0.0161976
      63.2000     0.0159367
      63.3000     0.0156792
      63.4000     0.0154250
      63.5000     0.0151750
      63.6000     0.0149282
      63.7000     0.0146849
      63.8000     0.0144453
      63.9000     0.0142094
      64.0000     0.0139770
      64.1000     0.0137477
      64.2000     0.0135223
      64.3000     0.0132998
      64.4000     0.0130805
      64.5000     0.0128641
      64.6000     0.0126507
      64.7000     0.0124406
      64.8000     0.0122334
      64.9000     0.0120294
      65.0000     0.0118283
      65.1000     0.0116305
      65.2000     0.0114358
      65.3000     0.0112436
      65.4000     0.0110545
      65.5000     0.0108680
      65.6000     0.0106841
      65.7000     0.0105029
      65.8000     0.0103246
      65.9000     0.0101495
      66.0000    0.00997683
      66.1000    0.00980700
      66.2000    0.00963978
      66.3000    0.00947497
      66.4000    0.00931274
      66.5000    0.00915272
      66.6000    0.00899514
      66.7000    0.00884003
      66.8000    0.00868728
      66.9000    0.00854011
      67.0000    0.00839797
      67.1000    0.00825861
      67.2000    0.00812151
      67.3000    0.00798631
      67.4000    0.00785321
      67.5000    0.00772198
      67.6000    0.00759262
      67.7000    0.00746523
      67.8000    0.00733936
      67.9000    0.00721513
      68.0000    0.00709355
      68.1000    0.00697452
      68.2000    0.00685730
      68.3000    0.00674179
      68.4000    0.00662817
      68.5000    0.00651641
      68.6000    0.00640613
      68.7000    0.00629756
      68.8000    0.00619059
      68.9000    0.00608679
      69.0000    0.00599330
      69.1000    0.00590910
      69.2000    0.00582750
      69.3000    0.00574820
      69.4000    0.00567196
      69.5000    0.00559408
      69.6000    0.00551366
      69.7000    0.00543640
      69.8000    0.00536305
      69.9000    0.00529073
      70.0000    0.00521911
      70.1000    0.00514696
      70.2000    0.00507836
      70.3000    0.00501335
      70.4000    0.00494855
      70.5000    0.00488527
      70.6000    0.00482349
      70.7000    0.00476258
      70.8000    0.00470223
      70.9000    0.00464043
      71.0000    0.00457737
      71.1000    0.00451719
      71.2000    0.00446002
      71.3000    0.00439934
      71.4000    0.00433422
      71.5000    0.00427427
      71.6000    0.00422178
      71.7000    0.00416882
      71.8000    0.00411416
      71.9000    0.00406139
      72.0000    0.00401260
      72.1000    0.00396284
      72.2000    0.00390558
      72.3000    0.00384926
      72.4000    0.00379996
      72.5000    0.00375129
      72.6000    0.00370316
      72.7000    0.00365573
      72.8000    0.00360885
      72.9000    0.00356254
      73.0000    0.00351799
      73.1000    0.00347450
      73.2000    0.00343152
      73.3000    0.00338913
      73.4000    0.00334762
      73.5000    0.00330726
      73.6000    0.00326743
      73.7000    0.00322808
      73.8000    0.00318911
      73.9000    0.00315057
      74.0000    0.00311272
      74.1000    0.00307835
      74.2000    0.00304532
      74.3000    0.00300961
      74.4000    0.00297190
      74.5000    0.00293528
      74.6000    0.00290046
      74.7000    0.00286600
      74.8000    0.00283193
      74.9000    0.00279824
      75.0000    0.00276453
      75.1000    0.00273108
      75.2000    0.00269805
      75.3000    0.00266539
      75.4000    0.00263336
      75.5000    0.00260239
      75.6000    0.00257178
      75.7000    0.00254145
      75.8000    0.00251157
      75.9000    0.00248243
      76.0000    0.00245369
      76.1000    0.00242528
      76.2000    0.00239719
      76.3000    0.00236944
      76.4000    0.00234246
      76.5000    0.00231586
      76.6000    0.00228949
      76.7000    0.00226336
      76.8000    0.00223753
      76.9000    0.00221200
      77.0000    0.00218673
      77.1000    0.00216171
      77.2000    0.00213699
      77.3000    0.00211251
      77.4000    0.00208827
      77.5000    0.00206432
      77.6000    0.00204018
      77.7000    0.00201623
      77.8000    0.00199253
      77.9000    0.00196907
      78.0000    0.00194554
      78.1000    0.00192141
      78.2000    0.00189762
      78.3000    0.00187593
      78.4000    0.00185510
      78.5000    0.00183432
      78.6000    0.00181324
      78.7000    0.00179238
      78.8000    0.00177101
      78.9000    0.00174972
      79.0000    0.00172864
      79.1000    0.00170775
      79.2000    0.00168717
      79.3000    0.00166742
      79.4000    0.00164806
      79.5000    0.00162870
      79.6000    0.00160897
      79.7000    0.00158945
      79.8000    0.00156982
      79.9000    0.00155028
      80.0000    0.00153094
      80.1000    0.00151112
      80.2000    0.00149146
      80.3000    0.00147133
      80.4000    0.00145078
      80.5000    0.00143043
      80.6000    0.00141034
      80.7000    0.00139050
      80.8000    0.00137100
      80.9000    0.00135198
      81.0000    0.00133321
      81.1000    0.00131474
      81.2000    0.00129651
      81.3000    0.00127854
      81.4000    0.00126208
      81.5000    0.00124591
      81.6000    0.00123028
      81.7000    0.00121558
      81.8000    0.00120111
      81.9000    0.00118733
      82.0000    0.00117393
      82.1000    0.00116070
      82.2000    0.00114722
      82.3000    0.00113390
      82.4000    0.00112100
      82.5000    0.00110865
      82.6000    0.00109641
      82.7000    0.00108397
      82.8000    0.00107124
      82.9000    0.00105862
      83.0000    0.00104628
      83.1000    0.00103413
      83.2000    0.00102209
      83.3000    0.00101018
      83.4000   0.000998425
      83.5000   0.000986832
      83.6000   0.000975613
      83.7000   0.000964522
      83.8000   0.000953494
      83.9000   0.000942411
      84.0000   0.000931424
      84.1000   0.000920709
      84.2000   0.000910362
      84.3000   0.000900108
      84.4000   0.000889829
      84.5000   0.000879568
      84.6000   0.000869420
      84.7000   0.000859545
      84.8000   0.000849853
      84.9000   0.000840282
      85.0000   0.000830599
      85.1000   0.000820954
      85.2000   0.000811415
      85.3000   0.000802341
      85.4000   0.000793435
      85.5000   0.000784635
      85.6000   0.000775730
      85.7000   0.000766906
      85.8000   0.000758173
      85.9000   0.000749527
      86.0000   0.000740955
      86.1000   0.000732466
      86.2000   0.000724314
      86.3000   0.000716259
      86.4000   0.000708278
      86.5000   0.000700367
      86.6000   0.000692534
      86.7000   0.000684789
      86.8000   0.000676593
      86.9000   0.000668465
      87.0000   0.000660443
      87.1000   0.000652637
      87.2000   0.000644934
      87.3000   0.000637307
      87.4000   0.000629575
      87.5000   0.000621898
      87.6000   0.000614297
      87.7000   0.000606882
      87.8000   0.000599561
      87.9000   0.000592320
      88.0000   0.000585162
      88.1000   0.000578073
      88.2000   0.000571063
      88.3000   0.000564270
      88.4000   0.000557694
      88.5000   0.000551215
      88.6000   0.000544753
      88.7000   0.000538285
      88.8000   0.000531889
      88.9000   0.000525556
      89.0000   0.000519264
      89.1000   0.000513041
      89.2000   0.000506882
      89.3000   0.000500781
      89.4000   0.000494731
      89.5000   0.000488741
      89.6000   0.000482812
      89.7000   0.000476947
      89.8000   0.000471145
      89.9000   0.000465400
      90.0000   0.000459715
      90.1000   0.000454101
      90.2000   0.000448443
      90.3000   0.000442599
      90.4000   0.000436814
      90.5000   0.000431098
      90.6000   0.000425551
      90.7000   0.000419967
      90.8000   0.000414328
      90.9000   0.000408613
      91.0000   0.000402941
      91.1000   0.000397345
      91.2000   0.000391756
      91.3000   0.000386135
      91.4000   0.000380571
      91.5000   0.000375090
      91.6000   0.000369693
      91.7000   0.000364756
      91.8000   0.000360473
      91.9000   0.000356939
      92.0000   0.000353001
      92.1000   0.000349013
      92.2000   0.000344827
      92.3000   0.000340473
      92.4000   0.000336046
      92.5000   0.000331688
      92.6000   0.000327384
      92.7000   0.000323132
      92.8000   0.000318927
      92.9000   0.000314815
      93.0000   0.000310857
      93.1000   0.000306945
      93.2000   0.000303084
      93.3000   0.000299386
      93.4000   0.000295771
      93.5000   0.000292194
      93.6000   0.000288656
      93.7000   0.000285157
      93.8000   0.000281714
      93.9000   0.000278309
      94.0000   0.000274943
      94.1000   0.000271616
      94.2000   0.000268332
      94.3000   0.000265107
      94.4000   0.000261993
      94.5000   0.000258921
      94.6000   0.000255886
      94.7000   0.000252891
      94.8000   0.000249925
      94.9000   0.000246989
      95.0000   0.000244087
      95.1000   0.000241227
      95.2000   0.000238389
      95.3000   0.000235573
      95.4000   0.000232790
      95.5000   0.000230080
      95.6000   0.000227398
      95.7000   0.000224744
      95.8000   0.000222088
      95.9000   0.000219449
      96.0000   0.000216836
      96.1000   0.000214247
      96.2000   0.000211684
      96.3000   0.000209153
      96.4000   0.000206649
      96.5000   0.000204173
      96.6000   0.000201735
      96.7000   0.000199336
      96.8000   0.000196956
      96.9000   0.000194596
      97.0000   0.000192261
      97.1000   0.000189962
      97.2000   0.000187684
      97.3000   0.000185403
      97.4000   0.000183121
      97.5000   0.000180871
      97.6000   0.000178649
      97.7000   0.000176464
      97.8000   0.000174312
      97.9000   0.000172187
      98.0000   0.000170083
      98.1000   0.000167998
      98.2000   0.000165941
      98.3000   0.000164035
      98.4000   0.000162209
      98.5000   0.000160440
      98.6000   0.000158690
      98.7000   0.000156958
      98.8000   0.000155242
      98.9000   0.000153541
      99.0000   0.000151862
      99.1000   0.000150198
      99.2000   0.000148541
      99.3000   0.000146857
      99.4000   0.000145195
      99.5000   0.000143550
      99.6000   0.000141930
      99.7000   0.000140394
      99.8000   0.000138905
      99.9000   0.000137695
      100.000   0.000136902
      100.100   0.000136065
      100.200   0.000135230
      100.300   0.000134397
      100.400   0.000133570
      100.500   0.000132765
      100.600   0.000131962
      100.700   0.000131160
      100.800   0.000130359
      100.900   0.000129562
      101.000   0.000128769
      101.100   0.000127982
      101.200   0.000127197
      101.300   0.000126415
      101.400   0.000125636
      101.500   0.000124862
      101.600   0.000124092
      101.700   0.000123338
      101.800   0.000122591
      101.900   0.000121846
      102.000   0.000121107
      102.100   0.000120391
      102.200   0.000119689
      102.300   0.000118990
      102.400   0.000118294
      102.500   0.000117599
      102.600   0.000116905
      102.700   0.000116213
      102.800   0.000115524
      102.900   0.000114837
      103.000   0.000114151
      103.100   0.000113466
      103.200   0.000112783
      103.300   0.000112104
      103.400   0.000111427
      103.500   0.000110753
      103.600   0.000110081
      103.700   0.000109410
      103.800   0.000108715
      103.900   0.000107993
      104.000   0.000107276
      104.100   0.000106565
      104.200   0.000105869
      104.300   0.000105254
      104.400   0.000104644
      104.500   0.000104036
      104.600   0.000103431
      104.700   0.000102803
      104.800   0.000102167
      104.900   0.000101533
      105.000   0.000100902
      105.100   0.000100290
      105.200   9.97247e-05
      105.300   9.91622e-05
      105.400   9.86011e-05
      105.500   9.80406e-05
      105.600   9.74906e-05
      105.700   9.69440e-05
      105.800   9.63988e-05
      105.900   9.58564e-05
      106.000   9.53302e-05
      106.100   9.48350e-05
      106.200   9.43433e-05
      106.300   9.38529e-05
      106.400   9.33644e-05
      106.500   9.28780e-05
      106.600   9.23933e-05
      106.700   9.19100e-05
      106.800   9.14273e-05
      106.900   9.09466e-05
      107.000   9.04682e-05
      107.100   8.99923e-05
      107.200   8.95191e-05
      107.300   8.90480e-05
      107.400   8.85763e-05
      107.500   8.81041e-05
      107.600   8.76332e-05
      107.700   8.71636e-05
      107.800   8.66960e-05
      107.900   8.62240e-05
      108.000   8.57529e-05
      108.100   8.52823e-05
      108.200   8.48125e-05
      108.300   8.43435e-05
      108.400   8.38700e-05
      108.500   8.33983e-05
      108.600   8.29281e-05
      108.700   8.24581e-05
      108.800   8.19684e-05
      108.900   8.14504e-05
      109.000   8.09341e-05
      109.100   8.04202e-05
      109.200   7.99086e-05
      109.300   7.93993e-05
      109.400   7.88920e-05
      109.500   7.83871e-05
      109.600   7.78847e-05
      109.700   7.73850e-05
      109.800   7.68886e-05
      109.900   7.63949e-05
      110.000   7.59033e-05
      110.100   7.54135e-05
      110.200   7.49256e-05
      110.300   7.44524e-05
      110.400   7.39827e-05
      110.500   7.35157e-05
      110.600   7.30510e-05
      110.700   7.25881e-05
      110.800   7.21264e-05
      110.900   7.16661e-05
      111.000   7.12072e-05
      111.100   7.07497e-05
      111.200   7.02950e-05
      111.300   6.98659e-05
      111.400   6.94383e-05
      111.500   6.90117e-05
      111.600   6.85867e-05
      111.700   6.81646e-05
      111.800   6.77597e-05
      111.900   6.73575e-05
      112.000   6.69572e-05
      112.100   6.65584e-05
      112.200   6.61608e-05
      112.300   6.57496e-05
      112.400   6.53394e-05
      112.500   6.49314e-05
      112.600   6.45257e-05
      112.700   6.41243e-05
      112.800   6.37391e-05
      112.900   6.33204e-05
      113.000   6.29157e-05
      113.100   6.25180e-05
      113.200   6.21156e-05
      113.300   6.17230e-05
      113.400   6.12537e-05
      113.500   6.07673e-05
      113.600   6.03509e-05
      113.700   5.99156e-05
      113.800   5.94370e-05
      113.900   5.90271e-05
      114.000   5.86193e-05
      114.100   5.81669e-05
      114.200   5.77403e-05
      114.300   5.73531e-05
      114.400   5.69575e-05
      114.500   5.65534e-05
      114.600   5.61991e-05
      114.700   5.58103e-05
      114.800   5.54471e-05
      114.900   5.51414e-05
      115.000   5.47959e-05
      115.100   5.44277e-05
      115.200   5.40585e-05
      115.300   5.37413e-05
      115.400   5.33778e-05
      115.500   5.30399e-05
      115.600   5.26838e-05
      115.700   5.22997e-05
      115.800   5.19573e-05
      115.900   5.15952e-05
      116.000   5.12692e-05
      116.100   5.09974e-05
      116.200   5.07222e-05
      116.300   5.04386e-05
      116.400   5.01391e-05
      116.500   4.98778e-05
      116.600   4.96053e-05
      116.700   4.93429e-05
      116.800   4.90702e-05
      116.900   4.87533e-05
      117.000   4.84886e-05
      117.100   4.83704e-05
      117.200   4.83540e-05
      117.300   4.82363e-05
      117.400   4.81113e-05
      117.500   4.79875e-05
      117.600   4.78052e-05
      117.700   4.76005e-05
      117.800   4.73660e-05
      117.900   4.71167e-05
      118.000   4.68392e-05
      118.100   4.65348e-05
      118.200   4.62536e-05
      118.300   4.59827e-05
      118.400   4.56044e-05
      118.500   4.52370e-05
      118.600   4.49210e-05
      118.700   4.45889e-05
      118.800   4.42345e-05
      118.900   4.38983e-05
      119.000   4.35060e-05
      119.100   4.30502e-05
      119.200   4.26524e-05
      119.300   4.23036e-05
      119.400   4.19834e-05
      119.500   4.16768e-05
      119.600   4.13343e-05
      119.700   4.09499e-05
      119.800   4.04813e-05
      119.900   3.99018e-05
      120.000   3.93627e-05
      120.100   3.88564e-05
      120.200   3.84932e-05
      120.300   3.82121e-05
      120.400   3.79312e-05
      120.500   3.75388e-05
      120.600   3.70635e-05
      120.700   3.65639e-05
      120.800   3.60858e-05
      120.900   3.57562e-05
      121.000   3.56547e-05
      121.100   3.55131e-05
      121.200   3.52588e-05
      121.300   3.49257e-05
      121.400   3.45338e-05
      121.500   3.40987e-05
      121.600   3.34896e-05
      121.700   3.29558e-05
      121.800   3.23642e-05
      121.900   3.17693e-05
      122.000   3.11375e-05
      122.100   3.05423e-05
      122.200   2.99575e-05
      122.300   2.95240e-05
      122.400   2.92523e-05
      122.500   2.90158e-05
      122.600   2.87602e-05
      122.700   2.85046e-05
      122.800   2.82149e-05
      122.900   2.79472e-05
      123.000   2.78630e-05
      123.100   2.80947e-05
      123.200   2.83460e-05
      123.300   2.87575e-05
      123.400   2.93004e-05
      123.500   3.00313e-05
      123.600   3.06499e-05
      123.700   3.09449e-05
      123.800   3.11472e-05
      123.900   3.14395e-05
      124.000   3.18779e-05
      124.100   3.27939e-05
      124.200   3.47265e-05
      124.300   3.76433e-05
      124.400   4.04438e-05
      124.500   4.12019e-05
      124.600   4.10177e-05
      124.700   4.07265e-05
      124.800   4.04477e-05
      124.900   4.01696e-05
      125.000   3.98915e-05
      125.100   3.96060e-05
      125.200   3.93209e-05
      125.300   3.90372e-05
      125.400   3.87550e-05
      125.500   3.84743e-05
      125.600   3.81950e-05
      125.700   3.79174e-05
      125.800   3.76412e-05
      125.900   3.73668e-05
      126.000   3.70942e-05
      126.100   3.68233e-05
      126.200   3.65543e-05
      126.300   3.62869e-05
      126.400   3.60211e-05
      126.500   3.57568e-05
      126.600   3.54940e-05
      126.700   3.52327e-05
      126.800   3.49729e-05
      126.900   3.47145e-05
      127.000   3.44566e-05
      127.100   3.41971e-05
      127.200   3.39376e-05
      127.300   3.36791e-05
      127.400   3.34221e-05
      127.500   3.31666e-05
      127.600   3.29126e-05
      127.700   3.26603e-05
      127.800   3.24095e-05
      127.900   3.21602e-05
      128.000   3.19126e-05
      128.100   3.16663e-05
      128.200   3.14215e-05
      128.300   3.11780e-05
      128.400   3.09360e-05
      128.500   3.06952e-05
      128.600   3.04558e-05
      128.700   3.02179e-05
      128.800   2.99813e-05
      128.900   2.97462e-05
      129.000   2.95126e-05
      129.100   2.92798e-05
      129.200   2.90467e-05
      129.300   2.88150e-05
      129.400   2.85847e-05
      129.500   2.83561e-05
      129.600   2.81290e-05
      129.700   2.79034e-05
      129.800   2.76793e-05
      129.900   2.74569e-05
      130.000   2.72360e-05
      130.100   2.70167e-05
      130.200   2.67987e-05
      130.300   2.65824e-05
      130.400   2.63677e-05
      130.500   2.61544e-05
      130.600   2.59427e-05
      130.700   2.57327e-05
      130.800   2.55241e-05
      130.900   2.53171e-05
      131.000   2.51115e-05
      131.100   2.49074e-05
      131.200   2.47043e-05
      131.300   2.45021e-05
      131.400   2.43012e-05
      131.500   2.41015e-05
      131.600   2.39031e-05
      131.700   2.37060e-05
      131.800   2.35102e-05
      131.900   2.33155e-05
      132.000   2.31221e-05
      132.100   2.29299e-05
      132.200   2.27390e-05
      132.300   2.25493e-05
      132.400   2.23609e-05
      132.500   2.21739e-05
      132.600   2.19881e-05
      132.700   2.18038e-05
      132.800   2.16207e-05
      132.900   2.14388e-05
      133.000   2.12582e-05
      133.100   2.10788e-05
      133.200   2.09006e-05
      133.300   2.07236e-05
      133.400   2.05476e-05
      133.500   2.03729e-05
      133.600   2.01994e-05
      133.700   2.00272e-05
      133.800   1.98562e-05
      133.900   1.96867e-05
      134.000   1.95184e-05
      134.100   1.93513e-05
      134.200   1.91855e-05
      134.300   1.90210e-05
      134.400   1.88577e-05
      134.500   1.86956e-05
      134.600   1.85348e-05
      134.700   1.83752e-05
      134.800   1.82169e-05
      134.900   1.80597e-05
      135.000   1.79037e-05
      135.100   1.77489e-05
      135.200   1.75953e-05
      135.300   1.74429e-05
      135.400   1.72916e-05
      135.500   1.71409e-05
      135.600   1.69911e-05
      135.700   1.68423e-05
      135.800   1.66947e-05
      135.900   1.65482e-05
      136.000   1.64028e-05
      136.100   1.62583e-05
      136.200   1.61151e-05
      136.300   1.59727e-05
      136.400   1.58315e-05
      136.500   1.56912e-05
      136.600   1.55519e-05
      136.700   1.54136e-05
      136.800   1.52762e-05
      136.900   1.51399e-05
      137.000   1.50046e-05
      137.100   1.48702e-05
      137.200   1.47368e-05
      137.300   1.46046e-05
      137.400   1.44733e-05
      137.500   1.43431e-05
      137.600   1.42139e-05
      137.700   1.40854e-05
      137.800   1.39579e-05
      137.900   1.38314e-05
      138.000   1.37059e-05
      138.100   1.35814e-05
      138.200   1.34579e-05
      138.300   1.33355e-05
      138.400   1.32141e-05
      138.500   1.30936e-05
      138.600   1.29742e-05
      138.700   1.28557e-05
      138.800   1.27382e-05
      138.900   1.26216e-05
      139.000   1.25060e-05
      139.100   1.23915e-05
      139.200   1.22779e-05
      139.300   1.21652e-05
      139.400   1.20534e-05
      139.500   1.19425e-05
      139.600   1.18325e-05
      139.700   1.17234e-05
      139.800   1.16152e-05
      139.900   1.15078e-05
      140.000   1.14012e-05
      140.100   1.12955e-05
      140.200   1.11906e-05
      140.300   1.10866e-05
      140.400   1.09833e-05
      140.500   1.08809e-05
      140.600   1.07792e-05
      140.700   1.06784e-05
      140.800   1.05785e-05
      140.900   1.04794e-05
      141.000   1.03810e-05
      141.100   1.02835e-05
      141.200   1.01867e-05
      141.300   1.00907e-05
      141.400   9.99548e-06
      141.500   9.90099e-06
      141.600   9.80730e-06
      141.700   9.71437e-06
      141.800   9.62218e-06
      141.900   9.53071e-06
      142.000   9.43998e-06
      142.100   9.35369e-06
      142.200   9.27877e-06
      142.300   9.21353e-06
      142.400   9.14863e-06
      142.500   9.08402e-06
      142.600   9.01971e-06
      142.700   8.95571e-06
      142.800   8.89205e-06
      142.900   8.82872e-06
      143.000   8.76572e-06
      143.100   8.70306e-06
      143.200   8.64078e-06
      143.300   8.57881e-06
      143.400   8.51720e-06
      143.500   8.45591e-06
      143.600   8.39495e-06
      143.700   8.33427e-06
      143.800   8.27396e-06
      143.900   8.21399e-06
      144.000   8.15432e-06
      144.100   8.09496e-06
      144.200   8.03593e-06
      144.300   7.97718e-06
      144.400   7.91962e-06
      144.500   7.87418e-06
      144.600   7.83257e-06
      144.700   7.79143e-06
      144.800   7.75032e-06
      144.900   7.70924e-06
      145.000   7.66818e-06
      145.100   7.62717e-06
      145.200   7.58617e-06
      145.300   7.54522e-06
      145.400   7.50429e-06
      145.500   7.46339e-06
      145.600   7.42252e-06
      145.700   7.38168e-06
      145.800   7.34088e-06
      145.900   7.30013e-06
      146.000   7.25941e-06
      146.100   7.21873e-06
      146.200   7.17810e-06
      146.300   7.13753e-06
      146.400   7.09699e-06
      146.500   7.05655e-06
      146.600   7.01617e-06
      146.700   6.97588e-06
      146.800   6.93522e-06
      146.900   6.89404e-06
      147.000   6.85296e-06
      147.100   6.81196e-06
      147.200   6.77108e-06
      147.300   6.73028e-06
      147.400   6.68959e-06
      147.500   6.64899e-06
      147.600   6.60849e-06
      147.700   6.56811e-06
      147.800   6.52784e-06
      147.900   6.48767e-06
      148.000   6.44761e-06
      148.100   6.40768e-06
      148.200   6.36788e-06
      148.300   6.32820e-06
      148.400   6.28866e-06
      148.500   6.24924e-06
      148.600   6.20996e-06
      148.700   6.17080e-06
      148.800   6.13178e-06
      148.900   6.09291e-06
      149.000   6.05420e-06
      149.100   6.01561e-06
      149.200   5.97712e-06
      149.300   5.93876e-06
      149.400   5.90052e-06
      149.500   5.86244e-06
      149.600   5.82447e-06
      149.700   5.78665e-06
      149.800   5.74894e-06
      149.900   5.71137e-06
      150.000   5.67391e-06
      150.100   5.63659e-06
      150.200   5.59938e-06
      150.300   5.56232e-06
      150.400   5.52538e-06
      150.500   5.48856e-06
      150.600   5.45187e-06
      150.700   5.41529e-06
      150.800   5.37885e-06
      150.900   5.34254e-06
      151.000   5.30633e-06
      151.100   5.27025e-06
      151.200   5.23430e-06
      151.300   5.19847e-06
      151.400   5.16276e-06
      151.500   5.12720e-06
      151.600   5.09184e-06
      151.700   5.05669e-06
      151.800   5.02166e-06
      151.900   4.98675e-06
      152.000   4.95199e-06
      152.100   4.91737e-06
      152.200   4.88290e-06
      152.300   4.84855e-06
      152.400   4.81436e-06
      152.500   4.78031e-06
      152.600   4.74641e-06
      152.700   4.71267e-06
      152.800   4.67908e-06
      152.900   4.64566e-06
      153.000   4.61239e-06
      153.100   4.57928e-06
      153.200   4.54632e-06
      153.300   4.51353e-06
      153.400   4.48090e-06
      153.500   4.44841e-06
      153.600   4.41609e-06
      153.700   4.38393e-06
      153.800   4.35193e-06
      153.900   4.32007e-06
      154.000   4.28888e-06
      154.100   4.25897e-06
      154.200   4.22958e-06
      154.300   4.20029e-06
      154.400   4.17114e-06
      154.500   4.14211e-06
      154.600   4.11321e-06
      154.700   4.08443e-06
      154.800   4.05576e-06
      154.900   4.02722e-06
      155.000   3.99879e-06
      155.100   3.97050e-06
      155.200   3.94231e-06
      155.300   3.91426e-06
      155.400   3.88634e-06
      155.500   3.85853e-06
      155.600   3.83084e-06
      155.700   3.80327e-06
      155.800   3.77582e-06
      155.900   3.74848e-06
      156.000   3.72127e-06
      156.100   3.69418e-06
      156.200   3.66720e-06
      156.300   3.64033e-06
      156.400   3.61358e-06
      156.500   3.58681e-06
      156.600   3.55932e-06
      156.700   3.53196e-06
      156.800   3.50473e-06
      156.900   3.47763e-06
      157.000   3.45067e-06
      157.100   3.42383e-06
      157.200   3.39714e-06
      157.300   3.37056e-06
      157.400   3.34413e-06
      157.500   3.31782e-06
      157.600   3.29164e-06
      157.700   3.26560e-06
      157.800   3.23970e-06
      157.900   3.21393e-06
      158.000   3.18829e-06
      158.100   3.16280e-06
      158.200   3.13744e-06
      158.300   3.11222e-06
      158.400   3.08714e-06
      158.500   3.06220e-06
      158.600   3.03740e-06
      158.700   3.01274e-06
      158.800   2.98822e-06
      158.900   2.96384e-06
      159.000   2.93962e-06
      159.100   2.91551e-06
      159.200   2.89155e-06
      159.300   2.86773e-06
      159.400   2.84405e-06
      159.500   2.82053e-06
      159.600   2.79714e-06
      159.700   2.77390e-06
      159.800   2.75080e-06
      159.900   2.72784e-06
      160.000   2.70503e-06
      160.100   2.68236e-06
      160.200   2.65983e-06
      160.300   2.63744e-06
      160.400   2.61518e-06
      160.500   2.59307e-06
      160.600   2.57109e-06
      160.700   2.54924e-06
      160.800   2.52753e-06
      160.900   2.50595e-06
      161.000   2.48451e-06
      161.100   2.46319e-06
      161.200   2.44201e-06
      161.300   2.42097e-06
      161.400   2.40005e-06
      161.500   2.37927e-06
      161.600   2.35861e-06
      161.700   2.33805e-06
      161.800   2.31763e-06
      161.900   2.29733e-06
      162.000   2.27716e-06
      162.100   2.25712e-06
      162.200   2.23720e-06
      162.300   2.21742e-06
      162.400   2.19777e-06
      162.500   2.17824e-06
      162.600   2.15884e-06
      162.700   2.13957e-06
      162.800   2.12043e-06
      162.900   2.10142e-06
      163.000   2.08253e-06
      163.100   2.06376e-06
      163.200   2.04512e-06
      163.300   2.02661e-06
      163.400   2.00822e-06
      163.500   1.98995e-06
      163.600   1.97182e-06
      163.700   1.95380e-06
      163.800   1.93591e-06
      163.900   1.91816e-06
      164.000   1.90051e-06
      164.100   1.88301e-06
      164.200   1.86563e-06
      164.300   1.84848e-06
      164.400   1.83147e-06
      164.500   1.81458e-06
      164.600   1.79780e-06
      164.700   1.78116e-06
      164.800   1.76463e-06
      164.900   1.74823e-06
      165.000   1.73195e-06
      165.100   1.71579e-06
      165.200   1.69975e-06
      165.300   1.68384e-06
      165.400   1.66805e-06
      165.500   1.65238e-06
      165.600   1.63683e-06
      165.700   1.62140e-06
      165.800   1.60610e-06
      165.900   1.59090e-06
      166.000   1.57584e-06
      166.100   1.56089e-06
      166.200   1.54606e-06
      166.300   1.53135e-06
      166.400   1.51676e-06
      166.500   1.50228e-06
      166.600   1.48791e-06
      166.700   1.47366e-06
      166.800   1.45951e-06
      166.900   1.44547e-06
      167.000   1.43158e-06
      167.100   1.41777e-06
      167.200   1.40407e-06
      167.300   1.39048e-06
      167.400   1.37700e-06
      167.500   1.36363e-06
      167.600   1.35036e-06
      167.700   1.33720e-06
      167.800   1.32414e-06
      167.900   1.31119e-06
      168.000   1.29834e-06
      168.100   1.28559e-06
      168.200   1.27294e-06
      168.300   1.26039e-06
      168.400   1.24795e-06
      168.500   1.23560e-06
      168.600   1.22335e-06
      168.700   1.21120e-06
      168.800   1.19915e-06
      168.900   1.18720e-06
      169.000   1.17534e-06
      169.100   1.16358e-06
      169.200   1.15191e-06
      169.300   1.14034e-06
      169.400   1.12886e-06
      169.500   1.11742e-06
      169.600   1.10581e-06
      169.700   1.09401e-06
      169.800   1.08222e-06
      169.900   1.07053e-06
      170.000   1.05893e-06
      170.100   1.04744e-06
      170.200   1.03604e-06
      170.300   1.35915e-06
      170.400   2.93829e-06
      170.500   5.59767e-06
      170.600   8.28394e-06
      170.700   1.04595e-05
      170.800   1.15029e-05
      170.900   1.15880e-05
      171.000   1.14359e-05
      171.100   1.12851e-05
      171.200   1.11354e-05
      171.300   1.09869e-05
      171.400   1.08396e-05
      171.500   1.06936e-05
      171.600   1.05489e-05
      171.700   1.04056e-05
      171.800   1.02637e-05
      171.900   1.01234e-05
      172.000   9.98470e-06
      172.100   9.84767e-06
      172.200   9.71247e-06
      172.300   9.57872e-06
      172.400   9.44489e-06
      172.500   9.31251e-06
      172.600   9.18201e-06
      172.700   9.05341e-06
      172.800   8.92662e-06
      172.900   8.80165e-06
      173.000   8.67855e-06
      173.100   8.55727e-06
      173.200   8.43772e-06
      173.300   8.31997e-06
      173.400   8.20388e-06
      173.500   8.08953e-06
      173.600   7.97688e-06
      173.700   7.86584e-06
      173.800   7.75639e-06
      173.900   7.64858e-06
      174.000   7.54228e-06
      174.100   7.43746e-06
      174.200   7.33416e-06
      174.300   7.23231e-06
      174.400   7.13189e-06
      174.500   7.03285e-06
      174.600   6.93510e-06
      174.700   6.83873e-06
      174.800   6.74367e-06
      174.900   6.64985e-06
      175.000   6.55722e-06
      175.100   6.46581e-06
      175.200   6.37587e-06
      175.300   6.28705e-06
      175.400   6.19937e-06
      175.500   6.11286e-06
      175.600   6.02748e-06
      175.700   5.94321e-06
      175.800   5.86002e-06
      175.900   5.77793e-06
      176.000   5.69691e-06
      176.100   5.61699e-06
      176.200   5.53809e-06
      176.300   5.46020e-06
      176.400   5.38339e-06
      176.500   5.30755e-06
      176.600   5.23271e-06
      176.700   5.15885e-06
      176.800   5.08598e-06
      176.900   5.01408e-06
      177.000   4.94311e-06
      177.100   4.87306e-06
      177.200   4.80396e-06
      177.300   4.73577e-06
      177.400   4.66845e-06
      177.500   4.60200e-06
      177.600   4.53643e-06
      177.700   4.47173e-06
      177.800   4.40788e-06
      177.900   4.34481e-06
      178.000   4.28286e-06
      178.100   4.22174e-06
      178.200   4.16140e-06
      178.300   4.10184e-06
      178.400   4.04309e-06
      178.500   3.98510e-06
      178.600   3.92786e-06
      178.700   3.87135e-06
      178.800   3.81561e-06
      178.900   3.76062e-06
      179.000   3.70634e-06
      179.100   3.65277e-06
      179.200   3.59993e-06
      179.300   3.54781e-06
      179.400   3.49638e-06
      179.500   3.44569e-06
      179.600   3.39568e-06
      179.700   3.34639e-06
      179.800   3.29776e-06
      179.900   3.24982e-06
      180.000   3.20254e-06
      180.100   3.15595e-06
      180.200   3.11003e-06
      180.300   3.06476e-06
      180.400   3.02014e-06
      180.500   2.97618e-06
      180.600   2.93285e-06
      180.700   2.89016e-06
      180.800   2.84809e-06
      180.900   2.80663e-06
      181.000   2.76577e-06
      181.100   2.72552e-06
      181.200   2.68585e-06
      181.300   2.64676e-06
      181.400   2.60826e-06
      181.500   2.57031e-06
      181.600   2.53292e-06
      181.700   2.49606e-06
      181.800   2.45974e-06
      181.900   2.42395e-06
      182.000   2.38869e-06
      182.100   2.35393e-06
      182.200   2.31968e-06
      182.300   2.28592e-06
      182.400   2.25266e-06
      182.500   2.21986e-06
      182.600   2.18751e-06
      182.700   2.15563e-06
      182.800   2.12421e-06
      182.900   2.09322e-06
      183.000   2.06267e-06
      183.100   2.03256e-06
      183.200   2.00286e-06
      183.300   1.97358e-06
      183.400   1.94470e-06
      183.500   1.91624e-06
      183.600   1.88818e-06
      183.700   1.86051e-06
      183.800   1.83325e-06
      183.900   1.80638e-06
      184.000   1.77990e-06
      184.100   1.75378e-06
      184.200   1.72805e-06
      184.300   1.70267e-06
      184.400   1.67766e-06
      184.500   1.65301e-06
      184.600   1.62870e-06
      184.700   1.60473e-06
      184.800   1.58110e-06
      184.900   1.55781e-06
      185.000   1.53484e-06
      185.100   1.51220e-06
      185.200   1.48987e-06
      185.300   1.46787e-06
      185.400   1.44617e-06
      185.500   1.42477e-06
      185.600   1.40368e-06
      185.700   1.38287e-06
      185.800   1.36238e-06
      185.900   1.34218e-06
      186.000   1.32225e-06
      186.100   1.30259e-06
      186.200   1.28322e-06
      186.300   1.26411e-06
      186.400   1.24526e-06
      186.500   1.22667e-06
      186.600   1.20834e-06
      186.700   1.19026e-06
      186.800   1.17242e-06
      186.900   1.15482e-06
      187.000   1.13747e-06
      187.100   1.12035e-06
      187.200   1.10346e-06
      187.300   1.08683e-06
      187.400   1.07042e-06
      187.500   1.05424e-06
      187.600   1.03828e-06
      187.700   1.02254e-06
      187.800   1.00702e-06
      187.900   9.91718e-07
      188.000   9.76634e-07
      188.100   9.61759e-07
      188.200   9.47090e-07
      188.300   9.32626e-07
      188.400   9.18367e-07
      188.500   9.04318e-07
      188.600   8.90475e-07
      188.700   8.76837e-07
      188.800   8.63401e-07
      188.900   8.50165e-07
      189.000   8.37118e-07
      189.100   8.24259e-07
      189.200   8.11591e-07
      189.300   7.99114e-07
      189.400   7.86823e-07
      189.500   7.74714e-07
      189.600   7.62781e-07
      189.700   7.51032e-07
      189.800   7.39522e-07
      189.900   7.28203e-07
      190.000   7.17049e-07
      190.100   7.06067e-07
      190.200   6.95250e-07
      190.300   6.84597e-07
      190.400   6.74098e-07
      190.500   6.63760e-07
      190.600   6.53581e-07
      190.700   6.43551e-07
      190.800   6.33674e-07
      190.900   6.23947e-07
      191.000   6.14369e-07
      191.100   6.04944e-07
      191.200   5.95658e-07
      191.300   5.86511e-07
      191.400   5.77503e-07
      191.500   5.68627e-07
      191.600   5.59886e-07
      191.700   5.51275e-07
      191.800   5.42789e-07
      191.900   5.34433e-07
      192.000   5.26205e-07
      192.100   5.18105e-07
      192.200   5.10132e-07
      192.300   5.02277e-07
      192.400   4.94537e-07
      192.500   4.86913e-07
      192.600   4.79404e-07
      192.700   4.72008e-07
      192.800   4.64721e-07
      192.900   4.57539e-07
      193.000   4.50467e-07
      193.100   4.43505e-07
      193.200   4.36652e-07
      193.300   4.29903e-07
      193.400   4.23259e-07
      193.500   4.16715e-07
      193.600   4.10267e-07
      193.700   4.03916e-07
      193.800   3.97665e-07
      193.900   3.91509e-07
      194.000   3.85445e-07
      194.100   3.79477e-07
      194.200   3.73607e-07
      194.300   3.67825e-07
      194.400   3.62129e-07
      194.500   3.56520e-07
      194.600   3.50995e-07
      194.700   3.45554e-07
      194.800   3.40198e-07
      194.900   3.34919e-07
      195.000   3.29721e-07
      195.100   3.24606e-07
      195.200   3.19571e-07
      195.300   3.14610e-07
      195.400   3.09723e-07
      195.500   3.04907e-07
      195.600   3.00162e-07
      195.700   2.95488e-07
      195.800   2.90882e-07
      195.900   2.86343e-07
      196.000   2.81821e-07
      196.100   2.77364e-07
      196.200   2.72975e-07
      196.300   2.68650e-07
      196.400   2.64388e-07
      196.500   2.60187e-07
      196.600   2.56050e-07
      196.700   2.51973e-07
      196.800   2.47958e-07
      196.900   2.44005e-07
      197.000   2.40111e-07
      197.100   2.36274e-07
      197.200   2.32493e-07
      197.300   2.28767e-07
      197.400   2.25094e-07
      197.500   2.21476e-07
      197.600   2.17912e-07
      197.700   2.14405e-07
      197.800   2.10952e-07
      197.900   2.07548e-07
      198.000   2.04196e-07
      198.100   2.00893e-07
      198.200   1.97639e-07
      198.300   1.94433e-07
      198.400   1.91276e-07
      198.500   1.88171e-07
      198.600   1.85115e-07
      198.700   1.82104e-07
      198.800   1.79139e-07
      198.900   1.76220e-07
      199.000   1.73345e-07
      199.100   1.70513e-07
      199.200   1.67725e-07
      199.300   1.64985e-07
      199.400   1.62288e-07
      199.500   1.59634e-07
      199.600   1.57019e-07
      199.700   1.54446e-07
      199.800   1.51912e-07
      199.900   1.49419e-07
      200.000   1.46964e-07
      200.100   1.44558e-07
      200.200   1.42183e-07
      200.300   1.39847e-07
      200.400   1.37548e-07
      200.500   1.35285e-07
      200.600   1.33059e-07
      200.700   1.30868e-07
      200.800   1.28710e-07
      200.900   1.26588e-07
      201.000   1.24502e-07
      201.100   1.22449e-07
      201.200   1.20428e-07
      201.300   1.18440e-07
      201.400   1.16485e-07
      201.500   1.14559e-07
      201.600   1.12665e-07
      201.700   1.10802e-07
      201.800   1.08968e-07
      201.900   1.07164e-07
      202.000   1.05391e-07
      202.100   1.03646e-07
      202.200   1.01929e-07
      202.300   1.00300e-07
      202.400   9.88059e-08
      202.500   9.73653e-08
      202.600   9.59444e-08
      202.700   9.45444e-08
      202.800   9.31651e-08
      202.900   9.18061e-08
      203.000   9.04670e-08
      203.100   8.91479e-08
      203.200   8.78474e-08
      203.300   8.65654e-08
      203.400   8.53021e-08
      203.500   8.40576e-08
      203.600   8.28310e-08
      203.700   8.16224e-08
      203.800   8.04323e-08
      203.900   7.92602e-08
      204.000   7.81050e-08
      204.100   7.69670e-08
      204.200   7.58461e-08
      204.300   7.47411e-08
      204.400   7.36527e-08
      204.500   7.25802e-08
      204.600   7.15234e-08
      204.700   7.04821e-08
      204.800   6.94573e-08
      204.900   6.84475e-08
      205.000   6.74525e-08
      205.100   6.64724e-08
      205.200   6.55062e-08
      205.300   6.45548e-08
      205.400   6.36170e-08
      205.500   6.26927e-08
      205.600   6.18060e-08
      205.700   6.09540e-08
      205.800   6.01165e-08
      205.900   5.92910e-08
      206.000   5.84774e-08
      206.100   5.76745e-08
      206.200   5.68823e-08
      206.300   5.61012e-08
      206.400   5.53308e-08
      206.500   5.45704e-08
      206.600   5.38204e-08
      206.700   5.30804e-08
      206.800   5.23499e-08
      206.900   5.16293e-08
      207.000   5.09186e-08
      207.100   5.02171e-08
      207.200   4.95253e-08
      207.300   4.88426e-08
      207.400   4.81686e-08
      207.500   4.75034e-08
      207.600   4.68470e-08
      207.700   4.61989e-08
      207.800   4.55593e-08
      207.900   4.49280e-08
      208.000   4.43048e-08
      208.100   4.36898e-08
      208.200   4.30828e-08
      208.300   4.24836e-08
      208.400   4.18924e-08
      208.500   4.13091e-08
      208.600   4.07330e-08
      208.700   4.01644e-08
      208.800   3.96032e-08
      208.900   3.90486e-08
      209.000   3.84975e-08
      209.100   3.79536e-08
      209.200   3.74168e-08
      209.300   3.68870e-08
      209.400   3.63644e-08
      209.500   3.58486e-08
      209.600   3.53397e-08
      209.700   3.48376e-08
      209.800   3.43427e-08
      209.900   3.38541e-08
      210.000   3.33722e-08
      210.100   3.28967e-08
      210.200   3.24276e-08
      210.300   3.19649e-08
      210.400   3.15084e-08
      210.500   3.10580e-08
      210.600   3.06138e-08
      210.700   3.01757e-08
      210.800   2.97435e-08
      210.900   2.93171e-08
      211.000   2.88965e-08
      211.100   2.84818e-08
      211.200   2.80727e-08
      211.300   2.76694e-08
      211.400   2.72719e-08
      211.500   2.68797e-08
      211.600   2.64929e-08
      211.700   2.61115e-08
      211.800   2.57351e-08
      211.900   2.53640e-08
      212.000   2.49982e-08
      212.100   2.46373e-08
      212.200   2.42813e-08
      212.300   2.39305e-08
      212.400   2.35846e-08
      212.500   2.32435e-08
      212.600   2.29072e-08
      212.700   2.25756e-08
      212.800   2.22485e-08
      212.900   2.19262e-08
      213.000   2.16081e-08
      213.100   2.12948e-08
      213.200   2.09859e-08
      213.300   2.06812e-08
      213.400   2.03809e-08
      213.500   2.00847e-08
      213.600   1.97927e-08
      213.700   1.95049e-08
      213.800   1.92210e-08
      213.900   1.89414e-08
      214.000   1.86656e-08
      214.100   1.83937e-08
      214.200   1.81258e-08
      214.300   1.78617e-08
      214.400   1.76013e-08
      214.500   1.73447e-08
      214.600   1.70919e-08
      214.700   1.68426e-08
      214.800   1.65970e-08
      214.900   1.63551e-08
      215.000   1.61165e-08
      215.100   1.58815e-08
      215.200   1.56499e-08
      215.300   1.54219e-08
      215.400   1.51971e-08
      215.500   1.49757e-08
      215.600   1.47576e-08
      215.700   1.45427e-08
      215.800   1.43308e-08
      215.900   1.41221e-08
      216.000   1.39165e-08
      216.100   1.37139e-08
      216.200   1.35144e-08
      216.300   1.33178e-08
      216.400   1.31242e-08
      216.500   1.29333e-08
      216.600   1.27454e-08
      216.700   1.25603e-08
      216.800   1.23779e-08
      216.900   1.21983e-08
      217.000   1.20213e-08
      217.100   1.18469e-08
      217.200   1.16752e-08
      217.300   1.15059e-08
      217.400   1.13392e-08
      217.500   1.11750e-08
      217.600   1.10131e-08
      217.700   1.08536e-08
      217.800   1.06965e-08
      217.900   1.05418e-08
      218.000   1.03893e-08
      218.100   1.02390e-08
      218.200   1.00909e-08
      218.300   9.94505e-09
      218.400   9.80131e-09
      218.500   9.65955e-09
      218.600   9.51992e-09
      218.700   9.38227e-09
      218.800   9.24660e-09
      218.900   9.11291e-09
      219.000   8.98110e-09
      219.100   8.85116e-09
      219.200   8.72309e-09
      219.300   8.59684e-09
      219.400   8.47234e-09
      219.500   8.34964e-09
      219.600   8.22867e-09
      219.700   8.10940e-09
      219.800   7.99186e-09
      219.900   7.87594e-09
      220.000   7.76164e-09
      220.100   7.64895e-09
      220.200   7.53784e-09
      220.300   7.42832e-09
      220.400   7.32032e-09
      220.500   7.21386e-09
      220.600   7.10890e-09
      220.700   7.00537e-09
      220.800   6.90327e-09
      220.900   6.80267e-09
      221.000   6.70344e-09
      221.100   6.60558e-09
      221.200   6.50915e-09
      221.300   6.41405e-09
      221.400   6.32027e-09
      221.500   6.22783e-09
      221.600   6.13668e-09
      221.700   6.04679e-09
      221.800   5.95814e-09
      221.900   5.87077e-09
      222.000   5.78466e-09
      222.100   5.69971e-09
      222.200   5.61599e-09
      222.300   5.53343e-09
      222.400   5.45204e-09
      222.500   5.37177e-09
      222.600   5.29268e-09
      222.700   5.21467e-09
      222.800   5.13774e-09
      222.900   5.06192e-09
      223.000   4.98715e-09
      223.100   4.91343e-09
      223.200   4.84076e-09
      223.300   4.76911e-09
      223.400   4.69849e-09
      223.500   4.62884e-09
      223.600   4.56022e-09
      223.700   4.49254e-09
      223.800   4.42581e-09
      223.900   4.36009e-09
      224.000   4.29524e-09
      224.100   4.23132e-09
      224.200   4.16830e-09
      224.300   4.10620e-09
      224.400   4.04496e-09
      224.500   3.98460e-09
      224.600   3.92507e-09
      224.700   3.86644e-09
      224.800   3.80861e-09
      224.900   3.75160e-09
      225.000   3.69541e-09
      225.100   3.64002e-09
      225.200   3.58540e-09
      225.300   3.53160e-09
      225.400   3.47853e-09
      225.500   3.42623e-09
      225.600   3.37467e-09
      225.700   3.32387e-09
      225.800   3.27378e-09
      225.900   3.22441e-09
      226.000   3.17577e-09
      226.100   3.12782e-09
      226.200   3.08057e-09
      226.300   3.03421e-09
      226.400   2.98872e-09
      226.500   2.94383e-09
      226.600   2.89953e-09
      226.700   2.85585e-09
      226.800   2.81276e-09
      226.900   2.77027e-09
      227.000   2.72841e-09
      227.100   2.68714e-09
      227.200   2.64648e-09
      227.300   2.60643e-09
      227.400   2.56696e-09
      227.500   2.52807e-09
      227.600   2.48976e-09
      227.700   2.45201e-09
      227.800   2.41483e-09
      227.900   2.37820e-09
      228.000   2.34212e-09
      228.100   2.30657e-09
      228.200   2.27155e-09
      228.300   2.23707e-09
      228.400   2.20310e-09
      228.500   2.16964e-09
      228.600   2.13669e-09
      228.700   2.10424e-09
      228.800   2.07227e-09
      228.900   2.04080e-09
      229.000   2.00980e-09
      229.100   1.97927e-09
      229.200   1.94921e-09
      229.300   1.91961e-09
      229.400   1.89046e-09
      229.500   1.86176e-09
      229.600   1.83350e-09
      229.700   1.80567e-09
      229.800   1.77826e-09
      229.900   1.75128e-09
      230.000   1.72458e-09
      230.100   1.69733e-09
      230.200   1.67048e-09
      230.300   1.64408e-09
      230.400   1.61809e-09
      230.500   1.59252e-09
      230.600   1.56735e-09
      230.700   1.54259e-09
      230.800   1.51823e-09
      230.900   1.49426e-09
      231.000   1.47066e-09
      231.100   1.44744e-09
      231.200   1.42459e-09
      231.300   1.40210e-09
      231.400   1.37999e-09
      231.500   1.35821e-09
      231.600   1.33677e-09
      231.700   1.31568e-09
      231.800   1.29493e-09
      231.900   1.27450e-09
      232.000   1.25439e-09
      232.100   1.23460e-09
      232.200   1.21513e-09
      232.300   1.19597e-09
      232.400   1.17710e-09
      232.500   1.15853e-09
      232.600   1.14025e-09
      232.700   1.12226e-09
      232.800   1.10456e-09
      232.900   1.08713e-09
      233.000   1.06998e-09
      233.100   1.05310e-09
      233.200   1.03647e-09
      233.300   1.02011e-09
      233.400   1.00401e-09
      233.500   9.88162e-10
      233.600   9.72567e-10
      233.700   9.57210e-10
      233.800   9.40481e-10
      233.900   9.23823e-10
      234.000   9.07450e-10
      234.100   8.91367e-10
      234.200   8.75569e-10
      234.300   8.60043e-10
      234.400   8.44786e-10
      234.500   8.29797e-10
      234.600   8.15065e-10
      234.700   8.00594e-10
      234.800   7.86377e-10
      234.900   7.72403e-10
      235.000   7.58670e-10
      235.100   7.45179e-10
      235.200   7.31923e-10
      235.300   7.18898e-10
      235.400   7.06099e-10
      235.500   6.93523e-10
      235.600   6.81170e-10
      235.700   6.69027e-10
      235.800   6.57107e-10
      235.900   6.45394e-10
      236.000   6.33885e-10
      236.100   6.22574e-10
      236.200   6.11461e-10
      236.300   6.00539e-10
      236.400   5.89811e-10
      236.500   5.79268e-10
      236.600   5.68907e-10
      236.700   5.58727e-10
      236.800   5.48723e-10
      236.900   5.38894e-10
      237.000   5.29235e-10
      237.100   5.19742e-10
      237.200   5.10416e-10
      237.300   5.01252e-10
      237.400   4.92246e-10
      237.500   4.83395e-10
      237.600   4.74693e-10
      237.700   4.66149e-10
      237.800   4.57753e-10
      237.900   4.49502e-10
      238.000   4.41397e-10
      238.100   4.33429e-10
      238.200   4.25600e-10
      238.300   4.17906e-10
      238.400   4.10346e-10
      238.500   4.02915e-10
      238.600   3.95615e-10
      238.700   3.88443e-10
      238.800   3.81393e-10
      238.900   3.74466e-10
      239.000   3.67657e-10
      239.100   3.60967e-10
      239.200   3.54396e-10
      239.300   3.47938e-10
      239.400   3.41599e-10
      239.500   3.35369e-10
      239.600   3.29245e-10
      239.700   3.23231e-10
      239.800   3.17319e-10
      239.900   3.11511e-10
      240.000   3.05804e-10
      240.100   3.00195e-10
      240.200   2.94684e-10
      240.300   2.89269e-10
      240.400   2.83947e-10
      240.500   2.78722e-10
      240.600   2.73587e-10
      240.700   2.68542e-10
      240.800   2.63587e-10
      240.900   2.58722e-10
      241.000   2.53943e-10
      241.100   2.49248e-10
      241.200   2.44636e-10
      241.300   2.40104e-10
      241.400   2.35653e-10
      241.500   2.31280e-10
      241.600   2.26985e-10
      241.700   2.22766e-10
      241.800   2.18621e-10
      241.900   2.14550e-10
      242.000   2.10552e-10
      242.100   2.06626e-10
      242.200   2.02773e-10
      242.300   1.98990e-10
      242.400   1.95275e-10
      242.500   1.91627e-10
      242.600   1.88044e-10
      242.700   1.84525e-10
      242.800   1.81071e-10
      242.900   1.77679e-10
      243.000   1.74348e-10
      243.100   1.71077e-10
      243.200   1.67865e-10
      243.300   1.64712e-10
      243.400   1.61617e-10
      243.500   1.58579e-10
      243.600   1.55601e-10
      243.700   1.52675e-10
      243.800   1.49802e-10
      243.900   1.46984e-10
      244.000   1.44216e-10
      244.100   1.41499e-10
      244.200   1.38833e-10
      244.300   1.36214e-10
      244.400   1.33645e-10
      244.500   1.31122e-10
      244.600   1.28646e-10
      244.700   1.26217e-10
      244.800   1.23836e-10
      244.900   1.21498e-10
      245.000   1.19203e-10
      245.100   1.16951e-10
      245.200   1.14741e-10
      245.300   1.12572e-10
      245.400   1.10442e-10
      245.500   1.08353e-10
      245.600   1.06303e-10
      245.700   1.04290e-10
      245.800   1.02314e-10
      245.900   1.00378e-10
      246.000   9.84792e-11
      246.100   9.66151e-11
      246.200   9.47859e-11
      246.300   9.29906e-11
      246.400   9.12293e-11
      246.500   8.95004e-11
      246.600   8.78038e-11
      246.700   8.61392e-11
      246.800   8.45049e-11
      246.900   8.29013e-11
      247.000   8.13299e-11
      247.100   7.97883e-11
      247.200   7.82758e-11
      247.300   7.67916e-11
      247.400   7.53349e-11
      247.500   7.39055e-11
      247.600   7.25027e-11
      247.700   7.11262e-11
      247.800   6.97755e-11
      247.900   6.84498e-11
      248.000   6.71491e-11
      248.100   6.58757e-11
      248.200   6.46257e-11
      248.300   6.33990e-11
      248.400   6.21952e-11
      248.500   6.10137e-11
      248.600   5.98544e-11
      248.700   5.87170e-11
      248.800   5.76007e-11
      248.900   5.65056e-11
      249.000   5.54309e-11
      249.100   5.43777e-11
      249.200   5.33451e-11
      249.300   5.23314e-11
      249.400   5.13366e-11
      249.500   5.03607e-11
      249.600   4.94028e-11
      249.700   4.84628e-11
      249.800   4.75405e-11
      249.900   4.66353e-11
      250.000   4.57474e-11
      250.100   4.48772e-11
      250.200   4.40233e-11
      250.300   4.31861e-11
      250.400   4.23644e-11
      250.500   4.15583e-11
      250.600   4.07674e-11
      250.700   3.99913e-11
      250.800   3.92297e-11
      250.900   3.84825e-11
      251.000   3.77493e-11
      251.100   3.70298e-11
      251.200   3.63244e-11
      251.300   3.56329e-11
      251.400   3.49544e-11
      251.500   3.42883e-11
      251.600   3.36349e-11
      251.700   3.29941e-11
      251.800   3.23651e-11
      251.900   3.17479e-11
      252.000   3.11421e-11
      252.100   3.05481e-11
      252.200   2.99649e-11
      252.300   2.93933e-11
      252.400   2.88324e-11
      252.500   2.82824e-11
      252.600   2.77425e-11
      252.700   2.72128e-11
      252.800   2.66930e-11
      252.900   2.61830e-11
      253.000   2.56825e-11
      253.100   2.51915e-11
      253.200   2.47097e-11
      253.300   2.42461e-11
      253.400   2.37952e-11
      253.500   2.33528e-11
      253.600   2.29188e-11
      253.700   2.24925e-11
      253.800   2.20741e-11
      253.900   2.16634e-11
      254.000   2.12600e-11
      254.100   2.08639e-11
      254.200   2.04750e-11
      254.300   2.00932e-11
      254.400   1.97183e-11
      254.500   1.93502e-11
      254.600   1.89887e-11
      254.700   1.86339e-11
      254.800   1.82859e-11
      254.900   1.79441e-11
      255.000   1.76085e-11
      255.100   1.72788e-11
      255.200   1.69552e-11
      255.300   1.66375e-11
      255.400   1.63255e-11
      255.500   1.60192e-11
      255.600   1.57185e-11
      255.700   1.54231e-11
      255.800   1.51331e-11
      255.900   1.48484e-11
      256.000   1.45688e-11
      256.100   1.42944e-11
      256.200   1.40250e-11
      256.300   1.37606e-11
      256.400   1.35011e-11
      256.500   1.32461e-11
      256.600   1.29959e-11
      256.700   1.27502e-11
      256.800   1.25089e-11
      256.900   1.22720e-11
      257.000   1.20394e-11
      257.100   1.18110e-11
      257.200   1.15869e-11
      257.300   1.13668e-11
      257.400   1.11531e-11
      257.500   1.09442e-11
      257.600   1.07393e-11
      257.700   1.05381e-11
      257.800   1.03405e-11
      257.900   1.01465e-11
      258.000   9.95601e-12
      258.100   9.76889e-12
      258.200   9.58518e-12
      258.300   9.40484e-12
      258.400   9.22768e-12
      258.500   9.05370e-12
      258.600   8.88294e-12
      258.700   8.71527e-12
      258.800   8.55058e-12
      258.900   8.38901e-12
      259.000   8.23025e-12
      259.100   8.07447e-12
      259.200   7.92149e-12
      259.300   7.77146e-12
      259.400   7.62413e-12
      259.500   7.47946e-12
      259.600   7.33749e-12
      259.700   7.19814e-12
      259.800   7.06128e-12
      259.900   6.92689e-12
      260.000   6.79504e-12
      260.100   6.66562e-12
      260.200   6.53857e-12
      260.300   6.41386e-12
      260.400   6.29146e-12
      260.500   6.17136e-12
      260.600   6.05342e-12
      260.700   5.93766e-12
      260.800   5.82413e-12
      260.900   5.71263e-12
      261.000   5.60327e-12
      261.100   5.49597e-12
      261.200   5.39065e-12
      261.300   5.28729e-12
      261.400   5.18591e-12
      261.500   5.08654e-12
      261.600   4.98941e-12
      261.700   4.89416e-12
      261.800   4.80071e-12
      261.900   4.70895e-12
      262.000   4.61891e-12
      262.100   4.53055e-12
      262.200   4.44389e-12
      262.300   4.35880e-12
      262.400   4.27532e-12
      262.500   4.19340e-12
      262.600   4.11299e-12
      262.700   4.03411e-12
      262.800   3.95671e-12
      262.900   3.88073e-12
      263.000   3.80626e-12
      263.100   3.73315e-12
      263.200   3.66145e-12
      263.300   3.59109e-12
      263.400   3.52206e-12
      263.500   3.45436e-12
      263.600   3.38793e-12
      263.700   3.32275e-12
      263.800   3.25879e-12
      263.900   3.19608e-12
      264.000   3.13454e-12
      264.100   3.07414e-12
      264.200   3.01489e-12
      264.300   2.95680e-12
      264.400   2.89980e-12
      264.500   2.84388e-12
      264.600   2.78901e-12
      264.700   2.73521e-12
      264.800   2.68240e-12
      264.900   2.63063e-12
      265.000   2.57985e-12
      265.100   2.53001e-12
      265.200   2.48113e-12
      265.300   2.43319e-12
      265.400   2.38617e-12
      265.500   2.34004e-12
      265.600   2.29482e-12
      265.700   2.25043e-12
      265.800   2.20697e-12
      265.900   2.16434e-12
      266.000   2.12255e-12
      266.100   2.08155e-12
      266.200   2.04135e-12
      266.300   2.00190e-12
      266.400   1.96323e-12
      266.500   1.92528e-12
      266.600   1.88807e-12
      266.700   1.85157e-12
      266.800   1.81580e-12
      266.900   1.78070e-12
      267.000   1.74626e-12
      267.100   1.71249e-12
      267.200   1.67940e-12
      267.300   1.64693e-12
      267.400   1.61507e-12
      267.500   1.58384e-12
      267.600   1.55321e-12
      267.700   1.52317e-12
      267.800   1.49370e-12
      267.900   1.46481e-12
      268.000   1.43648e-12
      268.100   1.40869e-12
      268.200   1.38145e-12
      268.300   1.35474e-12
      268.400   1.32853e-12
      268.500   1.30283e-12
      268.600   1.27762e-12
      268.700   1.25291e-12
      268.800   1.22867e-12
      268.900   1.20491e-12
      269.000   1.18161e-12
      269.100   1.15875e-12
      269.200   1.13634e-12
      269.300   1.11437e-12
      269.400   1.09280e-12
      269.500   1.07166e-12
      269.600   1.05094e-12
      269.700   1.03061e-12
      269.800   1.01068e-12
      269.900   9.91134e-13
      270.000   9.71969e-13
      270.100   9.53202e-13
      270.200   9.34821e-13
      270.300   9.16790e-13
      270.400   8.99102e-13
      270.500   8.81761e-13
      270.600   8.64749e-13
      270.700   8.48068e-13
      270.800   8.31713e-13
      270.900   8.15660e-13
      271.000   7.99927e-13
      271.100   7.84494e-13
      271.200   7.69353e-13
      271.300   7.54509e-13
      271.400   7.39948e-13
      271.500   7.25669e-13
      271.600   7.11657e-13
      271.700   6.97918e-13
      271.800   6.84448e-13
      271.900   6.71232e-13
      272.000   6.58275e-13
      272.100   6.45559e-13
      272.200   6.33093e-13
      272.300   6.20860e-13
      272.400   6.08862e-13
      272.500   5.97097e-13
      272.600   5.85555e-13
      272.700   5.74234e-13
      272.800   5.63129e-13
      272.900   5.52238e-13
      273.000   5.41558e-13
      273.100   5.31078e-13
      273.200   5.20797e-13
      273.300   5.10719e-13
      273.400   5.00828e-13
      273.500   4.91128e-13
      273.600   4.81613e-13
      273.700   4.72277e-13
      273.800   4.63120e-13
      273.900   4.54142e-13
      274.000   4.45333e-13
      274.100   4.36690e-13
      274.200   4.28212e-13
      274.300   4.19897e-13
      274.400   4.11398e-13
      274.500   4.02306e-13
      274.600   3.93252e-13
      274.700   3.84402e-13
      274.800   3.75743e-13
      274.900   3.67273e-13
      275.000   3.58991e-13
      275.100   3.50891e-13
      275.200   3.42971e-13
      275.300   3.35223e-13
      275.400   3.27648e-13
      275.500   3.20242e-13
      275.600   3.12993e-13
      275.700   3.05909e-13
      275.800   2.98983e-13
      275.900   2.92206e-13
      276.000   2.85580e-13
      276.100   2.79100e-13
      276.200   2.72764e-13
      276.300   2.66565e-13
      276.400   2.60506e-13
      276.500   2.54578e-13
      276.600   2.48785e-13
      276.700   2.43117e-13
      276.800   2.37578e-13
      276.900   2.32159e-13
      277.000   2.26861e-13
      277.100   2.21680e-13
      277.200   2.16614e-13
      277.300   2.11661e-13
      277.400   2.06818e-13
      277.500   2.02082e-13
      277.600   1.97452e-13
      277.700   1.92924e-13
      277.800   1.88497e-13
      277.900   1.84169e-13
      278.000   1.79938e-13
      278.100   1.75802e-13
      278.200   1.71756e-13
      278.300   1.67803e-13
      278.400   1.63938e-13
      278.500   1.60157e-13
      278.600   1.56461e-13
      278.700   1.52850e-13
      278.800   1.49319e-13
      278.900   1.45833e-13
      279.000   1.42415e-13
      279.100   1.39075e-13
      279.200   1.35810e-13
      279.300   1.32621e-13
      279.400   1.29502e-13
      279.500   1.26457e-13
      279.600   1.23480e-13
      279.700   1.20572e-13
      279.800   1.17730e-13
      279.900   1.14952e-13
      280.000   1.12239e-13
      280.100   1.09587e-13
      280.200   1.06997e-13
      280.300   1.04465e-13
      280.400   1.01991e-13
      280.500   9.95760e-14
      280.600   9.72158e-14
      280.700   9.49094e-14
      280.800   9.26565e-14
      280.900   9.04552e-14
      281.000   8.83047e-14
      281.100   8.62038e-14
      281.200   8.41512e-14
      281.300   8.21462e-14
      281.400   8.01882e-14
      281.500   7.82748e-14
      281.600   7.64058e-14
      281.700   7.45800e-14
      281.800   7.27977e-14
      281.900   7.10558e-14
      282.000   6.93543e-14
      282.100   6.76924e-14
      282.200   6.60706e-14
      282.300   6.44856e-14
      282.400   6.29374e-14
      282.500   6.14251e-14
      282.600   5.99488e-14
      282.700   5.85067e-14
      282.800   5.70977e-14
      282.900   5.57233e-14
      283.000   5.43801e-14
      283.100   5.30696e-14
      283.200   5.17895e-14
      283.300   5.05399e-14
      283.400   4.93195e-14
      283.500   4.81279e-14
      283.600   4.69639e-14
      283.700   4.58271e-14
      283.800   4.47175e-14
      283.900   4.36345e-14
      284.000   4.25767e-14
      284.100   4.15438e-14
      284.200   4.05354e-14
      284.300   3.95512e-14
      284.400   3.85901e-14
      284.500   3.76518e-14
      284.600   3.67357e-14
      284.700   3.58419e-14
      284.800   3.49690e-14
      284.900   3.41169e-14
      285.000   3.32849e-14
      285.100   3.24728e-14
      285.200   3.16804e-14
      285.300   3.09066e-14
      285.400   3.01512e-14
      285.500   2.94140e-14
      285.600   2.86948e-14
      285.700   2.79924e-14
      285.800   2.73074e-14
      285.900   2.66387e-14
      286.000   2.59864e-14
      286.100   2.53499e-14
      286.200   2.47283e-14
      286.300   2.41220e-14
      286.400   2.35304e-14
      286.500   2.29528e-14
      286.600   2.23892e-14
      286.700   2.18390e-14
      286.800   2.13023e-14
      286.900   2.07784e-14
      287.000   2.02673e-14
      287.100   1.97685e-14
      287.200   1.92819e-14
      287.300   1.88069e-14
      287.400   1.83434e-14
      287.500   1.78912e-14
      287.600   1.74500e-14
      287.700   1.70194e-14
      287.800   1.65994e-14
      287.900   1.61896e-14
      288.000   1.57899e-14
      288.100   1.53998e-14
      288.200   1.50197e-14
      288.300   1.46489e-14
      288.400   1.42869e-14
      288.500   1.39339e-14
      288.600   1.35893e-14
      288.700   1.32532e-14
      288.800   1.29253e-14
      288.900   1.26055e-14
      289.000   1.22935e-14
      289.100   1.19890e-14
      289.200   1.16920e-14
      289.300   1.14023e-14
      289.400   1.11196e-14
      289.500   1.08439e-14
      289.600   1.05749e-14
      289.700   1.03127e-14
      289.800   1.00567e-14
      289.900   9.80697e-15
      290.000   9.56344e-15
      290.100   9.32602e-15
      290.200   9.09458e-15
      290.300   8.86878e-15
      290.400   8.64854e-15
      290.500   8.43379e-15
      290.600   8.22420e-15
      290.700   8.01979e-15
      290.800   7.82050e-15
      290.900   7.62602e-15
      291.000   7.43625e-15
      291.100   7.25116e-15
      291.200   7.07068e-15
      291.300   6.89460e-15
      291.400   6.72291e-15
      291.500   6.55542e-15
      291.600   6.39201e-15
      291.700   6.23274e-15
      291.800   6.07736e-15
      291.900   5.92601e-15
      292.000   5.77838e-15
      292.100   5.63435e-15
      292.200   5.49394e-15
      292.300   5.35691e-15
      292.400   5.22328e-15
      292.500   5.09290e-15
      292.600   4.96575e-15
      292.700   4.84178e-15
      292.800   4.72087e-15
      292.900   4.60295e-15
      293.000   4.48793e-15
      293.100   4.37571e-15
      293.200   4.26627e-15
      293.300   4.15956e-15
      293.400   4.05555e-15
      293.500   3.95416e-15
      293.600   3.85529e-15
      293.700   3.75884e-15
      293.800   3.66479e-15
      293.900   3.57308e-15
      294.000   3.48361e-15
      294.100   3.39635e-15
      294.200   3.31127e-15
      294.300   3.22830e-15
      294.400   3.14731e-15
      294.500   3.06837e-15
      294.600   2.99136e-15
      294.700   2.91626e-15
      294.800   2.84302e-15
      294.900   2.77164e-15
      295.000   2.70207e-15
      295.100   2.63426e-15
      295.200   2.56810e-15
      295.300   2.50356e-15
      295.400   2.44064e-15
      295.500   2.37929e-15
      295.600   2.31944e-15
      295.700   2.26107e-15
      295.800   2.20415e-15
      295.900   2.14860e-15
      296.000   2.09445e-15
      296.100   2.04162e-15
      296.200   1.99013e-15
      296.300   1.93994e-15
      296.400   1.89107e-15
      296.500   1.84337e-15
      296.600   1.79685e-15
      296.700   1.75150e-15
      296.800   1.70727e-15
      296.900   1.66412e-15
      297.000   1.62205e-15
      297.100   1.58102e-15
      297.200   1.54101e-15
      297.300   1.50198e-15
      297.400   1.46393e-15
      297.500   1.42680e-15
      297.600   1.39064e-15
      297.700   1.35539e-15
      297.800   1.32103e-15
      297.900   1.28752e-15
      298.000   1.25486e-15
      298.100   1.22299e-15
      298.200   1.19192e-15
      298.300   1.16162e-15
      298.400   1.13207e-15
      298.500   1.10325e-15
      298.600   1.07514e-15
      298.700   1.04774e-15
      298.800   1.02101e-15
      298.900   9.95005e-16
      299.000   9.69655e-16
      299.100   9.44930e-16
      299.200   9.20811e-16
      299.300   8.97302e-16
      299.400   8.74370e-16
      299.500   8.52010e-16
      299.600   8.30213e-16
      299.700   8.08958e-16
      299.800   7.88217e-16
      299.900   7.68014e-16
      300.000   7.48310e-16
      300.100   7.29110e-16
      300.192   7.11879e-16
      300.285   6.94860e-16
      300.377   6.78422e-16
      300.470   6.62197e-16
      300.562   6.46519e-16
      300.654   6.31200e-16
      300.747   6.16072e-16
      300.839   6.01465e-16
      300.932   5.87033e-16
      301.025   5.72943e-16
      301.117   5.59335e-16
      301.210   5.45894e-16
      301.303   5.32772e-16
      301.395   5.20106e-16
      301.488   5.07579e-16
      301.581   4.95367e-16
      301.674   4.83428e-16
      301.766   4.71901e-16
      301.859   4.60517e-16
      301.952   4.49407e-16
      302.045   4.38552e-16
      302.138   4.27965e-16
      302.231   4.17635e-16
      302.324   4.07551e-16
      302.417   3.97702e-16
      302.510   3.88081e-16
      302.603   3.78701e-16
      302.696   3.69533e-16
      302.789   3.60581e-16
      302.882   3.51840e-16
      302.976   3.43220e-16
      303.069   3.34892e-16
      303.162   3.26763e-16
      303.255   3.18823e-16
      303.349   3.10990e-16
      303.442   3.03422e-16
      303.535   2.96042e-16
      303.629   2.88757e-16
      303.722   2.81724e-16
      303.816   2.74782e-16
      303.909   2.68079e-16
      304.003   2.61466e-16
      304.096   2.55078e-16
      304.190   2.48776e-16
      304.283   2.42691e-16
      304.377   2.36693e-16
      304.471   2.30834e-16
      304.564   2.25179e-16
      304.658   2.19602e-16
      304.752   2.14154e-16
      304.846   2.08843e-16
      304.939   2.03714e-16
      305.033   1.98653e-16
      305.127   1.93717e-16
      305.221   1.88899e-16
      305.315   1.84200e-16
      305.409   1.79613e-16
      305.503   1.75139e-16
      305.597   1.70774e-16
      305.691   1.66514e-16
      305.785   1.62356e-16
      305.879   1.58301e-16
      305.973   1.54347e-16
      306.067   1.50486e-16
      306.161   1.46722e-16
      306.255   1.43048e-16
      306.350   1.39427e-16
      306.444   1.35932e-16
      306.538   1.32522e-16
      306.633   1.29162e-16
      306.727   1.25918e-16
      306.821   1.22754e-16
      306.916   1.19635e-16
      307.010   1.16627e-16
      307.105   1.13661e-16
      307.199   1.10800e-16
      307.294   1.07979e-16
      307.388   1.05257e-16
      307.483   1.02575e-16
      307.577   9.99867e-17
      307.672   9.74356e-17
      307.767   9.49485e-17
      307.861   9.25492e-17
      307.956   9.01828e-17
      308.051   8.78761e-17
      308.146   8.56283e-17
      308.240   8.34595e-17
      308.335   8.13218e-17
      308.430   7.92366e-17
      308.525   7.72041e-17
      308.620   7.52237e-17
      308.715   7.32925e-17
      308.810   7.14100e-17
      308.905   6.95746e-17
      309.000   6.77859e-17
      309.095   6.60420e-17
      309.190   6.43428e-17
      309.285   6.26855e-17
      309.380   6.10702e-17
      309.476   5.94801e-17
      309.571   5.79459e-17
      309.666   5.64501e-17
      309.761   5.49928e-17
      309.857   5.35576e-17
      309.952   5.21734e-17
      310.047   5.08249e-17
      310.143   4.94964e-17
      310.238   4.82155e-17
      310.334   4.69541e-17
      310.429   4.57373e-17
      310.525   4.45398e-17
      310.620   4.33850e-17
      310.716   4.22475e-17
      310.811   4.11512e-17
      310.907   4.00721e-17
      311.003   3.90206e-17
      311.098   3.80064e-17
      311.194   3.70079e-17
      311.290   3.60354e-17
      311.386   3.50882e-17
      311.481   3.41748e-17
      311.577   3.32759e-17
      311.673   3.23999e-17
      311.769   3.15466e-17
      311.865   3.07159e-17
      311.961   2.99122e-17
      312.057   2.91533e-17
      312.153   2.84216e-17
      312.249   2.77077e-17
      312.345   2.70117e-17
      312.441   2.63326e-17
      312.537   2.56706e-17
      312.633   2.50252e-17
      312.730   2.43888e-17
      312.826   2.37752e-17
      312.922   2.31768e-17
      313.018   2.25933e-17
      313.115   2.20183e-17
      313.211   2.14634e-17
      313.307   2.09225e-17
      313.404   2.03896e-17
      313.500   1.98752e-17
      313.597   1.93689e-17
      313.693   1.88804e-17
      313.790   1.83990e-17
      313.886   1.79346e-17
      313.983   1.74769e-17
      314.079   1.70354e-17
      314.176   1.66007e-17
      314.273   1.61767e-17
      314.369   1.57680e-17
      314.466   1.53653e-17
      314.563   1.49726e-17
      314.660   1.45902e-17
      314.756   1.42210e-17
      314.853   1.38574e-17
      314.950   1.35030e-17
      315.047   1.31577e-17
      315.144   1.28210e-17
      315.241   1.24930e-17
      315.338   1.21732e-17
      315.435   1.18616e-17
      315.532   1.15579e-17
      315.629   1.12619e-17
      315.726   1.09735e-17
      315.823   1.06922e-17
      315.921   1.04155e-17
      316.018   1.01486e-17
      316.115   9.88845e-18
      316.212   9.63486e-18
      316.310   9.38529e-18
      316.407   9.14459e-18
      316.504   8.90992e-18
      316.602   8.67898e-18
      316.699   8.45629e-18
      316.796   8.23929e-18
      316.894   8.02566e-18
      316.991   7.82075e-18
      317.089   7.62571e-18
      317.187   7.43893e-18
      317.284   7.25854e-18
      317.382   7.08070e-18
      317.479   6.90888e-18
      317.577   6.73959e-18
      317.675   6.57446e-18
      317.773   6.41330e-18
      317.870   6.25771e-18
      317.968   6.10423e-18
      318.066   5.95453e-18
      318.164   5.80850e-18
      318.262   5.66605e-18
      318.360   5.52704e-18
      318.458   5.39148e-18
      318.556   5.25929e-18
      318.654   5.13027e-18
      318.752   5.00440e-18
      318.850   4.88162e-18
      318.948   4.76181e-18
      319.046   4.64494e-18
      319.144   4.53090e-18
      319.242   4.41969e-18
      319.341   4.31009e-18
      319.439   4.20426e-18
      319.537   4.10105e-18
      319.635   4.00034e-18
      319.734   3.90111e-18
      319.832   3.80531e-18
      319.930   3.71182e-18
      320.029   3.61972e-18
      320.127   3.53081e-18
      320.226   3.44318e-18
      320.324   3.35854e-18
      320.423   3.27513e-18
      320.522   3.19385e-18
      320.620   3.11536e-18
      320.719   3.03800e-18
      320.818   2.96255e-18
      320.916   2.88971e-18
      321.015   2.81791e-18
      321.114   2.74789e-18
      321.213   2.67961e-18
      321.311   2.61370e-18
      321.410   2.54877e-18
      321.509   2.48540e-18
      321.608   2.42364e-18
      321.707   2.36338e-18
      321.806   2.30461e-18
      321.905   2.24732e-18
      322.004   2.19141e-18
      322.103   2.13691e-18
      322.202   2.08375e-18
      322.301   2.03191e-18
      322.401   1.98086e-18
      322.500   1.93157e-18
      322.599   1.88351e-18
      322.698   1.83664e-18
      322.798   1.79046e-18
      322.897   1.74587e-18
      322.996   1.70240e-18
      323.096   1.65956e-18
      323.195   1.61822e-18
      323.294   1.57790e-18
      323.394   1.53820e-18
      323.493   1.49986e-18
      323.593   1.46210e-18
      323.692   1.42564e-18
      323.792   1.38974e-18
      323.892   1.35473e-18
      323.991   1.32092e-18
      324.091   1.28764e-18
      324.191   1.25518e-18
      324.291   1.22353e-18
      324.390   1.19300e-18
      324.490   1.16290e-18
      324.590   1.13357e-18
      324.690   1.10497e-18
      324.790   1.07708e-18
      324.890   1.04990e-18
      324.990   1.02339e-18
      325.090   9.97530e-19
      325.190   9.72335e-19
      325.290   9.47778e-19
      325.390   9.23808e-19
      325.490   9.00460e-19
      325.590   8.77699e-19
      325.690   8.55488e-19
      325.790   8.33844e-19
      325.891   8.12534e-19
      325.991   7.91965e-19
      326.091   7.71904e-19
      326.192   7.52158e-19
      326.292   7.33098e-19
      326.392   7.14521e-19
      326.493   6.96226e-19
      326.593   6.78565e-19
      326.694   6.61191e-19
      326.794   6.44411e-19
      326.895   6.27890e-19
      326.995   6.11942e-19
      327.096   5.96248e-19
      327.197   5.80948e-19
      327.297   5.66178e-19
      327.398   5.51639e-19
      327.499   5.37469e-19
      327.599   5.23788e-19
      327.700   5.10318e-19
      327.801   4.97192e-19
      327.902   4.84407e-19
      328.003   4.71937e-19
      328.104   4.59784e-19
      328.205   4.47941e-19
      328.306   4.36398e-19
      328.407   4.25150e-19
      328.508   4.14183e-19
      328.609   4.03496e-19
      328.710   3.93083e-19
      328.811   3.82933e-19
      328.912   3.73042e-19
      329.013   3.63401e-19
      329.115   3.53916e-19
      329.216   3.44762e-19
      329.317   3.35840e-19
      329.419   3.27066e-19
      329.520   3.18594e-19
      329.621   3.10336e-19
      329.723   3.02211e-19
      329.824   2.94379e-19
      329.926   2.86668e-19
      330.027   2.79226e-19
      330.129   2.71903e-19
      330.230   2.64843e-19
      330.332   2.57890e-19
      330.434   2.51119e-19
      330.535   2.44585e-19
      330.637   2.38156e-19
      330.739   2.31896e-19
      330.840   2.25854e-19
      330.942   2.19908e-19
      331.044   2.14118e-19
      331.146   2.08476e-19
      331.248   2.02981e-19
      331.350   1.97629e-19
      331.452   1.92420e-19
      331.554   1.87466e-19
      331.656   1.82822e-19
      331.758   1.78293e-19
      331.860   1.73871e-19
      331.962   1.69557e-19
      332.064   1.65347e-19
      332.166   1.61243e-19
      332.268   1.57234e-19
      332.371   1.53289e-19
      332.473   1.49475e-19
      332.575   1.45752e-19
      332.677   1.42122e-19
      332.780   1.38548e-19
      332.882   1.35093e-19
      332.985   1.31691e-19
      333.087   1.28403e-19
      333.190   1.25165e-19
      333.292   1.21994e-19
      333.395   1.18758e-19
      333.497   1.15594e-19
      333.600   1.12483e-19
      333.702   1.09482e-19
      333.805   1.06534e-19
      333.908   1.03660e-19
      334.011   1.00865e-19
      334.113   9.81685e-20
      334.216   9.55169e-20
      334.319   9.29364e-20
      334.422   9.04236e-20
      334.525   8.79776e-20
      334.628   8.55962e-20
      334.731   8.32794e-20
      334.834   8.10235e-20
      334.937   7.88267e-20
      335.040   7.66878e-20
      335.143   7.46074e-20
      335.246   7.25815e-20
      335.349   7.06097e-20
      335.452   6.86905e-20
      335.555   6.68228e-20
      335.659   6.49868e-20
      335.762   6.32172e-20
      335.865   6.14957e-20
      335.969   5.98034e-20
      336.072   5.81717e-20
      336.175   5.65852e-20
      336.279   5.50262e-20
      336.382   5.35234e-20
      336.486   5.20463e-20
      336.589   5.06229e-20
      336.693   4.92256e-20
      336.796   4.78786e-20
      336.900   4.65549e-20
      337.004   4.52665e-20
      337.107   4.40263e-20
      337.211   4.28069e-20
      337.315   4.16219e-20
      337.419   4.04681e-20
      337.523   3.93456e-20
      337.626   3.82645e-20
      337.730   3.72026e-20
      337.834   3.61694e-20
      337.938   3.51648e-20
      338.042   3.41890e-20
      338.146   3.32472e-20
      338.250   3.23317e-20
      338.354   3.14410e-20
      338.458   3.05739e-20
      338.562   2.97306e-20
      338.667   2.89026e-20
      338.771   2.81045e-20
      338.875   2.73282e-20
      338.979   2.65728e-20
      339.084   2.58316e-20
      339.188   2.51172e-20
      339.292   2.44224e-20
      339.397   2.37398e-20
      339.501   2.30826e-20
      339.606   2.24367e-20
      339.710   2.18148e-20
      339.815   2.12041e-20
      339.919   2.06160e-20
      340.024   2.00382e-20
      340.128   1.94822e-20
      340.233   1.89357e-20
      340.338   1.84048e-20
      340.442   1.78930e-20
      340.547   1.73908e-20
      340.652   1.69023e-20
      340.757   1.64275e-20
      340.862   1.59657e-20
      340.966   1.55210e-20
      341.071   1.50845e-20
      341.176   1.46600e-20
      341.281   1.42473e-20
      341.386   1.38463e-20
      341.491   1.34561e-20
      341.596   1.30771e-20
      341.702   1.27050e-20
      341.807   1.23467e-20
      341.912   1.19984e-20
      342.017   1.16598e-20
      342.122   1.13306e-20
      342.228   1.10078e-20
      342.333   1.06968e-20
      342.438   1.03946e-20
      342.544   1.00981e-20
      342.649   9.81253e-21
      342.754   9.53517e-21
      342.860   9.26283e-21
      342.965   9.00052e-21
      343.071   8.74356e-21
      343.176   8.49597e-21
      343.282   8.25301e-21
      343.388   8.01706e-21
      343.493   7.79070e-21
      343.599   7.57566e-21
      343.705   7.36727e-21
      343.810   7.16627e-21
      343.916   6.96903e-21
      344.022   6.77715e-21
      344.128   6.59052e-21
      344.234   6.40887e-21
      344.340   6.23228e-21
      344.446   6.06043e-21
      344.552   5.89329e-21
      344.658   5.73078e-21
      344.764   5.57278e-21
      344.870   5.41896e-21
      344.976   5.26946e-21
      345.082   5.12397e-21
      345.188   4.98257e-21
      345.294   4.84490e-21
      345.401   4.70985e-21
      345.507   4.57972e-21
      345.613   4.45319e-21
      345.719   4.33011e-21
      345.826   4.20930e-21
      345.932   4.09290e-21
      346.039   3.97868e-21
      346.145   3.86861e-21
      346.252   3.76062e-21
      346.358   3.65654e-21
      346.465   3.55447e-21
      346.571   3.45608e-21
      346.678   3.35949e-21
      346.785   3.26559e-21
      346.891   3.17517e-21
      346.998   3.08645e-21
      347.105   3.00018e-21
      347.212   2.91628e-21
      347.319   2.83471e-21
      347.425   2.75611e-21
      347.532   2.67900e-21
      347.639   2.60407e-21
      347.746   2.53119e-21
      347.853   2.46031e-21
      347.960   2.39144e-21
      348.067   2.32451e-21
      348.174   2.25944e-21
      348.281   2.19617e-21
      348.389   2.13410e-21
      348.496   2.07429e-21
      348.603   2.01623e-21
      348.710   1.95973e-21
      348.818   1.90432e-21
      348.925   1.85093e-21
      349.032   1.79906e-21
      349.140   1.74790e-21
      349.247   1.69862e-21
      349.355   1.65031e-21
      349.462   1.60377e-21
      349.570   1.55808e-21
      349.677   1.51414e-21
      349.785   1.47101e-21
      349.892   1.42951e-21
      350.000   1.38880e-21
      350.100   1.35214e-21
      350.193   1.31891e-21
      350.287   1.28613e-21
      350.380   1.25452e-21
      350.473   1.22368e-21
      350.567   1.19325e-21
      350.660   1.16391e-21
      350.754   1.13498e-21
      350.847   1.10707e-21
      350.941   1.07956e-21
      351.034   1.05300e-21
      351.128   1.02682e-21
      351.221   1.00157e-21
      351.315   9.76647e-22
      351.409   9.52345e-22
      351.502   9.28913e-22
      351.596   9.05810e-22
      351.690   8.83259e-22
      351.783   8.61527e-22
      351.877   8.40092e-22
      351.971   8.19181e-22
      352.065   7.98792e-22
      352.159   7.78907e-22
      352.252   7.59721e-22
      352.346   7.40799e-22
      352.440   7.22357e-22
      352.534   7.04382e-22
      352.628   6.86831e-22
      352.722   6.69718e-22
      352.816   6.53038e-22
      352.910   6.36777e-22
      353.004   6.20918e-22
      353.098   6.05441e-22
      353.192   5.90350e-22
      353.287   5.75481e-22
      353.381   5.61130e-22
      353.475   5.47150e-22
      353.569   5.33501e-22
      353.663   5.20203e-22
      353.758   5.07098e-22
      353.852   4.94454e-22
      353.946   4.82119e-22
      354.041   4.69965e-22
      354.135   4.58241e-22
      354.229   4.46803e-22
      354.324   4.35536e-22
      354.418   4.24665e-22
      354.513   4.13950e-22
      354.607   4.03624e-22
      354.702   3.93376e-22
      354.796   3.83249e-22
      354.891   3.73253e-22
      354.985   3.63621e-22
      355.080   3.54138e-22
      355.175   3.44894e-22
      355.269   3.35989e-22
      355.364   3.27217e-22
      355.459   3.18677e-22
      355.553   3.10440e-22
      355.648   3.02336e-22
      355.743   2.94443e-22
      355.838   2.86744e-22
      355.933   2.79256e-22
      356.027   2.72035e-22
      356.122   2.64921e-22
      356.217   2.57994e-22
      356.312   2.51253e-22
      356.407   2.44680e-22
      356.502   2.38280e-22
      356.597   2.32044e-22
      356.692   2.25972e-22
      356.787   2.20058e-22
      356.882   2.14293e-22
      356.977   2.08685e-22
      357.073   2.03164e-22
      357.168   1.97838e-22
      357.263   1.92655e-22
      357.358   1.87605e-22
      357.453   1.82687e-22
      357.549   1.77848e-22
      357.644   1.73184e-22
      357.739   1.68643e-22
      357.835   1.64170e-22
      357.930   1.59861e-22
      358.025   1.55664e-22
      358.121   1.51535e-22
      358.216   1.47555e-22
      358.312   1.43637e-22
      358.407   1.39864e-22
      358.503   1.36149e-22
      358.598   1.32572e-22
      358.694   1.29049e-22
      358.790   1.25618e-22
      358.885   1.22312e-22
      358.981   1.19060e-22
      359.076   1.15927e-22
      359.172   1.12844e-22
      359.268   1.09838e-22
      359.364   1.06914e-22
      359.459   1.04098e-22
      359.555   1.01325e-22
      359.651   9.86249e-23
      359.747   9.59965e-23
      359.843   9.34369e-23
      359.939   9.09447e-23
      360.035   8.85193e-23
      360.131   8.61585e-23
      360.227   8.38569e-23
      360.323   8.16185e-23
      360.419   7.94392e-23
      360.515   7.73175e-23
      360.611   7.52506e-23
      360.707   7.32368e-23
      360.803   7.12800e-23
      360.899   6.93722e-23
      360.995   6.75166e-23
      361.092   6.56906e-23
      361.188   6.39309e-23
      361.284   6.22182e-23
      361.380   6.05512e-23
      361.477   5.89111e-23
      361.573   5.73308e-23
      361.669   5.57931e-23
      361.766   5.42798e-23
      361.862   5.28231e-23
      361.959   5.13903e-23
      362.055   5.00083e-23
      362.152   4.86512e-23
      362.248   4.73432e-23
      362.345   4.60559e-23
      362.441   4.48174e-23
      362.538   4.35989e-23
      362.635   4.24130e-23
      362.731   4.12702e-23
      362.828   4.01464e-23
      362.925   3.90531e-23
      363.021   3.79998e-23
      363.118   3.69645e-23
      363.215   3.59563e-23
      363.312   3.49751e-23
      363.409   3.40210e-23
      363.505   3.31016e-23
      363.602   3.21972e-23
      363.699   3.13176e-23
      363.796   3.04616e-23
      363.893   2.96285e-23
      363.990   2.88179e-23
      364.087   2.80293e-23
      364.184   2.72618e-23
      364.281   2.65148e-23
      364.378   2.57883e-23
      364.475   2.50813e-23
      364.573   2.43862e-23
      364.670   2.37170e-23
      364.767   2.30659e-23
      364.864   2.24323e-23
      364.961   2.18159e-23
      365.059   2.12102e-23
      365.156   2.06270e-23
      365.253   2.00594e-23
      365.351   1.95016e-23
      365.448   1.89644e-23
      365.545   1.84421e-23
      365.643   1.79285e-23
      365.740   1.74339e-23
      365.838   1.69480e-23
      365.935   1.64803e-23
      366.033   1.60207e-23
      366.130   1.55780e-23
      366.228   1.51431e-23
      366.326   1.47202e-23
      366.423   1.43130e-23
      366.521   1.39129e-23
      366.618   1.35275e-23
      366.716   1.31489e-23
      366.814   1.27809e-23
      366.912   1.24231e-23
      367.010   1.20748e-23
      367.107   1.17397e-23
      367.205   1.14103e-23
      367.303   1.10901e-23
      367.401   1.07787e-23
      367.499   1.04758e-23
      367.597   1.01814e-23
      367.695   9.89518e-24
      367.793   9.61689e-24
      367.891   9.34629e-24
      367.989   9.08296e-24
      368.087   8.82711e-24
      368.185   8.57834e-24
      368.283   8.33637e-24
      368.381   8.10105e-24
      368.480   7.87010e-24
      368.578   7.64778e-24
      368.676   7.43173e-24
      368.774   7.22168e-24
      368.873   7.01538e-24
      368.971   6.81686e-24
      369.069   6.62382e-24
      369.168   6.43420e-24
      369.266   6.25185e-24
      369.364   6.07457e-24
      369.463   5.90048e-24
      369.561   5.73302e-24
      369.660   5.56857e-24
      369.758   5.41035e-24
      369.857   5.25504e-24
      369.955   5.10561e-24
      370.054   4.95883e-24
      370.153   4.81621e-24
      370.251   4.67905e-24
      370.350   4.54439e-24
      370.449   4.41357e-24
      370.547   4.28768e-24
      370.646   4.16400e-24
      370.745   4.04396e-24
      370.844   3.92727e-24
      370.943   3.81390e-24
      371.041   3.70486e-24
      371.140   3.59777e-24
      371.239   3.49372e-24
      371.338   3.39268e-24
      371.437   3.29451e-24
      371.536   3.19915e-24
      371.635   3.10644e-24
      371.734   3.01642e-24
      371.833   2.92897e-24
      371.932   2.84400e-24
      372.032   2.76063e-24
      372.131   2.68044e-24
      372.230   2.60259e-24
      372.329   2.52696e-24
      372.428   2.45346e-24
      372.528   2.38138e-24
      372.627   2.31210e-24
      372.726   2.24478e-24
      372.826   2.17874e-24
      372.925   2.11523e-24
      373.024   2.05354e-24
      373.124   1.99301e-24
      373.223   1.93486e-24
      373.323   1.87782e-24
      373.422   1.82295e-24
      373.522   1.76913e-24
      373.621   1.71743e-24
      373.721   1.66668e-24
      373.820   1.61792e-24
      373.920   1.57007e-24
      374.020   1.52359e-24
      374.119   1.47896e-24
      374.219   1.43515e-24
      374.319   1.39265e-24
      374.419   1.35140e-24
      374.518   1.31172e-24
      374.618   1.27281e-24
      374.718   1.23501e-24
      374.818   1.19836e-24
      374.918   1.16279e-24
      375.018   1.12823e-24
      375.118   1.09470e-24
      375.218   1.06213e-24
      375.318   1.03053e-24
      375.418   9.99845e-25
      375.518   9.70087e-25
      375.618   9.41199e-25
      375.718   9.13142e-25
      375.818   8.85919e-25
      375.918   8.59495e-25
      376.019   8.33607e-25
      376.119   8.08719e-25
      376.219   7.84573e-25
      376.319   7.61127e-25
      376.420   7.38163e-25
      376.520   7.16094e-25
      376.620   6.94685e-25
      376.721   6.73692e-25
      376.821   6.53530e-25
      376.922   6.33769e-25
      377.022   6.14781e-25
      377.122   5.96365e-25
      377.223   5.78314e-25
      377.323   5.60978e-25
      377.424   5.43980e-25
      377.525   5.27498e-25
      377.625   5.11664e-25
      377.726   4.96150e-25
      377.827   4.81100e-25
      377.927   4.66640e-25
      378.028   4.52481e-25
      378.129   4.38738e-25
      378.230   4.25405e-25
      378.330   4.12602e-25
      378.431   4.00059e-25
      378.532   3.87901e-25
      378.633   3.76097e-25
      378.734   3.64650e-25
      378.835   3.53551e-25
      378.936   3.42787e-25
      379.037   3.32347e-25
      379.138   3.22218e-25
      379.239   3.12394e-25
      379.340   3.02875e-25
      379.441   2.93639e-25
      379.542   2.84678e-25
      379.643   2.75993e-25
      379.745   2.67486e-25
      379.846   2.59316e-25
      379.947   2.51393e-25
      380.048   2.43715e-25
      380.150   2.36192e-25
      380.251   2.28970e-25
      380.352   2.21969e-25
      380.454   2.15115e-25
      380.555   2.08532e-25
      380.656   2.02148e-25
      380.758   1.95897e-25
      380.859   1.89898e-25
      380.961   1.84027e-25
      381.062   1.78389e-25
      381.164   1.72867e-25
      381.266   1.67516e-25
      381.367   1.62379e-25
      381.469   1.57350e-25
      381.570   1.52523e-25
      381.672   1.47798e-25
      381.774   1.43216e-25
      381.876   1.38775e-25
      381.977   1.34514e-25
      382.079   1.30342e-25
      382.181   1.26297e-25
      382.283   1.22380e-25
      382.385   1.18581e-25
      382.487   1.14898e-25
      382.589   1.11330e-25
      382.691   1.07873e-25
      382.793   1.04522e-25
      382.895   1.01274e-25
      382.997   9.81253e-26
      383.099   9.50743e-26
      383.201   9.21187e-26
      383.303   8.92530e-26
      383.405   8.64759e-26
      383.507   8.37847e-26
      383.610   8.11527e-26
      383.712   7.86256e-26
      383.814   7.61787e-26
      383.916   7.38069e-26
      384.019   7.14856e-26
      384.121   6.92580e-26
      384.223   6.71001e-26
      384.326   6.49892e-26
      384.428   6.29618e-26
      384.531   6.09781e-26
      384.633   5.90750e-26
      384.736   5.72128e-26
      384.838   5.54259e-26
      384.941   5.36783e-26
      385.043   5.20010e-26
      385.146   5.03611e-26
      385.249   4.87725e-26
      385.351   4.72481e-26
      385.454   4.57566e-26
      385.557   4.43128e-26
      385.660   4.29136e-26
      385.762   4.15718e-26
      385.865   4.02591e-26
      385.968   3.89871e-26
      386.071   3.77550e-26
      386.174   3.65620e-26
      386.277   3.54068e-26
      386.380   3.42877e-26
      386.483   3.32037e-26
      386.586   3.21543e-26
      386.689   3.11376e-26
      386.792   3.01526e-26
      386.895   2.91989e-26
      386.998   2.82751e-26
      387.101   2.73807e-26
      387.204   2.65136e-26
      387.308   2.56664e-26
      387.411   2.48538e-26
      387.514   2.40668e-26
      387.617   2.33048e-26
      387.721   2.25600e-26
      387.824   2.18454e-26
      387.927   2.11528e-26
      388.031   2.04762e-26
      388.134   1.98273e-26
      388.238   1.91932e-26
      388.341   1.85846e-26
      388.445   1.79898e-26
      388.548   1.74191e-26
      388.652   1.68616e-26
      388.755   1.63269e-26
      388.859   1.58040e-26
      388.962   1.53027e-26
      389.066   1.48123e-26
      389.170   1.43380e-26
      389.274   1.38786e-26
      389.377   1.34379e-26
      389.481   1.30070e-26
      389.585   1.25902e-26
      389.689   1.21865e-26
      389.793   1.17956e-26
      389.897   1.14175e-26
      390.000   1.10546e-26
      390.104   1.07001e-26
      390.208   1.03567e-26
      390.312   1.00244e-26
      390.416   9.70269e-27
      390.520   9.39107e-27
      390.625   9.08646e-27
      390.729   8.79475e-27
      390.833   8.51215e-27
      390.937   8.23864e-27
      391.041   7.97398e-27
      391.145   7.71778e-27
      391.250   7.46729e-27
      391.354   7.22732e-27
      391.458   6.99499e-27
      391.563   6.76789e-27
      391.667   6.55027e-27
      391.771   6.33962e-27
      391.876   6.13372e-27
      391.980   5.93632e-27
      392.085   5.74350e-27
      392.189   5.55866e-27
      392.294   5.37801e-27
      392.398   5.20489e-27
      392.503   5.03572e-27
      392.607   4.87355e-27
      392.712   4.71514e-27
      392.817   4.56174e-27
      392.921   4.41482e-27
      393.026   4.27119e-27
      393.131   4.13228e-27
      393.236   3.99774e-27
      393.340   3.86887e-27
      393.445   3.74297e-27
      393.550   3.62113e-27
      393.655   3.50320e-27
      393.760   3.38914e-27
      393.865   3.27874e-27
      393.970   3.17199e-27
      394.075   3.06860e-27
      394.180   2.96864e-27
      394.285   2.87188e-27
      394.390   2.77829e-27
      394.495   2.68767e-27
      394.600   2.60004e-27
      394.706   2.51446e-27
      394.811   2.43247e-27
      394.916   2.35306e-27
      395.021   2.27626e-27
      395.126   2.20201e-27
      395.232   2.12943e-27
      395.337   2.05989e-27
      395.443   1.99200e-27
      395.548   1.92694e-27
      395.653   1.86401e-27
      395.759   1.80251e-27
      395.864   1.74362e-27
      395.970   1.68609e-27
      396.075   1.63097e-27
      396.181   1.57713e-27
      396.286   1.52552e-27
      396.392   1.47518e-27
      396.498   1.42647e-27
      396.603   1.37976e-27
      396.709   1.33419e-27
      396.815   1.29009e-27
      396.921   1.24743e-27
      397.026   1.20657e-27
      397.132   1.16665e-27
      397.238   1.12807e-27
      397.344   1.09072e-27
      397.450   1.05466e-27
      397.556   1.01972e-27
      397.662   9.85953e-28
      397.768   9.53314e-28
      397.874   9.21727e-28
      397.980   8.91188e-28
      398.086   8.61640e-28
      398.192   8.33087e-28
      398.298   8.05457e-28
      398.404   7.78740e-28
      398.510   7.52902e-28
      398.617   7.27702e-28
      398.723   7.03549e-28
      398.829   6.80180e-28
      398.935   6.57587e-28
      399.042   6.35549e-28
      399.148   6.14421e-28
      399.255   5.93824e-28
      399.361   5.74084e-28
      399.467   5.54979e-28
      399.574   5.36357e-28
      399.680   5.18507e-28
      399.787   5.01088e-28
      399.893       0.00000
      400.000       0.00000
