Filter C-poly
observation_date 22-Sept-2010 22:40:45
wavelength effective area 
      1.00000   2.78572e-10
      1.10000   7.95348e-10
      1.20000   2.06793e-09
      1.30000   4.94572e-09
      1.40000   1.12245e-08
      1.50000   2.39520e-08
      1.60000   4.85013e-08
      1.70000   9.41874e-08
      1.80000   1.75411e-07
      1.90000   3.15386e-07
      2.00000   5.48524e-07
      2.10000   9.26907e-07
      2.20000   1.52914e-06
      2.30000   2.45943e-06
      2.40000   3.86343e-06
      2.50000   5.90805e-06
      2.60000   9.02233e-06
      2.70000   1.34612e-05
      2.80000   1.97008e-05
      2.90000   2.85379e-05
      3.00000   4.06961e-05
      3.10000   5.72913e-05
      3.20000   7.97781e-05
      3.30000   0.000109968
      3.40000   0.000150010
      3.50000   0.000202666
      3.60000   0.000272563
      3.70000   0.000362694
      3.80000   0.000480664
      3.90000   0.000633513
      4.00000   0.000829825
      4.10000    0.00108200
      4.20000    0.00140587
      4.30000    0.00182163
      4.40000    0.00235420
      4.50000    0.00303432
      4.60000    0.00389805
      4.70000    0.00500785
      4.80000    0.00642757
      4.90000    0.00814410
      5.00000     0.0105918
      5.10000     0.0135816
      5.20000     0.0174687
      5.30000     0.0222792
      5.40000     0.0283715
      5.50000     0.0361956
      5.60000     0.0447632
      5.70000     0.0583256
      5.80000     0.0685492
      5.90000      0.104929
      6.00000      0.141416
      6.10000      0.181220
      6.20000      0.223134
      6.30000      0.263371
      6.40000      0.298208
      6.50000      0.324242
      6.60000      0.336621
      6.70000      0.348190
      6.80000      0.349726
      6.90000      0.460265
      7.00000      0.502151
      7.10000      0.532816
      7.20000      0.557719
      7.30000      0.578525
      7.40000      0.595011
      7.50000      0.608668
      7.60000      0.619596
      7.70000      0.626124
      7.80000      0.626979
      7.90000      0.628630
      8.00000      0.912420
      8.10000       1.00236
      8.20000       1.02236
      8.30000       1.03785
      8.40000       1.04940
      8.50000       1.05938
      8.60000       1.06746
      8.70000       1.07432
      8.80000       1.07962
      8.90000       1.08388
      9.00000       1.08701
      9.10000       1.08905
      9.20000       1.09020
      9.30000       1.09037
      9.40000       1.08970
      9.50000       1.08827
      9.60000       1.08598
      9.70000       1.08297
      9.80000       1.07939
      9.90000       1.07525
      10.0000       1.07062
      10.1000       1.06552
      10.2000       1.05996
      10.3000       1.05388
      10.4000       1.04732
      10.5000       1.04029
      10.6000       1.03285
      10.7000       1.02500
      10.8000       1.01676
      10.9000       1.00815
      11.0000      0.999194
      11.1000      0.989923
      11.2000      0.980338
      11.3000      0.970479
      11.4000      0.960335
      11.5000      0.949898
      11.6000      0.939189
      11.7000      0.928126
      11.8000      0.916811
      11.9000      0.905100
      12.0000      0.892052
      12.1000      0.882141
      12.2000      0.887628
      12.3000      0.883779
      12.4000      0.873351
      12.5000      0.862265
      12.6000      0.850863
      12.7000      0.839280
      12.8000      0.827564
      12.9000      0.815729
      13.0000      0.803825
      13.1000      0.791883
      13.2000      0.779927
      13.3000      0.767973
      13.4000      0.756045
      13.5000      0.744276
      13.6000      0.732646
      13.7000      0.721060
      13.8000      0.709512
      13.9000      0.698033
      14.0000      0.686620
      14.1000      0.675251
      14.2000      0.663928
      14.3000      0.652648
      14.4000      0.641393
      14.5000      0.630177
      14.6000      0.618995
      14.7000      0.607851
      14.8000      0.596751
      14.9000      0.585702
      15.0000      0.574712
      15.1000      0.563793
      15.2000      0.552963
      15.3000      0.542215
      15.4000      0.531550
      15.5000      0.520974
      15.6000      0.510522
      15.7000      0.500172
      15.8000      0.489966
      15.9000      0.479885
      16.0000      0.469927
      16.1000      0.460099
      16.2000      0.450431
      16.3000      0.440882
      16.4000      0.431443
      16.5000      0.422112
      16.6000      0.412896
      16.7000      0.403800
      16.8000      0.394805
      16.9000      0.385910
      17.0000      0.377136
      17.1000      0.368480
      17.2000      0.359920
      17.3000      0.351471
      17.4000      0.343300
      17.5000      0.335387
      17.6000      0.327699
      17.7000      0.320269
      17.8000      0.313247
      17.9000      0.306332
      18.0000      0.299471
      18.1000      0.292710
      18.2000      0.285982
      18.3000      0.279276
      18.4000      0.272572
      18.5000      0.265889
      18.6000      0.259214
      18.7000      0.252521
      18.8000      0.245936
      18.9000      0.239433
      19.0000      0.233044
      19.1000      0.226780
      19.2000      0.220609
      19.3000      0.214580
      19.4000      0.208678
      19.5000      0.202874
      19.6000      0.197245
      19.7000      0.191718
      19.8000      0.186285
      19.9000      0.181014
      20.0000      0.175820
      20.1000      0.170730
      20.2000      0.165747
      20.3000      0.160831
      20.4000      0.156042
      20.5000      0.151326
      20.6000      0.146678
      20.7000      0.142153
      20.8000      0.137683
      20.9000      0.133304
      21.0000      0.129009
      21.1000      0.124786
      21.2000      0.120645
      21.3000      0.116551
      21.4000      0.112566
      21.5000      0.108623
      21.6000      0.104719
      21.7000      0.100890
      21.8000     0.0970929
      21.9000     0.0932798
      22.0000     0.0894812
      22.1000     0.0856926
      22.2000     0.0817732
      22.3000     0.0777434
      22.4000     0.0725735
      22.5000     0.0670621
      22.6000     0.0567325
      22.7000     0.0506504
      22.8000     0.0662103
      22.9000     0.0853911
      23.0000      0.107660
      23.1000      0.121511
      23.2000      0.127399
      23.3000      0.127706
      23.4000      0.125217
      23.5000      0.122604
      23.6000      0.119970
      23.7000      0.117069
      23.8000      0.114160
      23.9000      0.111280
      24.0000      0.108409
      24.1000      0.105531
      24.2000      0.102678
      24.3000     0.0998867
      24.4000     0.0971201
      24.5000     0.0944008
      24.6000     0.0917189
      24.7000     0.0891046
      24.8000     0.0865275
      24.9000     0.0840105
      25.0000     0.0815359
      25.1000     0.0791284
      25.2000     0.0767609
      25.3000     0.0744567
      25.4000     0.0721950
      25.5000     0.0700055
      25.6000     0.0678594
      25.7000     0.0657970
      25.8000     0.0637658
      25.9000     0.0618065
      26.0000     0.0598716
      26.1000     0.0580103
      26.2000     0.0561664
      26.3000     0.0544030
      26.4000     0.0526485
      26.5000     0.0509761
      26.6000     0.0493116
      26.7000     0.0477236
      26.8000     0.0461533
      26.9000     0.0446421
      27.0000     0.0431539
      27.1000     0.0417068
      27.2000     0.0402884
      27.3000     0.0389917
      27.4000     0.0378445
      27.5000     0.0366848
      27.6000     0.0354798
      27.7000     0.0342826
      27.8000     0.0331269
      27.9000     0.0319767
      28.0000     0.0308838
      28.1000     0.0298062
      28.2000     0.0287698
      28.3000     0.0277624
      28.4000     0.0267797
      28.5000     0.0258398
      28.6000     0.0249084
      28.7000     0.0240362
      28.8000     0.0231682
      28.9000     0.0223445
      29.0000     0.0215361
      29.1000     0.0207545
      29.2000     0.0200025
      29.3000     0.0192607
      29.4000     0.0185627
      29.5000     0.0178681
      29.6000     0.0172118
      29.7000     0.0165679
      29.8000     0.0159451
      29.9000     0.0153494
      30.0000     0.0147582
      30.1000     0.0142078
      30.2000     0.0136601
      30.3000     0.0137502
      30.4000     0.0142034
      30.5000     0.0144451
      30.6000     0.0139093
      30.7000     0.0133760
      30.8000     0.0128736
      30.9000     0.0123821
      31.0000     0.0119036
      31.1000     0.0114512
      31.2000     0.0110011
      31.3000     0.0105799
      31.4000     0.0101664
      31.5000    0.00976481
      31.6000    0.00938569
      31.7000    0.00900849
      31.8000    0.00865582
      31.9000    0.00831062
      32.0000    0.00797394
      32.1000    0.00765860
      32.2000    0.00734486
      32.3000    0.00705006
      32.4000    0.00676439
      32.5000    0.00648359
      32.6000    0.00623168
      32.7000    0.00598112
      32.8000    0.00574208
      32.9000    0.00551416
      33.0000    0.00528741
      33.1000    0.00508741
      33.2000    0.00489196
      33.3000    0.00470112
      33.4000    0.00452281
      33.5000    0.00434545
      33.6000    0.00417711
      33.7000    0.00401569
      33.8000    0.00385507
      33.9000    0.00370676
      34.0000    0.00356077
      34.1000    0.00341803
      34.2000    0.00328578
      34.3000    0.00315414
      34.4000    0.00302798
      34.5000    0.00290870
      34.6000    0.00278997
      34.7000    0.00267811
      34.8000    0.00256971
      34.9000    0.00246182
      35.0000    0.00236316
      35.1000    0.00226587
      35.2000    0.00216998
      35.3000    0.00208241
      35.4000    0.00199524
      35.5000    0.00191080
      35.6000    0.00183250
      35.7000    0.00175456
      35.8000    0.00168026
      35.9000    0.00161040
      36.0000    0.00154086
      36.1000    0.00147553
      36.2000    0.00141332
      36.3000    0.00135141
      36.4000    0.00129398
      36.5000    0.00123869
      36.6000    0.00118367
      36.7000    0.00113320
      36.8000    0.00108419
      36.9000    0.00103541
      37.0000   0.000991055
      37.1000   0.000947701
      37.2000   0.000904549
      37.3000   0.000865572
      37.4000   0.000827307
      37.5000   0.000789225
      37.6000   0.000754962
      37.7000   0.000721266
      37.8000   0.000687731
      37.9000   0.000657599
      38.0000   0.000627999
      38.1000   0.000598540
      38.2000   0.000572017
      38.3000   0.000546068
      38.4000   0.000520243
      38.5000   0.000496881
      38.6000   0.000474191
      38.7000   0.000451610
      38.8000   0.000431015
      38.9000   0.000411224
      39.0000   0.000391526
      39.1000   0.000373356
      39.2000   0.000356137
      39.3000   0.000339000
      39.4000   0.000322951
      39.5000   0.000308007
      39.6000   0.000293136
      39.7000   0.000278947
      39.8000   0.000266014
      39.9000   0.000253143
      40.0000   0.000240589
      40.1000   0.000229425
      40.2000   0.000218315
      40.3000   0.000207259
      40.4000   0.000197584
      40.5000   0.000188018
      40.6000   0.000178498
      40.7000   0.000169906
      40.8000   0.000161689
      40.9000   0.000153512
      41.0000   0.000145873
      41.1000   0.000138836
      41.2000   0.000131833
      41.3000   0.000125039
      41.4000   0.000119035
      41.5000   0.000113060
      41.6000   0.000107114
      41.7000   0.000101901
      41.8000   9.68132e-05
      41.9000   9.17498e-05
      42.0000   8.70906e-05
      42.1000   8.27730e-05
      42.2000   7.84759e-05
      42.3000   7.43068e-05
      42.4000   7.06521e-05
      42.5000   6.70147e-05
      42.6000   6.33947e-05
      42.7000   6.02000e-05
      42.8000   5.71295e-05
      42.9000   5.40734e-05
      43.0000   5.11980e-05
      43.1000   4.86146e-05
      43.2000   4.60437e-05
      43.3000   4.34850e-05
      43.4000     0.0437655
      43.5000     0.0941266
      43.6000      0.152234
      43.7000      0.194780
      43.8000      0.206435
      43.9000      0.207297
      44.0000      0.204219
      44.1000      0.197402
      44.2000      0.194733
      44.3000      0.192431
      44.4000      0.190156
      44.5000      0.187913
      44.6000      0.185677
      44.7000      0.183446
      44.8000      0.181265
      44.9000      0.179095
      45.0000      0.176931
      45.1000      0.174787
      45.2000      0.172681
      45.3000      0.170581
      45.4000      0.168486
      45.5000      0.166430
      45.6000      0.164395
      45.7000      0.162365
      45.8000      0.160341
      45.9000      0.158370
      46.0000      0.156402
      46.1000      0.154440
      46.2000      0.152569
      46.3000      0.150852
      46.4000      0.149139
      46.5000      0.147431
      46.6000      0.145778
      46.7000      0.144155
      46.8000      0.142536
      46.9000      0.140921
      47.0000      0.139384
      47.1000      0.137855
      47.2000      0.136330
      47.3000      0.134816
      47.4000      0.133342
      47.5000      0.131872
      47.6000      0.130405
      47.7000      0.128956
      47.8000      0.127531
      47.9000      0.126109
      48.0000      0.124691
      48.1000      0.123296
      48.2000      0.121920
      48.3000      0.120547
      48.4000      0.119177
      48.5000      0.117835
      48.6000      0.116504
      48.7000      0.115177
      48.8000      0.113853
      48.9000      0.112561
      49.0000      0.111278
      49.1000      0.109998
      49.2000      0.108721
      49.3000      0.107479
      49.4000      0.106242
      49.5000      0.105007
      49.6000      0.103776
      49.7000      0.102580
      49.8000      0.101388
      49.9000      0.100198
      50.0000     0.0990125
      50.1000     0.0978647
      50.2000     0.0967778
      50.3000     0.0956997
      50.4000     0.0946322
      50.5000     0.0935741
      50.6000     0.0925263
      50.7000     0.0914899
      50.8000     0.0904617
      50.9000     0.0894450
      51.0000     0.0884467
      51.1000     0.0874613
      51.2000     0.0864847
      51.3000     0.0855177
      51.4000     0.0845615
      51.5000     0.0836124
      51.6000     0.0826716
      51.7000     0.0817394
      51.8000     0.0808085
      51.9000     0.0798858
      52.0000     0.0789716
      52.1000     0.0780662
      52.2000     0.0771697
      52.3000     0.0762806
      52.4000     0.0754004
      52.5000     0.0745289
      52.6000     0.0736646
      52.7000     0.0728071
      52.8000     0.0719571
      52.9000     0.0711153
      53.0000     0.0702820
      53.1000     0.0694564
      53.2000     0.0686403
      53.3000     0.0678324
      53.4000     0.0670318
      53.5000     0.0662382
      53.6000     0.0654516
      53.7000     0.0646724
      53.8000     0.0639023
      53.9000     0.0631398
      54.0000     0.0623854
      54.1000     0.0616398
      54.2000     0.0609000
      54.3000     0.0601674
      54.4000     0.0594421
      54.5000     0.0587238
      54.6000     0.0580139
      54.7000     0.0573112
      54.8000     0.0566161
      54.9000     0.0559281
      55.0000     0.0552470
      55.1000     0.0545718
      55.2000     0.0538785
      55.3000     0.0531702
      55.4000     0.0524691
      55.5000     0.0517758
      55.6000     0.0510901
      55.7000     0.0504124
      55.8000     0.0497418
      55.9000     0.0490778
      56.0000     0.0484287
      56.1000     0.0477754
      56.2000     0.0471193
      56.3000     0.0464704
      56.4000     0.0458291
      56.5000     0.0451944
      56.6000     0.0445667
      56.7000     0.0439470
      56.8000     0.0433342
      56.9000     0.0427305
      57.0000     0.0421331
      57.1000     0.0415419
      57.2000     0.0409564
      57.3000     0.0403778
      57.4000     0.0398057
      57.5000     0.0392408
      57.6000     0.0386824
      57.7000     0.0381305
      57.8000     0.0375863
      57.9000     0.0370494
      58.0000     0.0365185
      58.1000     0.0359929
      58.2000     0.0354742
      58.3000     0.0349618
      58.4000     0.0344556
      58.5000     0.0339554
      58.6000     0.0334620
      58.7000     0.0329744
      58.8000     0.0324931
      58.9000     0.0320173
      59.0000     0.0315474
      59.1000     0.0310830
      59.2000     0.0306247
      59.3000     0.0301722
      59.4000     0.0297258
      59.5000     0.0292849
      59.6000     0.0288498
      59.7000     0.0284196
      59.8000     0.0279949
      59.9000     0.0275754
      60.0000     0.0271617
      60.1000     0.0267529
      60.2000     0.0263499
      60.3000     0.0259522
      60.4000     0.0255597
      60.5000     0.0251726
      60.6000     0.0247900
      60.7000     0.0244115
      60.8000     0.0240377
      60.9000     0.0236689
      61.0000     0.0233049
      61.1000     0.0229462
      61.2000     0.0225920
      61.3000     0.0222430
      61.4000     0.0218984
      61.5000     0.0215584
      61.6000     0.0212224
      61.7000     0.0208908
      61.8000     0.0205646
      61.9000     0.0202436
      62.0000     0.0199270
      62.1000     0.0196147
      62.2000     0.0193070
      62.3000     0.0190032
      62.4000     0.0187039
      62.5000     0.0184083
      62.6000     0.0181166
      62.7000     0.0178285
      62.8000     0.0175460
      62.9000     0.0172673
      63.0000     0.0169927
      63.1000     0.0167220
      63.2000     0.0164549
      63.3000     0.0161914
      63.4000     0.0159311
      63.5000     0.0156751
      63.6000     0.0154224
      63.7000     0.0151733
      63.8000     0.0149279
      63.9000     0.0146862
      64.0000     0.0144481
      64.1000     0.0142132
      64.2000     0.0139822
      64.3000     0.0137543
      64.4000     0.0135294
      64.5000     0.0133076
      64.6000     0.0130888
      64.7000     0.0128733
      64.8000     0.0126608
      64.9000     0.0124515
      65.0000     0.0122452
      65.1000     0.0120422
      65.2000     0.0118424
      65.3000     0.0116451
      65.4000     0.0114510
      65.5000     0.0112595
      65.6000     0.0110706
      65.7000     0.0108845
      65.8000     0.0107014
      65.9000     0.0105214
      66.0000     0.0103440
      66.1000     0.0101695
      66.2000    0.00999758
      66.3000    0.00982816
      66.4000    0.00966137
      66.5000    0.00949683
      66.6000    0.00933478
      66.7000    0.00917525
      66.8000    0.00901812
      66.9000    0.00886668
      67.0000    0.00872037
      67.1000    0.00857688
      67.2000    0.00843572
      67.3000    0.00829649
      67.4000    0.00815941
      67.5000    0.00802423
      67.6000    0.00789096
      67.7000    0.00775969
      67.8000    0.00762998
      67.9000    0.00750192
      68.0000    0.00737654
      68.1000    0.00725374
      68.2000    0.00713279
      68.3000    0.00701358
      68.4000    0.00689631
      68.5000    0.00678093
      68.6000    0.00666707
      68.7000    0.00655495
      68.8000    0.00644448
      68.9000    0.00633726
      69.0000    0.00624076
      69.1000    0.00615389
      69.2000    0.00606969
      69.3000    0.00598788
      69.4000    0.00590921
      69.5000    0.00582884
      69.6000    0.00574579
      69.7000    0.00566601
      69.8000    0.00559030
      69.9000    0.00551565
      70.0000    0.00544170
      70.1000    0.00536719
      70.2000    0.00529636
      70.3000    0.00522926
      70.4000    0.00516237
      70.5000    0.00509705
      70.6000    0.00503327
      70.7000    0.00497039
      70.8000    0.00490807
      70.9000    0.00484424
      71.0000    0.00477907
      71.1000    0.00471688
      71.2000    0.00465783
      71.3000    0.00459509
      71.4000    0.00452770
      71.5000    0.00446568
      71.6000    0.00441145
      71.7000    0.00435671
      71.8000    0.00430018
      71.9000    0.00424561
      72.0000    0.00419518
      72.1000    0.00414372
      72.2000    0.00408441
      72.3000    0.00402605
      72.4000    0.00397504
      72.5000    0.00392466
      72.6000    0.00387483
      72.7000    0.00382572
      72.8000    0.00377718
      72.9000    0.00372922
      73.0000    0.00368308
      73.1000    0.00363805
      73.2000    0.00359354
      73.3000    0.00354964
      73.4000    0.00350665
      73.5000    0.00346485
      73.6000    0.00342361
      73.7000    0.00338284
      73.8000    0.00334247
      73.9000    0.00330256
      74.0000    0.00326334
      74.1000    0.00322777
      74.2000    0.00319359
      74.3000    0.00315659
      74.4000    0.00311749
      74.5000    0.00307952
      74.6000    0.00304344
      74.7000    0.00300772
      74.8000    0.00297240
      74.9000    0.00293746
      75.0000    0.00290251
      75.1000    0.00286781
      75.2000    0.00283354
      75.3000    0.00279966
      75.4000    0.00276641
      75.5000    0.00273429
      75.6000    0.00270252
      75.7000    0.00267105
      75.8000    0.00264003
      75.9000    0.00260978
      76.0000    0.00257994
      76.1000    0.00255045
      76.2000    0.00252128
      76.3000    0.00249246
      76.4000    0.00246444
      76.5000    0.00243681
      76.6000    0.00240942
      76.7000    0.00238226
      76.8000    0.00235542
      76.9000    0.00232889
      77.0000    0.00230261
      77.1000    0.00227661
      77.2000    0.00225090
      77.3000    0.00222544
      77.4000    0.00220024
      77.5000    0.00217533
      77.6000    0.00215020
      77.7000    0.00212528
      77.8000    0.00210061
      77.9000    0.00207619
      78.0000    0.00205169
      78.1000    0.00202656
      78.2000    0.00200177
      78.3000    0.00197919
      78.4000    0.00195752
      78.5000    0.00193588
      78.6000    0.00191394
      78.7000    0.00189221
      78.8000    0.00186995
      78.9000    0.00184776
      79.0000    0.00182578
      79.1000    0.00180401
      79.2000    0.00178255
      79.3000    0.00176196
      79.4000    0.00174178
      79.5000    0.00172160
      79.6000    0.00170101
      79.7000    0.00168064
      79.8000    0.00166015
      79.9000    0.00163975
      80.0000    0.00161955
      80.1000    0.00159884
      80.2000    0.00157829
      80.3000    0.00155724
      80.4000    0.00153572
      80.5000    0.00151443
      80.6000    0.00149339
      80.7000    0.00147262
      80.8000    0.00145220
      80.9000    0.00143228
      81.0000    0.00141262
      81.1000    0.00139327
      81.2000    0.00137417
      81.3000    0.00135534
      81.4000    0.00133810
      81.5000    0.00132116
      81.6000    0.00130480
      81.7000    0.00128941
      81.8000    0.00127427
      81.9000    0.00125984
      82.0000    0.00124582
      82.1000    0.00123198
      82.2000    0.00121787
      82.3000    0.00120392
      82.4000    0.00119042
      82.5000    0.00117749
      82.6000    0.00116469
      82.7000    0.00115166
      82.8000    0.00113832
      82.9000    0.00112510
      83.0000    0.00111217
      83.1000    0.00109943
      83.2000    0.00108682
      83.3000    0.00107433
      83.4000    0.00106200
      83.5000    0.00104985
      83.6000    0.00103809
      83.7000    0.00102646
      83.8000    0.00101490
      83.9000    0.00100327
      84.0000   0.000991744
      84.1000   0.000980504
      84.2000   0.000969651
      84.3000   0.000958894
      84.4000   0.000948107
      84.5000   0.000937335
      84.6000   0.000926680
      84.7000   0.000916313
      84.8000   0.000906136
      84.9000   0.000896087
      85.0000   0.000885913
      85.1000   0.000875776
      85.2000   0.000865749
      85.3000   0.000856214
      85.4000   0.000846856
      85.5000   0.000837607
      85.6000   0.000828243
      85.7000   0.000818961
      85.8000   0.000809774
      85.9000   0.000800676
      86.0000   0.000791654
      86.1000   0.000782717
      86.2000   0.000774139
      86.3000   0.000765660
      86.4000   0.000757257
      86.5000   0.000748926
      86.6000   0.000740676
      86.7000   0.000732517
      86.8000   0.000723873
      86.9000   0.000715298
      87.0000   0.000706835
      87.1000   0.000698600
      87.2000   0.000690473
      87.3000   0.000682424
      87.4000   0.000674260
      87.5000   0.000666153
      87.6000   0.000658125
      87.7000   0.000650292
      87.8000   0.000642560
      87.9000   0.000634909
      88.0000   0.000627347
      88.1000   0.000619855
      88.2000   0.000612446
      88.3000   0.000605268
      88.4000   0.000598320
      88.5000   0.000591475
      88.6000   0.000584645
      88.7000   0.000577806
      88.8000   0.000571044
      88.9000   0.000564346
      89.0000   0.000557691
      89.1000   0.000551107
      89.2000   0.000544590
      89.3000   0.000538134
      89.4000   0.000531730
      89.5000   0.000525387
      89.6000   0.000519110
      89.7000   0.000512899
      89.8000   0.000506752
      89.9000   0.000500666
      90.0000   0.000494641
      90.1000   0.000488691
      90.2000   0.000482692
      90.3000   0.000476490
      90.4000   0.000470348
      90.5000   0.000464280
      90.6000   0.000458390
      90.7000   0.000452460
      90.8000   0.000446466
      90.9000   0.000440390
      91.0000   0.000434357
      91.1000   0.000428404
      91.2000   0.000422456
      91.3000   0.000416471
      91.4000   0.000410545
      91.5000   0.000404707
      91.6000   0.000398958
      91.7000   0.000393702
      91.8000   0.000389151
      91.9000   0.000385406
      92.0000   0.000381224
      92.1000   0.000376986
      92.2000   0.000372533
      92.3000   0.000367897
      92.4000   0.000363182
      92.5000   0.000358538
      92.6000   0.000353951
      92.7000   0.000349418
      92.8000   0.000344935
      92.9000   0.000340552
      93.0000   0.000336333
      93.1000   0.000332163
      93.2000   0.000328045
      93.3000   0.000324103
      93.4000   0.000320250
      93.5000   0.000316437
      93.6000   0.000312663
      93.7000   0.000308931
      93.8000   0.000305256
      93.9000   0.000301622
      94.0000   0.000298028
      94.1000   0.000294476
      94.2000   0.000290969
      94.3000   0.000287525
      94.4000   0.000284200
      94.5000   0.000280920
      94.6000   0.000277680
      94.7000   0.000274481
      94.8000   0.000271312
      94.9000   0.000268176
      95.0000   0.000265075
      95.1000   0.000262019
      95.2000   0.000258985
      95.3000   0.000255975
      95.4000   0.000253000
      95.5000   0.000250103
      95.6000   0.000247235
      95.7000   0.000244397
      95.8000   0.000241555
      95.9000   0.000238731
      96.0000   0.000235934
      96.1000   0.000233164
      96.2000   0.000230419
      96.3000   0.000227709
      96.4000   0.000225026
      96.5000   0.000222373
      96.6000   0.000219761
      96.7000   0.000217190
      96.8000   0.000214639
      96.9000   0.000212110
      97.0000   0.000209605
      97.1000   0.000207139
      97.2000   0.000204696
      97.3000   0.000202248
      97.4000   0.000199798
      97.5000   0.000197382
      97.6000   0.000194995
      97.7000   0.000192647
      97.8000   0.000190336
      97.9000   0.000188052
      98.0000   0.000185790
      98.1000   0.000183549
      98.2000   0.000181337
      98.3000   0.000179289
      98.4000   0.000177327
      98.5000   0.000175428
      98.6000   0.000173548
      98.7000   0.000171688
      98.8000   0.000169843
      98.9000   0.000168016
      99.0000   0.000166210
      99.1000   0.000164421
      99.2000   0.000162639
      99.3000   0.000160826
      99.4000   0.000159037
      99.5000   0.000157266
      99.6000   0.000155522
      99.7000   0.000153868
      99.8000   0.000152266
      99.9000   0.000150969
      100.000   0.000150129
      100.100   0.000149240
      100.200   0.000148353
      100.300   0.000147469
      100.400   0.000146590
      100.500   0.000145736
      100.600   0.000144883
      100.700   0.000144031
      100.800   0.000143181
      100.900   0.000142334
      101.000   0.000141491
      101.100   0.000140654
      101.200   0.000139820
      101.300   0.000138989
      101.400   0.000138161
      101.500   0.000137337
      101.600   0.000136518
      101.700   0.000135716
      101.800   0.000134922
      101.900   0.000134130
      102.000   0.000133344
      102.100   0.000132584
      102.200   0.000131838
      102.300   0.000131096
      102.400   0.000130356
      102.500   0.000129618
      102.600   0.000128880
      102.700   0.000128144
      102.800   0.000127411
      102.900   0.000126680
      103.000   0.000125950
      103.100   0.000125222
      103.200   0.000124495
      103.300   0.000123771
      103.400   0.000123051
      103.500   0.000122333
      103.600   0.000121617
      103.700   0.000120901
      103.800   0.000120159
      103.900   0.000119388
      104.000   0.000118621
      104.100   0.000117859
      104.200   0.000117116
      104.300   0.000116460
      104.400   0.000115810
      104.500   0.000115163
      104.600   0.000114517
      104.700   0.000113847
      104.800   0.000113167
      104.900   0.000112489
      105.000   0.000111814
      105.100   0.000111161
      105.200   0.000110557
      105.300   0.000109958
      105.400   0.000109359
      105.500   0.000108761
      105.600   0.000108174
      105.700   0.000107591
      105.800   0.000107008
      105.900   0.000106429
      106.000   0.000105868
      106.100   0.000105340
      106.200   0.000104817
      106.300   0.000104294
      106.400   0.000103774
      106.500   0.000103255
      106.600   0.000102738
      106.700   0.000102223
      106.800   0.000101708
      106.900   0.000101195
      107.000   0.000100684
      107.100   0.000100176
      107.200   9.96701e-05
      107.300   9.91668e-05
      107.400   9.86627e-05
      107.500   9.81578e-05
      107.600   9.76541e-05
      107.700   9.71516e-05
      107.800   9.66513e-05
      107.900   9.61458e-05
      108.000   9.56410e-05
      108.100   9.51368e-05
      108.200   9.46332e-05
      108.300   9.41303e-05
      108.400   9.36221e-05
      108.500   9.31160e-05
      108.600   9.26111e-05
      108.700   9.21064e-05
      108.800   9.15794e-05
      108.900   9.10208e-05
      109.000   9.04637e-05
      109.100   8.99092e-05
      109.200   8.93569e-05
      109.300   8.88071e-05
      109.400   8.82594e-05
      109.500   8.77141e-05
      109.600   8.71715e-05
      109.700   8.66317e-05
      109.800   8.60954e-05
      109.900   8.55619e-05
      110.000   8.50305e-05
      110.100   8.45011e-05
      110.200   8.39735e-05
      110.300   8.34622e-05
      110.400   8.29546e-05
      110.500   8.24500e-05
      110.600   8.19477e-05
      110.700   8.14472e-05
      110.800   8.09479e-05
      110.900   8.04499e-05
      111.000   7.99533e-05
      111.100   7.94582e-05
      111.200   7.89659e-05
      111.300   7.85023e-05
      111.400   7.80401e-05
      111.500   7.75789e-05
      111.600   7.71192e-05
      111.700   7.66626e-05
      111.800   7.62252e-05
      111.900   7.57907e-05
      112.000   7.53581e-05
      112.100   7.49269e-05
      112.200   7.44970e-05
      112.300   7.40515e-05
      112.400   7.36070e-05
      112.500   7.31648e-05
      112.600   7.27248e-05
      112.700   7.22897e-05
      112.800   7.18724e-05
      112.900   7.14173e-05
      113.000   7.09776e-05
      113.100   7.05458e-05
      113.200   7.01083e-05
      113.300   6.96817e-05
      113.400   6.91684e-05
      113.500   6.86354e-05
      113.600   6.81812e-05
      113.700   6.77055e-05
      113.800   6.71805e-05
      113.900   6.67330e-05
      114.000   6.62876e-05
      114.100   6.57916e-05
      114.200   6.53245e-05
      114.300   6.49017e-05
      114.400   6.44692e-05
      114.500   6.40270e-05
      114.600   6.36408e-05
      114.700   6.32153e-05
      114.800   6.28187e-05
      114.900   6.24871e-05
      115.000   6.21101e-05
      115.100   6.17072e-05
      115.200   6.13029e-05
      115.300   6.09575e-05
      115.400   6.05594e-05
      115.500   6.01900e-05
      115.600   5.97999e-05
      115.700   5.93777e-05
      115.800   5.90028e-05
      115.900   5.86053e-05
      116.000   5.82485e-05
      116.100   5.79532e-05
      116.200   5.76540e-05
      116.300   5.73450e-05
      116.400   5.70178e-05
      116.500   5.67339e-05
      116.600   5.64371e-05
      116.700   5.61517e-05
      116.800   5.58545e-05
      116.900   5.55068e-05
      117.000   5.52183e-05
      117.100   5.50965e-05
      117.200   5.50909e-05
      117.300   5.49697e-05
      117.400   5.48401e-05
      117.500   5.47119e-05
      117.600   5.45170e-05
      117.700   5.42964e-05
      117.800   5.40417e-05
      117.900   5.37700e-05
      118.000   5.34660e-05
      118.100   5.31313e-05
      118.200   5.28228e-05
      118.300   5.25261e-05
      118.400   5.21064e-05
      118.500   5.16990e-05
      118.600   5.13502e-05
      118.700   5.09829e-05
      118.800   5.05901e-05
      118.900   5.02177e-05
      119.000   4.97810e-05
      119.100   4.92715e-05
      119.200   4.88282e-05
      119.300   4.84408e-05
      119.400   4.80859e-05
      119.500   4.77465e-05
      119.600   4.73658e-05
      119.700   4.69370e-05
      119.800   4.64115e-05
      119.900   4.57584e-05
      120.000   4.51515e-05
      120.100   4.45819e-05
      120.200   4.41762e-05
      120.300   4.38646e-05
      120.400   4.35531e-05
      120.500   4.31136e-05
      120.600   4.25784e-05
      120.700   4.20152e-05
      120.800   4.14763e-05
      120.900   4.11079e-05
      121.000   4.10018e-05
      121.100   4.08493e-05
      121.200   4.05672e-05
      121.300   4.01943e-05
      121.400   3.97535e-05
      121.500   3.92627e-05
      121.600   3.85713e-05
      121.700   3.79663e-05
      121.800   3.72943e-05
      121.900   3.66184e-05
      122.000   3.58994e-05
      122.100   3.52223e-05
      122.200   3.45568e-05
      122.300   3.40657e-05
      122.400   3.37610e-05
      122.500   3.34967e-05
      122.600   3.32103e-05
      122.700   3.29238e-05
      122.800   3.25975e-05
      122.900   3.22967e-05
      123.000   3.22078e-05
      123.100   3.24841e-05
      123.200   3.27832e-05
      123.300   3.32677e-05
      123.400   3.39047e-05
      123.500   3.47595e-05
      123.600   3.54847e-05
      123.700   3.58356e-05
      123.800   3.60792e-05
      123.900   3.64273e-05
      124.000   3.69448e-05
      124.100   3.80163e-05
      124.200   4.02672e-05
      124.300   4.36607e-05
      124.400   4.69210e-05
      124.500   4.78130e-05
      124.600   4.76116e-05
      124.700   4.72858e-05
      124.800   4.69743e-05
      124.900   4.66633e-05
      125.000   4.63523e-05
      125.100   4.60318e-05
      125.200   4.57116e-05
      125.300   4.53928e-05
      125.400   4.50757e-05
      125.500   4.47602e-05
      125.600   4.44461e-05
      125.700   4.41337e-05
      125.800   4.38230e-05
      125.900   4.35141e-05
      126.000   4.32071e-05
      126.100   4.29020e-05
      126.200   4.25989e-05
      126.300   4.22975e-05
      126.400   4.19979e-05
      126.500   4.16999e-05
      126.600   4.14035e-05
      126.700   4.11086e-05
      126.800   4.08153e-05
      126.900   4.05236e-05
      127.000   4.02324e-05
      127.100   3.99389e-05
      127.200   3.96452e-05
      127.300   3.93526e-05
      127.400   3.90616e-05
      127.500   3.87722e-05
      127.600   3.84845e-05
      127.700   3.81985e-05
      127.800   3.79142e-05
      127.900   3.76316e-05
      128.000   3.73507e-05
      128.100   3.70713e-05
      128.200   3.67935e-05
      128.300   3.65172e-05
      128.400   3.62424e-05
      128.500   3.59689e-05
      128.600   3.56970e-05
      128.700   3.54266e-05
      128.800   3.51578e-05
      128.900   3.48905e-05
      129.000   3.46249e-05
      129.100   3.43602e-05
      129.200   3.40949e-05
      129.300   3.38311e-05
      129.400   3.35690e-05
      129.500   3.33086e-05
      129.600   3.30499e-05
      129.700   3.27930e-05
      129.800   3.25377e-05
      129.900   3.22842e-05
      130.000   3.20324e-05
      130.100   3.17823e-05
      130.200   3.15337e-05
      130.300   3.12870e-05
      130.400   3.10420e-05
      130.500   3.07987e-05
      130.600   3.05571e-05
      130.700   3.03173e-05
      130.800   3.00792e-05
      130.900   2.98428e-05
      131.000   2.96080e-05
      131.100   2.93747e-05
      131.200   2.91426e-05
      131.300   2.89115e-05
      131.400   2.86817e-05
      131.500   2.84534e-05
      131.600   2.82265e-05
      131.700   2.80010e-05
      131.800   2.77768e-05
      131.900   2.75539e-05
      132.000   2.73325e-05
      132.100   2.71124e-05
      132.200   2.68936e-05
      132.300   2.66763e-05
      132.400   2.64603e-05
      132.500   2.62458e-05
      132.600   2.60329e-05
      132.700   2.58214e-05
      132.800   2.56113e-05
      132.900   2.54026e-05
      133.000   2.51953e-05
      133.100   2.49893e-05
      133.200   2.47847e-05
      133.300   2.45812e-05
      133.400   2.43790e-05
      133.500   2.41781e-05
      133.600   2.39786e-05
      133.700   2.37806e-05
      133.800   2.35839e-05
      133.900   2.33888e-05
      134.000   2.31951e-05
      134.100   2.30027e-05
      134.200   2.28118e-05
      134.300   2.26222e-05
      134.400   2.24340e-05
      134.500   2.22472e-05
      134.600   2.20618e-05
      134.700   2.18777e-05
      134.800   2.16951e-05
      134.900   2.15137e-05
      135.000   2.13336e-05
      135.100   2.11548e-05
      135.200   2.09774e-05
      135.300   2.08013e-05
      135.400   2.06265e-05
      135.500   2.04523e-05
      135.600   2.02790e-05
      135.700   2.01069e-05
      135.800   1.99361e-05
      135.900   1.97664e-05
      136.000   1.95980e-05
      136.100   1.94306e-05
      136.200   1.92646e-05
      136.300   1.90996e-05
      136.400   1.89358e-05
      136.500   1.87731e-05
      136.600   1.86114e-05
      136.700   1.84508e-05
      136.800   1.82914e-05
      136.900   1.81330e-05
      137.000   1.79758e-05
      137.100   1.78195e-05
      137.200   1.76645e-05
      137.300   1.75106e-05
      137.400   1.73579e-05
      137.500   1.72064e-05
      137.600   1.70559e-05
      137.700   1.69063e-05
      137.800   1.67577e-05
      137.900   1.66102e-05
      138.000   1.64639e-05
      138.100   1.63187e-05
      138.200   1.61747e-05
      138.300   1.60319e-05
      138.400   1.58901e-05
      138.500   1.57495e-05
      138.600   1.56099e-05
      138.700   1.54715e-05
      138.800   1.53342e-05
      138.900   1.51979e-05
      139.000   1.50628e-05
      139.100   1.49287e-05
      139.200   1.47958e-05
      139.300   1.46639e-05
      139.400   1.45330e-05
      139.500   1.44032e-05
      139.600   1.42743e-05
      139.700   1.41465e-05
      139.800   1.40196e-05
      139.900   1.38937e-05
      140.000   1.37687e-05
      140.100   1.36446e-05
      140.200   1.35215e-05
      140.300   1.33994e-05
      140.400   1.32781e-05
      140.500   1.31578e-05
      140.600   1.30383e-05
      140.700   1.29198e-05
      140.800   1.28024e-05
      140.900   1.26858e-05
      141.000   1.25702e-05
      141.100   1.24554e-05
      141.200   1.23415e-05
      141.300   1.22285e-05
      141.400   1.21163e-05
      141.500   1.20050e-05
      141.600   1.18946e-05
      141.700   1.17851e-05
      141.800   1.16764e-05
      141.900   1.15686e-05
      142.000   1.14615e-05
      142.100   1.13599e-05
      142.200   1.12719e-05
      142.300   1.11957e-05
      142.400   1.11199e-05
      142.500   1.10444e-05
      142.600   1.09692e-05
      142.700   1.08944e-05
      142.800   1.08199e-05
      142.900   1.07458e-05
      143.000   1.06721e-05
      143.100   1.05987e-05
      143.200   1.05258e-05
      143.300   1.04532e-05
      143.400   1.03810e-05
      143.500   1.03092e-05
      143.600   1.02377e-05
      143.700   1.01666e-05
      143.800   1.00959e-05
      143.900   1.00255e-05
      144.000   9.95548e-06
      144.100   9.88580e-06
      144.200   9.81649e-06
      144.300   9.74749e-06
      144.400   9.67991e-06
      144.500   9.62710e-06
      144.600   9.57897e-06
      144.700   9.53139e-06
      144.800   9.48382e-06
      144.900   9.43626e-06
      145.000   9.38871e-06
      145.100   9.34119e-06
      145.200   9.29367e-06
      145.300   9.24618e-06
      145.400   9.19870e-06
      145.500   9.15123e-06
      145.600   9.10377e-06
      145.700   9.05632e-06
      145.800   9.00892e-06
      145.900   8.96154e-06
      146.000   8.91416e-06
      146.100   8.86682e-06
      146.200   8.81952e-06
      146.300   8.77227e-06
      146.400   8.72503e-06
      146.500   8.67789e-06
      146.600   8.63079e-06
      146.700   8.58378e-06
      146.800   8.53630e-06
      146.900   8.48814e-06
      147.000   8.44009e-06
      147.100   8.39211e-06
      147.200   8.34424e-06
      147.300   8.29646e-06
      147.400   8.24878e-06
      147.500   8.20119e-06
      147.600   8.15369e-06
      147.700   8.10631e-06
      147.800   8.05904e-06
      147.900   8.01188e-06
      148.000   7.96482e-06
      148.100   7.91789e-06
      148.200   7.87110e-06
      148.300   7.82443e-06
      148.400   7.77790e-06
      148.500   7.73150e-06
      148.600   7.68524e-06
      148.700   7.63911e-06
      148.800   7.59311e-06
      148.900   7.54728e-06
      149.000   7.50162e-06
      149.100   7.45608e-06
      149.200   7.41064e-06
      149.300   7.36532e-06
      149.400   7.32014e-06
      149.500   7.27511e-06
      149.600   7.23021e-06
      149.700   7.18545e-06
      149.800   7.14081e-06
      149.900   7.09631e-06
      150.000   7.05192e-06
      150.100   7.00769e-06
      150.200   6.96356e-06
      150.300   6.91958e-06
      150.400   6.87573e-06
      150.500   6.83199e-06
      150.600   6.78840e-06
      150.700   6.74490e-06
      150.800   6.70157e-06
      150.900   6.65835e-06
      151.000   6.61525e-06
      151.100   6.57228e-06
      151.200   6.52943e-06
      151.300   6.48672e-06
      151.400   6.44412e-06
      151.500   6.40169e-06
      151.600   6.35947e-06
      151.700   6.31749e-06
      151.800   6.27564e-06
      151.900   6.23391e-06
      152.000   6.19234e-06
      152.100   6.15091e-06
      152.200   6.10964e-06
      152.300   6.06851e-06
      152.400   6.02754e-06
      152.500   5.98673e-06
      152.600   5.94607e-06
      152.700   5.90559e-06
      152.800   5.86526e-06
      152.900   5.82514e-06
      153.000   5.78516e-06
      153.100   5.74538e-06
      153.200   5.70575e-06
      153.300   5.66630e-06
      153.400   5.62704e-06
      153.500   5.58792e-06
      153.600   5.54899e-06
      153.700   5.51024e-06
      153.800   5.47166e-06
      153.900   5.43324e-06
      154.000   5.39564e-06
      154.100   5.35962e-06
      154.200   5.32422e-06
      154.300   5.28895e-06
      154.400   5.25382e-06
      154.500   5.21882e-06
      154.600   5.18396e-06
      154.700   5.14923e-06
      154.800   5.11463e-06
      154.900   5.08015e-06
      155.000   5.04581e-06
      155.100   5.01161e-06
      155.200   4.97752e-06
      155.300   4.94359e-06
      155.400   4.90979e-06
      155.500   4.87613e-06
      155.600   4.84258e-06
      155.700   4.80917e-06
      155.800   4.77590e-06
      155.900   4.74274e-06
      156.000   4.70973e-06
      156.100   4.67684e-06
      156.200   4.64408e-06
      156.300   4.61143e-06
      156.400   4.57892e-06
      156.500   4.54636e-06
      156.600   4.51288e-06
      156.700   4.47954e-06
      156.800   4.44634e-06
      156.900   4.41328e-06
      157.000   4.38039e-06
      157.100   4.34763e-06
      157.200   4.31504e-06
      157.300   4.28258e-06
      157.400   4.25028e-06
      157.500   4.21811e-06
      157.600   4.18610e-06
      157.700   4.15424e-06
      157.800   4.12254e-06
      157.900   4.09098e-06
      158.000   4.05959e-06
      158.100   4.02835e-06
      158.200   3.99727e-06
      158.300   3.96635e-06
      158.400   3.93559e-06
      158.500   3.90500e-06
      158.600   3.87455e-06
      158.700   3.84427e-06
      158.800   3.81416e-06
      158.900   3.78420e-06
      159.000   3.75443e-06
      159.100   3.72479e-06
      159.200   3.69532e-06
      159.300   3.66601e-06
      159.400   3.63687e-06
      159.500   3.60791e-06
      159.600   3.57910e-06
      159.700   3.55047e-06
      159.800   3.52199e-06
      159.900   3.49369e-06
      160.000   3.46556e-06
      160.100   3.43759e-06
      160.200   3.40979e-06
      160.300   3.38214e-06
      160.400   3.35467e-06
      160.500   3.32734e-06
      160.600   3.30018e-06
      160.700   3.27318e-06
      160.800   3.24633e-06
      160.900   3.21964e-06
      161.000   3.19310e-06
      161.100   3.16671e-06
      161.200   3.14049e-06
      161.300   3.11442e-06
      161.400   3.08850e-06
      161.500   3.06274e-06
      161.600   3.03712e-06
      161.700   3.01162e-06
      161.800   2.98627e-06
      161.900   2.96107e-06
      162.000   2.93603e-06
      162.100   2.91113e-06
      162.200   2.88638e-06
      162.300   2.86179e-06
      162.400   2.83735e-06
      162.500   2.81305e-06
      162.600   2.78892e-06
      162.700   2.76493e-06
      162.800   2.74109e-06
      162.900   2.71740e-06
      163.000   2.69386e-06
      163.100   2.67047e-06
      163.200   2.64722e-06
      163.300   2.62412e-06
      163.400   2.60117e-06
      163.500   2.57837e-06
      163.600   2.55571e-06
      163.700   2.53320e-06
      163.800   2.51085e-06
      163.900   2.48864e-06
      164.000   2.46658e-06
      164.100   2.44467e-06
      164.200   2.42292e-06
      164.300   2.40146e-06
      164.400   2.38015e-06
      164.500   2.35899e-06
      164.600   2.33797e-06
      164.700   2.31710e-06
      164.800   2.29638e-06
      164.900   2.27580e-06
      165.000   2.25536e-06
      165.100   2.23508e-06
      165.200   2.21494e-06
      165.300   2.19495e-06
      165.400   2.17510e-06
      165.500   2.15539e-06
      165.600   2.13584e-06
      165.700   2.11642e-06
      165.800   2.09715e-06
      165.900   2.07802e-06
      166.000   2.05905e-06
      166.100   2.04021e-06
      166.200   2.02151e-06
      166.300   2.00296e-06
      166.400   1.98455e-06
      166.500   1.96627e-06
      166.600   1.94813e-06
      166.700   1.93013e-06
      166.800   1.91225e-06
      166.900   1.89451e-06
      167.000   1.87694e-06
      167.100   1.85947e-06
      167.200   1.84213e-06
      167.300   1.82493e-06
      167.400   1.80785e-06
      167.500   1.79091e-06
      167.600   1.77409e-06
      167.700   1.75740e-06
      167.800   1.74084e-06
      167.900   1.72440e-06
      168.000   1.70808e-06
      168.100   1.69189e-06
      168.200   1.67582e-06
      168.300   1.65986e-06
      168.400   1.64404e-06
      168.500   1.62833e-06
      168.600   1.61274e-06
      168.700   1.59727e-06
      168.800   1.58191e-06
      168.900   1.56668e-06
      169.000   1.55156e-06
      169.100   1.53656e-06
      169.200   1.52168e-06
      169.300   1.50690e-06
      169.400   1.49225e-06
      169.500   1.47763e-06
      169.600   1.46277e-06
      169.700   1.44765e-06
      169.800   1.43254e-06
      169.900   1.41755e-06
      170.000   1.40267e-06
      170.100   1.38792e-06
      170.200   1.37328e-06
      170.300   1.80218e-06
      170.400   3.89739e-06
      170.500   7.42734e-06
      170.600   1.09954e-05
      170.700   1.38877e-05
      170.800   1.52784e-05
      170.900   1.53966e-05
      171.000   1.51997e-05
      171.100   1.50042e-05
      171.200   1.48102e-05
      171.300   1.46176e-05
      171.400   1.44266e-05
      171.500   1.42371e-05
      171.600   1.40492e-05
      171.700   1.38630e-05
      171.800   1.36786e-05
      171.900   1.34961e-05
      172.000   1.33157e-05
      172.100   1.31374e-05
      172.200   1.29614e-05
      172.300   1.27872e-05
      172.400   1.26128e-05
      172.500   1.24402e-05
      172.600   1.22700e-05
      172.700   1.21022e-05
      172.800   1.19367e-05
      172.900   1.17736e-05
      173.000   1.16128e-05
      173.100   1.14544e-05
      173.200   1.12981e-05
      173.300   1.11442e-05
      173.400   1.09924e-05
      173.500   1.08428e-05
      173.600   1.06954e-05
      173.700   1.05500e-05
      173.800   1.04067e-05
      173.900   1.02655e-05
      174.000   1.01262e-05
      174.100   9.98881e-06
      174.200   9.85338e-06
      174.300   9.71979e-06
      174.400   9.58804e-06
      174.500   9.45804e-06
      174.600   9.32970e-06
      174.700   9.20313e-06
      174.800   9.07824e-06
      174.900   8.95493e-06
      175.000   8.83313e-06
      175.100   8.71292e-06
      175.200   8.59459e-06
      175.300   8.47770e-06
      175.400   8.36226e-06
      175.500   8.24833e-06
      175.600   8.13583e-06
      175.700   8.02478e-06
      175.800   7.91510e-06
      175.900   7.80684e-06
      176.000   7.69995e-06
      176.100   7.59446e-06
      176.200   7.49030e-06
      176.300   7.38743e-06
      176.400   7.28594e-06
      176.500   7.18572e-06
      176.600   7.08677e-06
      176.700   6.98910e-06
      176.800   6.89268e-06
      176.900   6.79752e-06
      177.000   6.70356e-06
      177.100   6.61079e-06
      177.200   6.51924e-06
      177.300   6.42888e-06
      177.400   6.33962e-06
      177.500   6.25149e-06
      177.600   6.16451e-06
      177.700   6.07865e-06
      177.800   5.99388e-06
      177.900   5.91011e-06
      178.000   5.82782e-06
      178.100   5.74661e-06
      178.200   5.66640e-06
      178.300   5.58721e-06
      178.400   5.50906e-06
      178.500   5.43190e-06
      178.600   5.35571e-06
      178.700   5.28047e-06
      178.800   5.20622e-06
      178.900   5.13294e-06
      179.000   5.06059e-06
      179.100   4.98916e-06
      179.200   4.91868e-06
      179.300   4.84913e-06
      179.400   4.78050e-06
      179.500   4.71281e-06
      179.600   4.64601e-06
      179.700   4.58016e-06
      179.800   4.51517e-06
      179.900   4.45108e-06
      180.000   4.38785e-06
      180.100   4.32552e-06
      180.200   4.26406e-06
      180.300   4.20346e-06
      180.400   4.14371e-06
      180.500   4.08482e-06
      180.600   4.02676e-06
      180.700   3.96954e-06
      180.800   3.91314e-06
      180.900   3.85753e-06
      181.000   3.80271e-06
      181.100   3.74869e-06
      181.200   3.69544e-06
      181.300   3.64294e-06
      181.400   3.59122e-06
      181.500   3.54023e-06
      181.600   3.48996e-06
      181.700   3.44041e-06
      181.800   3.39156e-06
      181.900   3.34340e-06
      182.000   3.29595e-06
      182.100   3.24914e-06
      182.200   3.20302e-06
      182.300   3.15754e-06
      182.400   3.11271e-06
      182.500   3.06849e-06
      182.600   3.02487e-06
      182.700   2.98187e-06
      182.800   2.93946e-06
      182.900   2.89762e-06
      183.000   2.85637e-06
      183.100   2.81570e-06
      183.200   2.77557e-06
      183.300   2.73598e-06
      183.400   2.69694e-06
      183.500   2.65844e-06
      183.600   2.62047e-06
      183.700   2.58302e-06
      183.800   2.54611e-06
      183.900   2.50971e-06
      184.000   2.47383e-06
      184.100   2.43844e-06
      184.200   2.40355e-06
      184.300   2.36913e-06
      184.400   2.33519e-06
      184.500   2.30173e-06
      184.600   2.26872e-06
      184.700   2.23616e-06
      184.800   2.20406e-06
      184.900   2.17240e-06
      185.000   2.14117e-06
      185.100   2.11036e-06
      185.200   2.07998e-06
      185.300   2.05003e-06
      185.400   2.02049e-06
      185.500   1.99135e-06
      185.600   1.96260e-06
      185.700   1.93424e-06
      185.800   1.90629e-06
      185.900   1.87873e-06
      186.000   1.85153e-06
      186.100   1.82471e-06
      186.200   1.79825e-06
      186.300   1.77213e-06
      186.400   1.74638e-06
      186.500   1.72096e-06
      186.600   1.69589e-06
      186.700   1.67114e-06
      186.800   1.64672e-06
      186.900   1.62263e-06
      187.000   1.59885e-06
      187.100   1.57539e-06
      187.200   1.55225e-06
      187.300   1.52943e-06
      187.400   1.50691e-06
      187.500   1.48471e-06
      187.600   1.46279e-06
      187.700   1.44118e-06
      187.800   1.41985e-06
      187.900   1.39881e-06
      188.000   1.37806e-06
      188.100   1.35760e-06
      188.200   1.33740e-06
      188.300   1.31749e-06
      188.400   1.29785e-06
      188.500   1.27848e-06
      188.600   1.25940e-06
      188.700   1.24059e-06
      188.800   1.22206e-06
      188.900   1.20379e-06
      189.000   1.18577e-06
      189.100   1.16801e-06
      189.200   1.15051e-06
      189.300   1.13326e-06
      189.400   1.11626e-06
      189.500   1.09951e-06
      189.600   1.08299e-06
      189.700   1.06673e-06
      189.800   1.05079e-06
      189.900   1.03510e-06
      190.000   1.01965e-06
      190.100   1.00442e-06
      190.200   9.89418e-07
      190.300   9.74636e-07
      190.400   9.60064e-07
      190.500   9.45708e-07
      190.600   9.31568e-07
      190.700   9.17630e-07
      190.800   9.03898e-07
      190.900   8.90370e-07
      191.000   8.77044e-07
      191.100   8.63927e-07
      191.200   8.50996e-07
      191.300   8.38255e-07
      191.400   8.25702e-07
      191.500   8.13329e-07
      191.600   8.01138e-07
      191.700   7.89125e-07
      191.800   7.77280e-07
      191.900   7.65613e-07
      192.000   7.54120e-07
      192.100   7.42800e-07
      192.200   7.31656e-07
      192.300   7.20670e-07
      192.400   7.09841e-07
      192.500   6.99170e-07
      192.600   6.88657e-07
      192.700   6.78297e-07
      192.800   6.68086e-07
      192.900   6.58017e-07
      193.000   6.48098e-07
      193.100   6.38331e-07
      193.200   6.28712e-07
      193.300   6.19236e-07
      193.400   6.09903e-07
      193.500   6.00706e-07
      193.600   5.91642e-07
      193.700   5.82710e-07
      193.800   5.73915e-07
      193.900   5.65250e-07
      194.000   5.56711e-07
      194.100   5.48305e-07
      194.200   5.40033e-07
      194.300   5.31882e-07
      194.400   5.23850e-07
      194.500   5.15936e-07
      194.600   5.08137e-07
      194.700   5.00455e-07
      194.800   4.92889e-07
      194.900   4.85429e-07
      195.000   4.78080e-07
      195.100   4.70847e-07
      195.200   4.63722e-07
      195.300   4.56701e-07
      195.400   4.49780e-07
      195.500   4.42958e-07
      195.600   4.36234e-07
      195.700   4.29608e-07
      195.800   4.23075e-07
      195.900   4.16634e-07
      196.000   4.10212e-07
      196.100   4.03882e-07
      196.200   3.97644e-07
      196.300   3.91495e-07
      196.400   3.85433e-07
      196.500   3.79456e-07
      196.600   3.73566e-07
      196.700   3.67760e-07
      196.800   3.62040e-07
      196.900   3.56406e-07
      197.000   3.50854e-07
      197.100   3.45380e-07
      197.200   3.39984e-07
      197.300   3.34664e-07
      197.400   3.29418e-07
      197.500   3.24248e-07
      197.600   3.19153e-07
      197.700   3.14139e-07
      197.800   3.09198e-07
      197.900   3.04326e-07
      198.000   2.99526e-07
      198.100   2.94795e-07
      198.200   2.90132e-07
      198.300   2.85535e-07
      198.400   2.81008e-07
      198.500   2.76553e-07
      198.600   2.72166e-07
      198.700   2.67843e-07
      198.800   2.63583e-07
      198.900   2.59388e-07
      199.000   2.55253e-07
      199.100   2.51181e-07
      199.200   2.47169e-07
      199.300   2.43224e-07
      199.400   2.39341e-07
      199.500   2.35517e-07
      199.600   2.31750e-07
      199.700   2.28039e-07
      199.800   2.24385e-07
      199.900   2.20787e-07
      200.000   2.17243e-07
      200.100   2.13769e-07
      200.200   2.10339e-07
      200.300   2.06963e-07
      200.400   2.03639e-07
      200.500   2.00367e-07
      200.600   1.97145e-07
      200.700   1.93974e-07
      200.800   1.90850e-07
      200.900   1.87776e-07
      201.000   1.84752e-07
      201.100   1.81776e-07
      201.200   1.78846e-07
      201.300   1.75962e-07
      201.400   1.73124e-07
      201.500   1.70328e-07
      201.600   1.67577e-07
      201.700   1.64870e-07
      201.800   1.62204e-07
      201.900   1.59581e-07
      202.000   1.57002e-07
      202.100   1.54462e-07
      202.200   1.51963e-07
      202.300   1.49590e-07
      202.400   1.47415e-07
      202.500   1.45316e-07
      202.600   1.43245e-07
      202.700   1.41204e-07
      202.800   1.39193e-07
      202.900   1.37211e-07
      203.000   1.35257e-07
      203.100   1.33331e-07
      203.200   1.31432e-07
      203.300   1.29560e-07
      203.400   1.27714e-07
      203.500   1.25895e-07
      203.600   1.24101e-07
      203.700   1.22334e-07
      203.800   1.20592e-07
      203.900   1.18877e-07
      204.000   1.17186e-07
      204.100   1.15519e-07
      204.200   1.13877e-07
      204.300   1.12258e-07
      204.400   1.10662e-07
      204.500   1.09089e-07
      204.600   1.07539e-07
      204.700   1.06011e-07
      204.800   1.04507e-07
      204.900   1.03024e-07
      205.000   1.01563e-07
      205.100   1.00123e-07
      205.200   9.87027e-08
      205.300   9.73038e-08
      205.400   9.59247e-08
      205.500   9.45648e-08
      205.600   9.32601e-08
      205.700   9.20060e-08
      205.800   9.07728e-08
      205.900   8.95570e-08
      206.000   8.83585e-08
      206.100   8.71753e-08
      206.200   8.60075e-08
      206.300   8.48557e-08
      206.400   8.37193e-08
      206.500   8.25971e-08
      206.600   8.14901e-08
      206.700   8.03976e-08
      206.800   7.93186e-08
      206.900   7.82539e-08
      207.000   7.72034e-08
      207.100   7.61663e-08
      207.200   7.51433e-08
      207.300   7.41333e-08
      207.400   7.31358e-08
      207.500   7.21510e-08
      207.600   7.11790e-08
      207.700   7.02188e-08
      207.800   6.92709e-08
      207.900   6.83350e-08
      208.000   6.74110e-08
      208.100   6.64986e-08
      208.200   6.55979e-08
      208.300   6.47084e-08
      208.400   6.38304e-08
      208.500   6.29639e-08
      208.600   6.21079e-08
      208.700   6.12626e-08
      208.800   6.04282e-08
      208.900   5.96031e-08
      209.000   5.87829e-08
      209.100   5.79730e-08
      209.200   5.71736e-08
      209.300   5.63842e-08
      209.400   5.56053e-08
      209.500   5.48363e-08
      209.600   5.40772e-08
      209.700   5.33281e-08
      209.800   5.25895e-08
      209.900   5.18599e-08
      210.000   5.11402e-08
      210.100   5.04298e-08
      210.200   4.97287e-08
      210.300   4.90369e-08
      210.400   4.83542e-08
      210.500   4.76804e-08
      210.600   4.70155e-08
      210.700   4.63595e-08
      210.800   4.57122e-08
      210.900   4.50734e-08
      211.000   4.44431e-08
      211.100   4.38213e-08
      211.200   4.32076e-08
      211.300   4.26027e-08
      211.400   4.20061e-08
      211.500   4.14171e-08
      211.600   4.08362e-08
      211.700   4.02631e-08
      211.800   3.96975e-08
      211.900   3.91395e-08
      212.000   3.85893e-08
      212.100   3.80463e-08
      212.200   3.75106e-08
      212.300   3.69824e-08
      212.400   3.64614e-08
      212.500   3.59475e-08
      212.600   3.54406e-08
      212.700   3.49405e-08
      212.800   3.44472e-08
      212.900   3.39608e-08
      213.000   3.34808e-08
      213.100   3.30077e-08
      213.200   3.25411e-08
      213.300   3.20807e-08
      213.400   3.16267e-08
      213.500   3.11789e-08
      213.600   3.07372e-08
      213.700   3.03016e-08
      213.800   2.98720e-08
      213.900   2.94485e-08
      214.000   2.90307e-08
      214.100   2.86187e-08
      214.200   2.82126e-08
      214.300   2.78121e-08
      214.400   2.74171e-08
      214.500   2.70277e-08
      214.600   2.66438e-08
      214.700   2.62653e-08
      214.800   2.58922e-08
      214.900   2.55245e-08
      215.000   2.51618e-08
      215.100   2.48044e-08
      215.200   2.44521e-08
      215.300   2.41051e-08
      215.400   2.37628e-08
      215.500   2.34256e-08
      215.600   2.30934e-08
      215.700   2.27657e-08
      215.800   2.24426e-08
      215.900   2.21244e-08
      216.000   2.18107e-08
      216.100   2.15015e-08
      216.200   2.11968e-08
      216.300   2.08966e-08
      216.400   2.06007e-08
      216.500   2.03090e-08
      216.600   2.00217e-08
      216.700   1.97386e-08
      216.800   1.94595e-08
      216.900   1.91845e-08
      217.000   1.89135e-08
      217.100   1.86464e-08
      217.200   1.83832e-08
      217.300   1.81238e-08
      217.400   1.78681e-08
      217.500   1.76162e-08
      217.600   1.73678e-08
      217.700   1.71229e-08
      217.800   1.68816e-08
      217.900   1.66439e-08
      218.000   1.64096e-08
      218.100   1.61785e-08
      218.200   1.59508e-08
      218.300   1.57263e-08
      218.400   1.55051e-08
      218.500   1.52868e-08
      218.600   1.50717e-08
      218.700   1.48596e-08
      218.800   1.46505e-08
      218.900   1.44443e-08
      219.000   1.42410e-08
      219.100   1.40404e-08
      219.200   1.38427e-08
      219.300   1.36477e-08
      219.400   1.34553e-08
      219.500   1.32656e-08
      219.600   1.30786e-08
      219.700   1.28941e-08
      219.800   1.27122e-08
      219.900   1.25327e-08
      220.000   1.23557e-08
      220.100   1.21811e-08
      220.200   1.20088e-08
      220.300   1.18390e-08
      220.400   1.16715e-08
      220.500   1.15062e-08
      220.600   1.13433e-08
      220.700   1.11825e-08
      220.800   1.10238e-08
      220.900   1.08675e-08
      221.000   1.07131e-08
      221.100   1.05609e-08
      221.200   1.04108e-08
      221.300   1.02627e-08
      221.400   1.01167e-08
      221.500   9.97263e-09
      221.600   9.83054e-09
      221.700   9.69035e-09
      221.800   9.55204e-09
      221.900   9.41566e-09
      222.000   9.28120e-09
      222.100   9.14851e-09
      222.200   9.01768e-09
      222.300   8.88859e-09
      222.400   8.76129e-09
      222.500   8.63569e-09
      222.600   8.51189e-09
      222.700   8.38973e-09
      222.800   8.26921e-09
      222.900   8.15037e-09
      223.000   8.03314e-09
      223.100   7.91749e-09
      223.200   7.80346e-09
      223.300   7.69097e-09
      223.400   7.58007e-09
      223.500   7.47063e-09
      223.600   7.36276e-09
      223.700   7.25634e-09
      223.800   7.15136e-09
      223.900   7.04793e-09
      224.000   6.94583e-09
      224.100   6.84514e-09
      224.200   6.74584e-09
      224.300   6.64794e-09
      224.400   6.55135e-09
      224.500   6.45612e-09
      224.600   6.36216e-09
      224.700   6.26958e-09
      224.800   6.17823e-09
      224.900   6.08813e-09
      225.000   5.99929e-09
      225.100   5.91167e-09
      225.200   5.82525e-09
      225.300   5.74007e-09
      225.400   5.65604e-09
      225.500   5.57316e-09
      225.600   5.49145e-09
      225.700   5.41090e-09
      225.800   5.33143e-09
      225.900   5.25308e-09
      226.000   5.17585e-09
      226.100   5.09969e-09
      226.200   5.02461e-09
      226.300   4.95093e-09
      226.400   4.87860e-09
      226.500   4.80720e-09
      226.600   4.73671e-09
      226.700   4.66717e-09
      226.800   4.59853e-09
      226.900   4.53084e-09
      227.000   4.46411e-09
      227.100   4.39829e-09
      227.200   4.33343e-09
      227.300   4.26950e-09
      227.400   4.20649e-09
      227.500   4.14437e-09
      227.600   4.08314e-09
      227.700   4.02280e-09
      227.800   3.96334e-09
      227.900   3.90474e-09
      228.000   3.84699e-09
      228.100   3.79007e-09
      228.200   3.73398e-09
      228.300   3.67871e-09
      228.400   3.62427e-09
      228.500   3.57060e-09
      228.600   3.51774e-09
      228.700   3.46565e-09
      228.800   3.41432e-09
      228.900   3.36377e-09
      229.000   3.31396e-09
      229.100   3.26489e-09
      229.200   3.21654e-09
      229.300   3.16892e-09
      229.400   3.12202e-09
      229.500   3.07581e-09
      229.600   3.03028e-09
      229.700   2.98544e-09
      229.800   2.94127e-09
      229.900   2.89776e-09
      230.000   2.85468e-09
      230.100   2.81073e-09
      230.200   2.76740e-09
      230.300   2.72477e-09
      230.400   2.68278e-09
      230.500   2.64146e-09
      230.600   2.60079e-09
      230.700   2.56074e-09
      230.800   2.52132e-09
      230.900   2.48253e-09
      231.000   2.44432e-09
      231.100   2.40671e-09
      231.200   2.36968e-09
      231.300   2.33323e-09
      231.400   2.29736e-09
      231.500   2.26202e-09
      231.600   2.22723e-09
      231.700   2.19298e-09
      231.800   2.15927e-09
      231.900   2.12607e-09
      232.000   2.09339e-09
      232.100   2.06120e-09
      232.200   2.02952e-09
      232.300   1.99833e-09
      232.400   1.96761e-09
      232.500   1.93735e-09
      232.600   1.90757e-09
      232.700   1.87824e-09
      232.800   1.84937e-09
      232.900   1.82093e-09
      233.000   1.79293e-09
      233.100   1.76536e-09
      233.200   1.73820e-09
      233.300   1.71147e-09
      233.400   1.68514e-09
      233.500   1.65922e-09
      233.600   1.63370e-09
      233.700   1.60856e-09
      233.800   1.58113e-09
      233.900   1.55381e-09
      234.000   1.52694e-09
      234.100   1.50053e-09
      234.200   1.47458e-09
      234.300   1.44906e-09
      234.400   1.42398e-09
      234.500   1.39932e-09
      234.600   1.37508e-09
      234.700   1.35126e-09
      234.800   1.32785e-09
      234.900   1.30482e-09
      235.000   1.28218e-09
      235.100   1.25994e-09
      235.200   1.23807e-09
      235.300   1.21657e-09
      235.400   1.19543e-09
      235.500   1.17466e-09
      235.600   1.15424e-09
      235.700   1.13416e-09
      235.800   1.11445e-09
      235.900   1.09506e-09
      236.000   1.07601e-09
      236.100   1.05727e-09
      236.200   1.03886e-09
      236.300   1.02075e-09
      236.400   1.00296e-09
      236.500   9.85466e-10
      236.600   9.68268e-10
      236.700   9.51362e-10
      236.800   9.34742e-10
      236.900   9.18404e-10
      237.000   9.02342e-10
      237.100   8.86549e-10
      237.200   8.71028e-10
      237.300   8.55769e-10
      237.400   8.40767e-10
      237.500   8.26016e-10
      237.600   8.11507e-10
      237.700   7.97255e-10
      237.800   7.83245e-10
      237.900   7.69469e-10
      238.000   7.55931e-10
      238.100   7.42617e-10
      238.200   7.29530e-10
      238.300   7.16661e-10
      238.400   7.04011e-10
      238.500   6.91572e-10
      238.600   6.79346e-10
      238.700   6.67329e-10
      238.800   6.55512e-10
      238.900   6.43895e-10
      239.000   6.32471e-10
      239.100   6.21242e-10
      239.200   6.10207e-10
      239.300   5.99358e-10
      239.400   5.88703e-10
      239.500   5.78227e-10
      239.600   5.67926e-10
      239.700   5.57804e-10
      239.800   5.47849e-10
      239.900   5.38065e-10
      240.000   5.28447e-10
      240.100   5.18990e-10
      240.200   5.09693e-10
      240.300   5.00555e-10
      240.400   4.91569e-10
      240.500   4.82742e-10
      240.600   4.74065e-10
      240.700   4.65535e-10
      240.800   4.57154e-10
      240.900   4.48921e-10
      241.000   4.40830e-10
      241.100   4.32878e-10
      241.200   4.25063e-10
      241.300   4.17380e-10
      241.400   4.09831e-10
      241.500   4.02411e-10
      241.600   3.95119e-10
      241.700   3.87953e-10
      241.800   3.80910e-10
      241.900   3.73989e-10
      242.000   3.67189e-10
      242.100   3.60509e-10
      242.200   3.53950e-10
      242.300   3.47508e-10
      242.400   3.41178e-10
      242.500   3.34959e-10
      242.600   3.28850e-10
      242.700   3.22846e-10
      242.800   3.16950e-10
      242.900   3.11157e-10
      243.000   3.05466e-10
      243.100   2.99875e-10
      243.200   2.94383e-10
      243.300   2.88988e-10
      243.400   2.83691e-10
      243.500   2.78489e-10
      243.600   2.73386e-10
      243.700   2.68371e-10
      243.800   2.63446e-10
      243.900   2.58611e-10
      244.000   2.53861e-10
      244.100   2.49196e-10
      244.200   2.44615e-10
      244.300   2.40115e-10
      244.400   2.35697e-10
      244.500   2.31358e-10
      244.600   2.27096e-10
      244.700   2.22915e-10
      244.800   2.18812e-10
      244.900   2.14784e-10
      245.000   2.10827e-10
      245.100   2.06942e-10
      245.200   2.03128e-10
      245.300   1.99384e-10
      245.400   1.95705e-10
      245.500   1.92095e-10
      245.600   1.88550e-10
      245.700   1.85068e-10
      245.800   1.81649e-10
      245.900   1.78297e-10
      246.000   1.75009e-10
      246.100   1.71779e-10
      246.200   1.68607e-10
      246.300   1.65493e-10
      246.400   1.62437e-10
      246.500   1.59436e-10
      246.600   1.56489e-10
      246.700   1.53597e-10
      246.800   1.50756e-10
      246.900   1.47966e-10
      247.000   1.45232e-10
      247.100   1.42548e-10
      247.200   1.39914e-10
      247.300   1.37328e-10
      247.400   1.34789e-10
      247.500   1.32296e-10
      247.600   1.29848e-10
      247.700   1.27445e-10
      247.800   1.25086e-10
      247.900   1.22769e-10
      248.000   1.20495e-10
      248.100   1.18268e-10
      248.200   1.16081e-10
      248.300   1.13934e-10
      248.400   1.11825e-10
      248.500   1.09755e-10
      248.600   1.07723e-10
      248.700   1.05728e-10
      248.800   1.03769e-10
      248.900   1.01846e-10
      249.000   9.99587e-11
      249.100   9.81081e-11
      249.200   9.62927e-11
      249.300   9.45096e-11
      249.400   9.27591e-11
      249.500   9.10408e-11
      249.600   8.93535e-11
      249.700   8.76970e-11
      249.800   8.60708e-11
      249.900   8.44741e-11
      250.000   8.29072e-11
      250.100   8.13707e-11
      250.200   7.98622e-11
      250.300   7.83826e-11
      250.400   7.69298e-11
      250.500   7.55037e-11
      250.600   7.41040e-11
      250.700   7.27296e-11
      250.800   7.13804e-11
      250.900   7.00560e-11
      251.000   6.87557e-11
      251.100   6.74793e-11
      251.200   6.62272e-11
      251.300   6.49991e-11
      251.400   6.37935e-11
      251.500   6.26096e-11
      251.600   6.14475e-11
      251.700   6.03072e-11
      251.800   5.91874e-11
      251.900   5.80881e-11
      252.000   5.70086e-11
      252.100   5.59496e-11
      252.200   5.49093e-11
      252.300   5.38892e-11
      252.400   5.28876e-11
      252.500   5.19052e-11
      252.600   5.09402e-11
      252.700   4.99930e-11
      252.800   4.90631e-11
      252.900   4.81502e-11
      253.000   4.72539e-11
      253.100   4.63742e-11
      253.200   4.55104e-11
      253.300   4.46787e-11
      253.400   4.38692e-11
      253.500   4.30748e-11
      253.600   4.22949e-11
      253.700   4.15286e-11
      253.800   4.07762e-11
      253.900   4.00371e-11
      254.000   3.93109e-11
      254.100   3.85974e-11
      254.200   3.78966e-11
      254.300   3.72082e-11
      254.400   3.65319e-11
      254.500   3.58675e-11
      254.600   3.52148e-11
      254.700   3.45739e-11
      254.800   3.39449e-11
      254.900   3.33268e-11
      255.000   3.27197e-11
      255.100   3.21230e-11
      255.200   3.15369e-11
      255.300   3.09613e-11
      255.400   3.03957e-11
      255.500   2.98402e-11
      255.600   2.92944e-11
      255.700   2.87583e-11
      255.800   2.82315e-11
      255.900   2.77140e-11
      256.000   2.72056e-11
      256.100   2.67065e-11
      256.200   2.62163e-11
      256.300   2.57347e-11
      256.400   2.52620e-11
      256.500   2.47972e-11
      256.600   2.43408e-11
      256.700   2.38925e-11
      256.800   2.34520e-11
      256.900   2.30193e-11
      257.000   2.25942e-11
      257.100   2.21767e-11
      257.200   2.17667e-11
      257.300   2.13639e-11
      257.400   2.09727e-11
      257.500   2.05899e-11
      257.600   2.02143e-11
      257.700   1.98452e-11
      257.800   1.94826e-11
      257.900   1.91265e-11
      258.000   1.87765e-11
      258.100   1.84327e-11
      258.200   1.80949e-11
      258.300   1.77631e-11
      258.400   1.74370e-11
      258.500   1.71167e-11
      258.600   1.68021e-11
      258.700   1.64930e-11
      258.800   1.61893e-11
      258.900   1.58912e-11
      259.000   1.55981e-11
      259.100   1.53103e-11
      259.200   1.50276e-11
      259.300   1.47503e-11
      259.400   1.44777e-11
      259.500   1.42100e-11
      259.600   1.39471e-11
      259.700   1.36889e-11
      259.800   1.34353e-11
      259.900   1.31861e-11
      260.000   1.29414e-11
      260.100   1.27012e-11
      260.200   1.24652e-11
      260.300   1.22335e-11
      260.400   1.20059e-11
      260.500   1.17825e-11
      260.600   1.15630e-11
      260.700   1.13475e-11
      260.800   1.11360e-11
      260.900   1.09282e-11
      261.000   1.07242e-11
      261.100   1.05240e-11
      261.200   1.03274e-11
      261.300   1.01344e-11
      261.400   9.94498e-12
      261.500   9.75921e-12
      261.600   9.57757e-12
      261.700   9.39936e-12
      261.800   9.22442e-12
      261.900   9.05255e-12
      262.000   8.88384e-12
      262.100   8.71818e-12
      262.200   8.55561e-12
      262.300   8.39593e-12
      262.400   8.23919e-12
      262.500   8.08529e-12
      262.600   7.93416e-12
      262.700   7.78582e-12
      262.800   7.64020e-12
      262.900   7.49718e-12
      263.000   7.35692e-12
      263.100   7.21915e-12
      263.200   7.08399e-12
      263.300   6.95129e-12
      263.400   6.82102e-12
      263.500   6.69319e-12
      263.600   6.56771e-12
      263.700   6.44452e-12
      263.800   6.32357e-12
      263.900   6.20494e-12
      264.000   6.08845e-12
      264.100   5.97409e-12
      264.200   5.86181e-12
      264.300   5.75170e-12
      264.400   5.64361e-12
      264.500   5.53749e-12
      264.600   5.43333e-12
      264.700   5.33113e-12
      264.800   5.23077e-12
      264.900   5.13233e-12
      265.000   5.03573e-12
      265.100   4.94088e-12
      265.200   4.84781e-12
      265.300   4.75646e-12
      265.400   4.66685e-12
      265.500   4.57888e-12
      265.600   4.49259e-12
      265.700   4.40785e-12
      265.800   4.32486e-12
      265.900   4.24339e-12
      266.000   4.16351e-12
      266.100   4.08509e-12
      266.200   4.00816e-12
      266.300   3.93263e-12
      266.400   3.85856e-12
      266.500   3.78582e-12
      266.600   3.71449e-12
      266.700   3.64447e-12
      266.800   3.57580e-12
      266.900   3.50840e-12
      267.000   3.44224e-12
      267.100   3.37733e-12
      267.200   3.31368e-12
      267.300   3.25121e-12
      267.400   3.18989e-12
      267.500   3.12973e-12
      267.600   3.07071e-12
      267.700   3.01280e-12
      267.800   2.95595e-12
      267.900   2.90020e-12
      268.000   2.84550e-12
      268.100   2.79182e-12
      268.200   2.73917e-12
      268.300   2.68752e-12
      268.400   2.63682e-12
      268.500   2.58707e-12
      268.600   2.53826e-12
      268.700   2.49038e-12
      268.800   2.44340e-12
      268.900   2.39732e-12
      269.000   2.35210e-12
      269.100   2.30773e-12
      269.200   2.26421e-12
      269.300   2.22151e-12
      269.400   2.17959e-12
      269.500   2.13847e-12
      269.600   2.09814e-12
      269.700   2.05857e-12
      269.800   2.01974e-12
      269.900   1.98164e-12
      270.000   1.94428e-12
      270.100   1.90767e-12
      270.200   1.87179e-12
      270.300   1.83658e-12
      270.400   1.80203e-12
      270.500   1.76814e-12
      270.600   1.73487e-12
      270.700   1.70223e-12
      270.800   1.67022e-12
      270.900   1.63878e-12
      271.000   1.60795e-12
      271.100   1.57770e-12
      271.200   1.54801e-12
      271.300   1.51888e-12
      271.400   1.49029e-12
      271.500   1.46225e-12
      271.600   1.43471e-12
      271.700   1.40770e-12
      271.800   1.38120e-12
      271.900   1.35519e-12
      272.000   1.32968e-12
      272.100   1.30463e-12
      272.200   1.28006e-12
      272.300   1.25593e-12
      272.400   1.23226e-12
      272.500   1.20904e-12
      272.600   1.18625e-12
      272.700   1.16388e-12
      272.800   1.14193e-12
      272.900   1.12039e-12
      273.000   1.09925e-12
      273.100   1.07851e-12
      273.200   1.05814e-12
      273.300   1.03817e-12
      273.400   1.01856e-12
      273.500   9.99317e-13
      273.600   9.80433e-13
      273.700   9.61896e-13
      273.800   9.43704e-13
      273.900   9.25860e-13
      274.000   9.08341e-13
      274.100   8.91146e-13
      274.200   8.74271e-13
      274.300   8.57711e-13
      274.400   8.40768e-13
      274.500   8.22636e-13
      274.600   8.04566e-13
      274.700   7.86891e-13
      274.800   7.69588e-13
      274.900   7.52653e-13
      275.000   7.36085e-13
      275.100   7.19874e-13
      275.200   7.04012e-13
      275.300   6.88487e-13
      275.400   6.73300e-13
      275.500   6.58442e-13
      275.600   6.43893e-13
      275.700   6.29665e-13
      275.800   6.15747e-13
      275.900   6.02123e-13
      276.000   5.88793e-13
      276.100   5.75750e-13
      276.200   5.62988e-13
      276.300   5.50498e-13
      276.400   5.38281e-13
      276.500   5.26322e-13
      276.600   5.14628e-13
      276.700   5.03182e-13
      276.800   4.91988e-13
      276.900   4.81033e-13
      277.000   4.70315e-13
      277.100   4.59827e-13
      277.200   4.49566e-13
      277.300   4.39530e-13
      277.400   4.29710e-13
      277.500   4.20101e-13
      277.600   4.10704e-13
      277.700   4.01507e-13
      277.800   3.92510e-13
      277.900   3.83710e-13
      278.000   3.75102e-13
      278.100   3.66682e-13
      278.200   3.58443e-13
      278.300   3.50386e-13
      278.400   3.42506e-13
      278.500   3.34793e-13
      278.600   3.27248e-13
      278.700   3.19871e-13
      278.800   3.12656e-13
      278.900   3.05526e-13
      279.000   2.98532e-13
      279.100   2.91695e-13
      279.200   2.85008e-13
      279.300   2.78471e-13
      279.400   2.72075e-13
      279.500   2.65826e-13
      279.600   2.59715e-13
      279.700   2.53742e-13
      279.800   2.47900e-13
      279.900   2.42187e-13
      280.000   2.36603e-13
      280.100   2.31143e-13
      280.200   2.25807e-13
      280.300   2.20588e-13
      280.400   2.15486e-13
      280.500   2.10502e-13
      280.600   2.05628e-13
      280.700   2.00863e-13
      280.800   1.96206e-13
      280.900   1.91653e-13
      281.000   1.87202e-13
      281.100   1.82852e-13
      281.200   1.78599e-13
      281.300   1.74442e-13
      281.400   1.70381e-13
      281.500   1.66409e-13
      281.600   1.62528e-13
      281.700   1.58734e-13
      281.800   1.55029e-13
      281.900   1.51405e-13
      282.000   1.47863e-13
      282.100   1.44402e-13
      282.200   1.41023e-13
      282.300   1.37718e-13
      282.400   1.34488e-13
      282.500   1.31331e-13
      282.600   1.28248e-13
      282.700   1.25234e-13
      282.800   1.22287e-13
      282.900   1.19412e-13
      283.000   1.16600e-13
      283.100   1.13855e-13
      283.200   1.11172e-13
      283.300   1.08552e-13
      283.400   1.05991e-13
      283.500   1.03489e-13
      283.600   1.01044e-13
      283.700   9.86548e-14
      283.800   9.63211e-14
      283.900   9.40423e-14
      284.000   9.18151e-14
      284.100   8.96392e-14
      284.200   8.75136e-14
      284.300   8.54376e-14
      284.400   8.34094e-14
      284.500   8.14282e-14
      284.600   7.94927e-14
      284.700   7.76032e-14
      284.800   7.57569e-14
      284.900   7.39535e-14
      285.000   7.21916e-14
      285.100   7.04709e-14
      285.200   6.87909e-14
      285.300   6.71495e-14
      285.400   6.55461e-14
      285.500   6.39806e-14
      285.600   6.24522e-14
      285.700   6.09588e-14
      285.800   5.95014e-14
      285.900   5.80781e-14
      286.000   5.66888e-14
      286.100   5.53324e-14
      286.200   5.40070e-14
      286.300   5.27135e-14
      286.400   5.14505e-14
      286.500   5.02167e-14
      286.600   4.90121e-14
      286.700   4.78356e-14
      286.800   4.66872e-14
      286.900   4.55656e-14
      287.000   4.44707e-14
      287.100   4.34015e-14
      287.200   4.23579e-14
      287.300   4.13388e-14
      287.400   4.03436e-14
      287.500   3.93720e-14
      287.600   3.84236e-14
      287.700   3.74974e-14
      287.800   3.65935e-14
      287.900   3.57111e-14
      288.000   3.48498e-14
      288.100   3.40089e-14
      288.200   3.31889e-14
      288.300   3.23886e-14
      288.400   3.16068e-14
      288.500   3.08441e-14
      288.600   3.00990e-14
      288.700   2.93720e-14
      288.800   2.86621e-14
      288.900   2.79696e-14
      289.000   2.72932e-14
      289.100   2.66330e-14
      289.200   2.59888e-14
      289.300   2.53598e-14
      289.400   2.47457e-14
      289.500   2.41465e-14
      289.600   2.35615e-14
      289.700   2.29909e-14
      289.800   2.24335e-14
      289.900   2.18894e-14
      290.000   2.13586e-14
      290.100   2.08408e-14
      290.200   2.03357e-14
      290.300   1.98426e-14
      290.400   1.93614e-14
      290.500   1.88919e-14
      290.600   1.84335e-14
      290.700   1.79861e-14
      290.800   1.75496e-14
      290.900   1.71234e-14
      291.000   1.67073e-14
      291.100   1.63013e-14
      291.200   1.59051e-14
      291.300   1.55183e-14
      291.400   1.51410e-14
      291.500   1.47727e-14
      291.600   1.44131e-14
      291.700   1.40624e-14
      291.800   1.37201e-14
      291.900   1.33865e-14
      292.000   1.30609e-14
      292.100   1.27430e-14
      292.200   1.24330e-14
      292.300   1.21303e-14
      292.400   1.18348e-14
      292.500   1.15464e-14
      292.600   1.12650e-14
      292.700   1.09904e-14
      292.800   1.07224e-14
      292.900   1.04610e-14
      293.000   1.02058e-14
      293.100   9.95664e-15
      293.200   9.71354e-15
      293.300   9.47633e-15
      293.400   9.24501e-15
      293.500   9.01939e-15
      293.600   8.79924e-15
      293.700   8.58437e-15
      293.800   8.37469e-15
      293.900   8.17012e-15
      294.000   7.97042e-15
      294.100   7.77554e-15
      294.200   7.58540e-15
      294.300   7.39986e-15
      294.400   7.21866e-15
      294.500   7.04193e-15
      294.600   6.86941e-15
      294.700   6.70108e-15
      294.800   6.53681e-15
      294.900   6.37663e-15
      295.000   6.22040e-15
      295.100   6.06803e-15
      295.200   5.91929e-15
      295.300   5.77411e-15
      295.400   5.63248e-15
      295.500   5.49430e-15
      295.600   5.35940e-15
      295.700   5.22777e-15
      295.800   5.09933e-15
      295.900   4.97391e-15
      296.000   4.85155e-15
      296.100   4.73213e-15
      296.200   4.61564e-15
      296.300   4.50206e-15
      296.400   4.39138e-15
      296.500   4.28328e-15
      296.600   4.17780e-15
      296.700   4.07489e-15
      296.800   3.97448e-15
      296.900   3.87645e-15
      297.000   3.78081e-15
      297.100   3.68748e-15
      297.200   3.59641e-15
      297.300   3.50753e-15
      297.400   3.42081e-15
      297.500   3.33616e-15
      297.600   3.25364e-15
      297.700   3.17316e-15
      297.800   3.09466e-15
      297.900   3.01807e-15
      298.000   2.94335e-15
      298.100   2.87042e-15
      298.200   2.79925e-15
      298.300   2.72983e-15
      298.400   2.66206e-15
      298.500   2.59593e-15
      298.600   2.53139e-15
      298.700   2.46844e-15
      298.800   2.40698e-15
      298.900   2.34717e-15
      299.000   2.28882e-15
      299.100   2.23187e-15
      299.200   2.17629e-15
      299.300   2.12207e-15
      299.400   2.06916e-15
      299.500   2.01753e-15
      299.600   1.96716e-15
      299.700   1.91802e-15
      299.800   1.87004e-15
      299.900   1.82327e-15
      300.000   1.77763e-15
      300.100   1.73312e-15
      300.192   1.69316e-15
      300.285   1.65366e-15
      300.377   1.61549e-15
      300.470   1.57780e-15
      300.562   1.54135e-15
      300.654   1.50572e-15
      300.747   1.47050e-15
      300.839   1.43649e-15
      300.932   1.40286e-15
      301.025   1.37001e-15
      301.117   1.33826e-15
      301.210   1.30688e-15
      301.303   1.27623e-15
      301.395   1.24663e-15
      301.488   1.21733e-15
      301.581   1.18875e-15
      301.674   1.16080e-15
      301.766   1.13379e-15
      301.859   1.10711e-15
      301.952   1.08105e-15
      302.045   1.05557e-15
      302.138   1.03071e-15
      302.231   1.00643e-15
      302.324   9.82724e-16
      302.417   9.59553e-16
      302.510   9.36903e-16
      302.603   9.14807e-16
      302.696   8.93201e-16
      302.789   8.72088e-16
      302.882   8.51459e-16
      302.976   8.31106e-16
      303.069   8.11430e-16
      303.162   7.92213e-16
      303.255   7.73430e-16
      303.349   7.54889e-16
      303.442   7.36965e-16
      303.535   7.19475e-16
      303.629   7.02201e-16
      303.722   6.85511e-16
      303.816   6.69029e-16
      303.909   6.53105e-16
      304.003   6.37385e-16
      304.096   6.22190e-16
      304.190   6.07191e-16
      304.283   5.92701e-16
      304.377   5.78407e-16
      304.471   5.64436e-16
      304.564   5.50943e-16
      304.658   5.37631e-16
      304.752   5.24615e-16
      304.846   5.11920e-16
      304.939   4.99652e-16
      305.033   4.87540e-16
      305.127   4.75718e-16
      305.221   4.64174e-16
      305.315   4.52906e-16
      305.409   4.41902e-16
      305.503   4.31160e-16
      305.597   4.20673e-16
      305.691   4.10434e-16
      305.785   4.00434e-16
      305.879   3.90674e-16
      305.973   3.81151e-16
      306.067   3.71847e-16
      306.161   3.62771e-16
      306.255   3.53908e-16
      306.350   3.45165e-16
      306.444   3.36722e-16
      306.538   3.28478e-16
      306.633   3.20352e-16
      306.727   3.12500e-16
      306.821   3.04837e-16
      306.916   2.97279e-16
      307.010   2.89984e-16
      307.105   2.82788e-16
      307.199   2.75841e-16
      307.294   2.68987e-16
      307.388   2.62370e-16
      307.483   2.55846e-16
      307.577   2.49546e-16
      307.672   2.43332e-16
      307.767   2.37271e-16
      307.861   2.31419e-16
      307.956   2.25645e-16
      308.051   2.20012e-16
      308.146   2.14520e-16
      308.240   2.09217e-16
      308.335   2.03987e-16
      308.430   1.98883e-16
      308.525   1.93904e-16
      308.620   1.89050e-16
      308.715   1.84313e-16
      308.810   1.79693e-16
      308.905   1.75185e-16
      309.000   1.70790e-16
      309.095   1.66501e-16
      309.190   1.62320e-16
      309.285   1.58240e-16
      309.380   1.54260e-16
      309.476   1.50340e-16
      309.571   1.46556e-16
      309.666   1.42863e-16
      309.761   1.39264e-16
      309.857   1.35716e-16
      309.952   1.32293e-16
      310.047   1.28956e-16
      310.143   1.25666e-16
      310.238   1.22492e-16
      310.334   1.19364e-16
      310.429   1.16345e-16
      310.525   1.13372e-16
      310.620   1.10503e-16
      310.716   1.07675e-16
      310.811   1.04948e-16
      310.907   1.02262e-16
      311.003   9.96425e-17
      311.098   9.71148e-17
      311.194   9.46244e-17
      311.290   9.21975e-17
      311.386   8.98321e-17
      311.481   8.75495e-17
      311.577   8.53019e-17
      311.673   8.31101e-17
      311.769   8.09736e-17
      311.865   7.88923e-17
      311.961   7.68775e-17
      312.057   7.49743e-17
      312.153   7.31377e-17
      312.249   7.13452e-17
      312.345   6.95962e-17
      312.441   6.78888e-17
      312.537   6.62233e-17
      312.633   6.45985e-17
      312.730   6.29953e-17
      312.826   6.14486e-17
      312.922   5.99394e-17
      313.018   5.84667e-17
      313.115   5.70147e-17
      313.211   5.56125e-17
      313.307   5.42446e-17
      313.404   5.28964e-17
      313.500   5.15942e-17
      313.597   5.03116e-17
      313.693   4.90733e-17
      313.790   4.78523e-17
      313.886   4.66734e-17
      313.983   4.55110e-17
      314.079   4.43890e-17
      314.176   4.32836e-17
      314.273   4.22049e-17
      314.369   4.11642e-17
      314.466   4.01382e-17
      314.563   3.91372e-17
      314.660   3.81616e-17
      314.756   3.72192e-17
      314.853   3.62905e-17
      314.950   3.53848e-17
      315.047   3.45017e-17
      315.144   3.36402e-17
      315.241   3.28002e-17
      315.338   3.19808e-17
      315.435   3.11819e-17
      315.532   3.04028e-17
      315.629   2.96431e-17
      315.726   2.89022e-17
      315.823   2.81791e-17
      315.921   2.74675e-17
      316.018   2.67804e-17
      316.115   2.61106e-17
      316.212   2.54571e-17
      316.310   2.48136e-17
      316.407   2.41925e-17
      316.504   2.35867e-17
      316.602   2.29900e-17
      316.699   2.24143e-17
      316.796   2.18530e-17
      316.894   2.13001e-17
      316.991   2.07694e-17
      317.089   2.02640e-17
      317.187   1.97797e-17
      317.284   1.93117e-17
      317.382   1.88501e-17
      317.479   1.84038e-17
      317.577   1.79639e-17
      317.675   1.75344e-17
      317.773   1.71151e-17
      317.870   1.67100e-17
      317.968   1.63101e-17
      318.066   1.59199e-17
      318.164   1.55390e-17
      318.262   1.51672e-17
      318.360   1.48041e-17
      318.458   1.44499e-17
      318.556   1.41042e-17
      318.654   1.37666e-17
      318.752   1.34371e-17
      318.850   1.31155e-17
      318.948   1.28014e-17
      319.046   1.24949e-17
      319.144   1.21956e-17
      319.242   1.19035e-17
      319.341   1.16155e-17
      319.439   1.13373e-17
      319.537   1.10657e-17
      319.635   1.08006e-17
      319.734   1.05392e-17
      319.832   1.02867e-17
      319.930   1.00401e-17
      320.029   9.79708e-18
      320.127   9.56228e-18
      320.226   9.33075e-18
      320.324   9.10697e-18
      320.423   8.88628e-18
      320.522   8.67113e-18
      320.620   8.46323e-18
      320.719   8.25817e-18
      320.818   8.05808e-18
      320.916   7.86477e-18
      321.015   7.67412e-18
      321.114   7.48807e-18
      321.213   7.30654e-18
      321.311   7.13118e-18
      321.410   6.95834e-18
      321.509   6.78954e-18
      321.608   6.62493e-18
      321.707   6.46424e-18
      321.806   6.30739e-18
      321.905   6.15440e-18
      322.004   6.00501e-18
      322.103   5.85932e-18
      322.202   5.71708e-18
      322.301   5.57833e-18
      322.401   5.44158e-18
      322.500   5.30946e-18
      322.599   5.18056e-18
      322.698   5.05477e-18
      322.798   4.93077e-18
      322.897   4.81096e-18
      322.996   4.69409e-18
      323.096   4.57883e-18
      323.195   4.46753e-18
      323.294   4.35893e-18
      323.394   4.25191e-18
      323.493   4.14850e-18
      323.593   4.04660e-18
      323.692   3.94815e-18
      323.792   3.85114e-18
      323.892   3.75649e-18
      323.991   3.66501e-18
      324.091   3.57491e-18
      324.191   3.48698e-18
      324.291   3.40119e-18
      324.390   3.31837e-18
      324.490   3.23666e-18
      324.590   3.15701e-18
      324.690   3.07930e-18
      324.790   3.00347e-18
      324.890   2.92951e-18
      324.990   2.85731e-18
      325.090   2.78687e-18
      325.190   2.71818e-18
      325.290   2.65119e-18
      325.390   2.58577e-18
      325.490   2.52200e-18
      325.590   2.45979e-18
      325.690   2.39905e-18
      325.790   2.33982e-18
      325.891   2.28146e-18
      325.991   2.22511e-18
      326.091   2.17010e-18
      326.192   2.11593e-18
      326.292   2.06361e-18
      326.392   2.01258e-18
      326.493   1.96229e-18
      326.593   1.91371e-18
      326.694   1.86590e-18
      326.794   1.81968e-18
      326.895   1.77416e-18
      326.995   1.73018e-18
      327.096   1.68688e-18
      327.197   1.64463e-18
      327.297   1.60383e-18
      327.398   1.56363e-18
      327.499   1.52443e-18
      327.599   1.48656e-18
      327.700   1.44925e-18
      327.801   1.41287e-18
      327.902   1.37741e-18
      328.003   1.34281e-18
      328.104   1.30906e-18
      328.205   1.27615e-18
      328.306   1.24405e-18
      328.407   1.21276e-18
      328.508   1.18222e-18
      328.609   1.15245e-18
      328.710   1.12342e-18
      328.811   1.09511e-18
      328.912   1.06750e-18
      329.013   1.04057e-18
      329.115   1.01406e-18
      329.216   9.88457e-19
      329.317   9.63489e-19
      329.419   9.38919e-19
      329.520   9.15179e-19
      329.621   8.92024e-19
      329.723   8.69226e-19
      329.824   8.47237e-19
      329.926   8.25575e-19
      330.027   8.04653e-19
      330.129   7.84053e-19
      330.230   7.64178e-19
      330.332   7.44595e-19
      330.434   7.25511e-19
      330.535   7.07082e-19
      330.637   6.88938e-19
      330.739   6.71258e-19
      330.840   6.54184e-19
      330.942   6.37371e-19
      331.044   6.20987e-19
      331.146   6.05015e-19
      331.248   5.89445e-19
      331.350   5.74272e-19
      331.452   5.59495e-19
      331.554   5.45440e-19
      331.656   5.32271e-19
      331.758   5.19418e-19
      331.860   5.06859e-19
      331.962   4.94601e-19
      332.064   4.82632e-19
      332.166   4.70953e-19
      332.268   4.59540e-19
      332.371   4.48301e-19
      332.473   4.37426e-19
      332.575   4.26805e-19
      332.677   4.16445e-19
      332.780   4.06234e-19
      332.882   3.96360e-19
      332.985   3.86629e-19
      333.087   3.77217e-19
      333.190   3.67943e-19
      333.292   3.58852e-19
      333.395   3.49560e-19
      333.497   3.40466e-19
      333.600   3.31518e-19
      333.702   3.22882e-19
      333.805   3.14392e-19
      333.908   3.06109e-19
      334.011   2.98048e-19
      334.113   2.90267e-19
      334.216   2.82611e-19
      334.319   2.75154e-19
      334.422   2.67889e-19
      334.525   2.60812e-19
      334.628   2.53917e-19
      334.731   2.47205e-19
      334.834   2.40665e-19
      334.937   2.34292e-19
      335.040   2.28083e-19
      335.143   2.22040e-19
      335.246   2.16152e-19
      335.349   2.10416e-19
      335.452   2.04830e-19
      335.555   1.99391e-19
      335.659   1.94040e-19
      335.762   1.88879e-19
      335.865   1.83855e-19
      335.969   1.78913e-19
      336.072   1.74145e-19
      336.175   1.69506e-19
      336.279   1.64944e-19
      336.382   1.60544e-19
      336.486   1.56217e-19
      336.589   1.52043e-19
      336.693   1.47944e-19
      336.796   1.43989e-19
      336.900   1.40101e-19
      337.004   1.36313e-19
      337.107   1.32665e-19
      337.211   1.29076e-19
      337.315   1.25585e-19
      337.419   1.22185e-19
      337.523   1.18874e-19
      337.626   1.15683e-19
      337.730   1.12547e-19
      337.834   1.09493e-19
      337.938   1.06522e-19
      338.042   1.03635e-19
      338.146   1.00845e-19
      338.250   9.81319e-20
      338.354   9.54901e-20
      338.458   9.29172e-20
      338.562   9.04127e-20
      338.667   8.79524e-20
      338.771   8.55792e-20
      338.875   8.32695e-20
      338.979   8.10203e-20
      339.084   7.88121e-20
      339.188   7.66822e-20
      339.292   7.46094e-20
      339.397   7.25718e-20
      339.501   7.06085e-20
      339.606   6.86777e-20
      339.710   6.68177e-20
      339.815   6.49898e-20
      339.919   6.32285e-20
      340.024   6.14968e-20
      340.128   5.98292e-20
      340.233   5.81892e-20
      340.338   5.65950e-20
      340.442   5.50570e-20
      340.547   5.35469e-20
      340.652   5.20770e-20
      340.757   5.06473e-20
      340.862   4.92561e-20
      340.966   4.79155e-20
      341.071   4.65984e-20
      341.176   4.53171e-20
      341.281   4.40704e-20
      341.386   4.28582e-20
      341.491   4.16778e-20
      341.596   4.05305e-20
      341.702   3.94036e-20
      341.807   3.83176e-20
      341.912   3.72613e-20
      342.017   3.62336e-20
      342.122   3.52337e-20
      342.228   3.42529e-20
      342.333   3.33072e-20
      342.438   3.23874e-20
      342.544   3.14847e-20
      342.649   3.06146e-20
      342.754   2.97689e-20
      342.860   2.89380e-20
      342.965   2.81371e-20
      343.071   2.73521e-20
      343.176   2.65952e-20
      343.282   2.58519e-20
      343.388   2.51296e-20
      343.493   2.44362e-20
      343.599   2.37766e-20
      343.705   2.31370e-20
      343.810   2.25197e-20
      343.916   2.19136e-20
      344.022   2.13236e-20
      344.128   2.07494e-20
      344.234   2.01901e-20
      344.340   1.96461e-20
      344.446   1.91163e-20
      344.552   1.86008e-20
      344.658   1.80992e-20
      344.764   1.76112e-20
      344.870   1.71359e-20
      344.976   1.66736e-20
      345.082   1.62234e-20
      345.188   1.57856e-20
      345.294   1.53591e-20
      345.401   1.49405e-20
      345.507   1.45368e-20
      345.613   1.41441e-20
      345.719   1.37618e-20
      345.826   1.33864e-20
      345.932   1.30244e-20
      346.039   1.26689e-20
      346.145   1.23262e-20
      346.252   1.19898e-20
      346.358   1.16653e-20
      346.465   1.13469e-20
      346.571   1.10398e-20
      346.678   1.07381e-20
      346.785   1.04446e-20
      346.891   1.01618e-20
      346.998   9.88418e-21
      347.105   9.61402e-21
      347.212   9.35114e-21
      347.319   9.09539e-21
      347.425   8.84880e-21
      347.532   8.60672e-21
      347.639   8.37132e-21
      347.746   8.14225e-21
      347.853   7.91930e-21
      347.960   7.70258e-21
      348.067   7.49179e-21
      348.174   7.28674e-21
      348.281   7.08721e-21
      348.389   6.89136e-21
      348.496   6.70253e-21
      348.603   6.51909e-21
      348.710   6.34049e-21
      348.818   6.16520e-21
      348.925   5.99620e-21
      349.032   5.83191e-21
      349.140   5.66979e-21
      349.247   5.51348e-21
      349.355   5.36017e-21
      349.462   5.21237e-21
      349.570   5.06721e-21
      349.677   4.92749e-21
      349.785   4.79026e-21
      349.892   4.65812e-21
      350.000   4.52843e-21
      350.100   4.41158e-21
      350.193   4.30559e-21
      350.287   4.20096e-21
      350.380   4.10005e-21
      350.473   4.00151e-21
      350.567   3.90422e-21
      350.660   3.81038e-21
      350.754   3.71779e-21
      350.847   3.62844e-21
      350.941   3.54026e-21
      351.034   3.45514e-21
      351.128   3.37114e-21
      351.221   3.29011e-21
      351.315   3.21009e-21
      351.409   3.13201e-21
      351.502   3.05668e-21
      351.596   2.98237e-21
      351.690   2.90979e-21
      351.783   2.83980e-21
      351.877   2.77074e-21
      351.971   2.70332e-21
      352.065   2.63755e-21
      352.159   2.57337e-21
      352.252   2.51142e-21
      352.346   2.45027e-21
      352.440   2.39065e-21
      352.534   2.33250e-21
      352.628   2.27570e-21
      352.722   2.22028e-21
      352.816   2.16623e-21
      352.910   2.11350e-21
      353.004   2.06205e-21
      353.098   2.01182e-21
      353.192   1.96280e-21
      353.287   1.91448e-21
      353.381   1.86782e-21
      353.475   1.82234e-21
      353.569   1.77791e-21
      353.663   1.73460e-21
      353.758   1.69189e-21
      353.852   1.65066e-21
      353.946   1.61041e-21
      354.041   1.57073e-21
      354.135   1.53244e-21
      354.229   1.49505e-21
      354.324   1.45821e-21
      354.418   1.42264e-21
      354.513   1.38756e-21
      354.607   1.35373e-21
      354.702   1.32014e-21
      354.796   1.28692e-21
      354.891   1.25411e-21
      354.985   1.22248e-21
      355.080   1.19132e-21
      355.175   1.16093e-21
      355.269   1.13163e-21
      355.364   1.10276e-21
      355.459   1.07463e-21
      355.553   1.04748e-21
      355.648   1.02076e-21
      355.743   9.94716e-22
      355.838   9.69296e-22
      355.933   9.44557e-22
      356.027   9.20685e-22
      356.122   8.97155e-22
      356.217   8.74231e-22
      356.312   8.51906e-22
      356.407   8.30126e-22
      356.502   8.08906e-22
      356.597   7.88218e-22
      356.692   7.68062e-22
      356.787   7.48417e-22
      356.882   7.29257e-22
      356.977   7.10606e-22
      357.073   6.92232e-22
      357.168   6.74499e-22
      357.263   6.57231e-22
      357.358   6.40395e-22
      357.453   6.23993e-22
      357.549   6.07839e-22
      357.644   5.92261e-22
      357.739   5.77088e-22
      357.835   5.62128e-22
      357.930   5.47712e-22
      358.025   5.33661e-22
      358.121   5.19828e-22
      358.216   5.06485e-22
      358.312   4.93345e-22
      358.407   4.80680e-22
      358.503   4.68206e-22
      358.598   4.56184e-22
      358.694   4.44341e-22
      358.790   4.32797e-22
      358.885   4.21668e-22
      358.981   4.10710e-22
      359.076   4.00151e-22
      359.172   3.89752e-22
      359.268   3.79609e-22
      359.364   3.69732e-22
      359.459   3.60219e-22
      359.555   3.50842e-22
      359.651   3.41707e-22
      359.747   3.32809e-22
      359.843   3.24138e-22
      359.939   3.15691e-22
      360.035   3.07464e-22
      360.131   2.99452e-22
      360.227   2.91636e-22
      360.323   2.84030e-22
      360.419   2.76620e-22
      360.515   2.69401e-22
      360.611   2.62365e-22
      360.707   2.55505e-22
      360.803   2.48834e-22
      360.899   2.42327e-22
      360.995   2.35994e-22
      361.092   2.29758e-22
      361.188   2.23745e-22
      361.284   2.17889e-22
      361.380   2.12185e-22
      361.477   2.06569e-22
      361.573   2.01156e-22
      361.669   1.95884e-22
      361.766   1.90693e-22
      361.862   1.85693e-22
      361.959   1.80772e-22
      362.055   1.76023e-22
      362.152   1.71356e-22
      362.248   1.66855e-22
      362.345   1.62422e-22
      362.441   1.58155e-22
      362.538   1.53954e-22
      362.635   1.49863e-22
      362.731   1.45917e-22
      362.828   1.42036e-22
      362.925   1.38257e-22
      363.021   1.34613e-22
      363.118   1.31030e-22
      363.215   1.27539e-22
      363.312   1.24138e-22
      363.409   1.20830e-22
      363.505   1.17640e-22
      363.602   1.14500e-22
      363.699   1.11444e-22
      363.796   1.08468e-22
      363.893   1.05569e-22
      363.990   1.02748e-22
      364.087   1.00001e-22
      364.184   9.73260e-23
      364.281   9.47205e-23
      364.378   9.21850e-23
      364.475   8.97158e-23
      364.573   8.72868e-23
      364.670   8.49468e-23
      364.767   8.26686e-23
      364.864   8.04499e-23
      364.961   7.82904e-23
      365.059   7.61665e-23
      365.156   7.41208e-23
      365.253   7.21281e-23
      365.351   7.01685e-23
      365.448   6.82804e-23
      365.545   6.64430e-23
      365.643   6.46353e-23
      365.740   6.28934e-23
      365.838   6.11808e-23
      365.935   5.95315e-23
      366.033   5.79095e-23
      366.130   5.63461e-23
      366.228   5.48094e-23
      366.326   5.33140e-23
      366.423   5.18734e-23
      366.521   5.04568e-23
      366.618   4.90912e-23
      366.716   4.77491e-23
      366.814   4.64435e-23
      366.912   4.51733e-23
      367.010   4.39360e-23
      367.107   4.27448e-23
      367.205   4.15730e-23
      367.303   4.04332e-23
      367.401   3.93243e-23
      367.499   3.82448e-23
      367.597   3.71947e-23
      367.695   3.61731e-23
      367.793   3.51793e-23
      367.891   3.42122e-23
      367.989   3.32705e-23
      368.087   3.23550e-23
      368.185   3.14642e-23
      368.283   3.05971e-23
      368.381   2.97534e-23
      368.480   2.89247e-23
      368.578   2.81264e-23
      368.676   2.73502e-23
      368.774   2.65950e-23
      368.873   2.58528e-23
      368.971   2.51381e-23
      369.069   2.44427e-23
      369.168   2.37591e-23
      369.266   2.31013e-23
      369.364   2.24613e-23
      369.463   2.18324e-23
      369.561   2.12271e-23
      369.660   2.06322e-23
      369.758   2.00595e-23
      369.857   1.94970e-23
      369.955   1.89554e-23
      370.054   1.84230e-23
      370.153   1.79054e-23
      370.251   1.74072e-23
      370.350   1.69178e-23
      370.449   1.64420e-23
      370.547   1.59838e-23
      370.646   1.55334e-23
      370.745   1.50959e-23
      370.844   1.46704e-23
      370.943   1.42566e-23
      371.041   1.38584e-23
      371.140   1.34671e-23
      371.239   1.30866e-23
      371.338   1.27168e-23
      371.437   1.23573e-23
      371.536   1.20079e-23
      371.635   1.16679e-23
      371.734   1.13376e-23
      371.833   1.10165e-23
      371.932   1.07043e-23
      372.032   1.03977e-23
      372.131   1.01027e-23
      372.230   9.81603e-24
      372.329   9.53732e-24
      372.428   9.26632e-24
      372.528   9.00038e-24
      372.627   8.74456e-24
      372.726   8.49583e-24
      372.826   8.25166e-24
      372.925   8.01666e-24
      373.024   7.78823e-24
      373.124   7.56397e-24
      373.223   7.34838e-24
      373.323   7.13672e-24
      373.422   6.93301e-24
      373.522   6.73302e-24
      373.621   6.54079e-24
      373.721   6.35199e-24
      373.820   6.17042e-24
      373.920   5.99217e-24
      374.020   5.81886e-24
      374.119   5.65234e-24
      374.219   5.48875e-24
      374.319   5.32996e-24
      374.419   5.17574e-24
      374.518   5.02726e-24
      374.618   4.88158e-24
      374.718   4.73994e-24
      374.818   4.60253e-24
      374.918   4.46906e-24
      375.018   4.33930e-24
      375.118   4.21332e-24
      375.218   4.09086e-24
      375.318   3.97197e-24
      375.418   3.85641e-24
      375.518   3.74428e-24
      375.618   3.63535e-24
      375.718   3.52948e-24
      375.818   3.42669e-24
      375.918   3.32684e-24
      376.019   3.22894e-24
      376.119   3.13477e-24
      376.219   3.04333e-24
      376.319   2.95448e-24
      376.420   2.86740e-24
      376.520   2.78365e-24
      376.620   2.70235e-24
      376.721   2.62257e-24
      376.821   2.54590e-24
      376.922   2.47069e-24
      377.022   2.39838e-24
      377.122   2.32819e-24
      377.223   2.25934e-24
      377.323   2.19318e-24
      377.424   2.12826e-24
      377.525   2.06527e-24
      377.625   2.00470e-24
      377.726   1.94532e-24
      377.827   1.88768e-24
      377.927   1.83225e-24
      378.028   1.77794e-24
      378.129   1.72519e-24
      378.230   1.67398e-24
      378.330   1.62476e-24
      378.431   1.57651e-24
      378.532   1.52970e-24
      378.633   1.48423e-24
      378.734   1.44010e-24
      378.835   1.39728e-24
      378.936   1.35572e-24
      379.037   1.31539e-24
      379.138   1.27623e-24
      379.239   1.23822e-24
      379.340   1.20136e-24
      379.441   1.16557e-24
      379.542   1.13082e-24
      379.643   1.09712e-24
      379.745   1.06409e-24
      379.846   1.03234e-24
      379.947   1.00153e-24
      380.048   9.71646e-25
      380.150   9.42349e-25
      380.251   9.14200e-25
      380.352   8.86896e-25
      380.454   8.60144e-25
      380.555   8.34431e-25
      380.656   8.09476e-25
      380.758   7.85028e-25
      380.859   7.61544e-25
      380.961   7.38545e-25
      381.062   7.16442e-25
      381.164   6.94779e-25
      381.266   6.73770e-25
      381.367   6.53587e-25
      381.469   6.33816e-25
      381.570   6.14825e-25
      381.672   5.96217e-25
      381.774   5.78163e-25
      381.876   5.60653e-25
      381.977   5.43836e-25
      382.079   5.27360e-25
      382.181   5.11375e-25
      382.283   4.95884e-25
      382.385   4.80848e-25
      382.487   4.66257e-25
      382.589   4.52118e-25
      382.691   4.38403e-25
      382.793   4.25101e-25
      382.895   4.12198e-25
      382.997   3.99681e-25
      383.099   3.87543e-25
      383.201   3.75775e-25
      383.303   3.64357e-25
      383.405   3.53284e-25
      383.507   3.42545e-25
      383.610   3.32035e-25
      383.712   3.21936e-25
      383.814   3.12150e-25
      383.916   3.02658e-25
      384.019   2.93361e-25
      384.121   2.84432e-25
      384.223   2.75776e-25
      384.326   2.67303e-25
      384.428   2.59159e-25
      384.531   2.51184e-25
      384.633   2.43527e-25
      384.736   2.36029e-25
      384.838   2.28829e-25
      384.941   2.21782e-25
      385.043   2.15014e-25
      385.146   2.08391e-25
      385.249   2.01971e-25
      385.351   1.95805e-25
      385.454   1.89769e-25
      385.557   1.83921e-25
      385.660   1.78249e-25
      385.762   1.72806e-25
      385.865   1.67476e-25
      385.968   1.62308e-25
      386.071   1.57299e-25
      386.174   1.52444e-25
      386.277   1.47741e-25
      386.380   1.43180e-25
      386.483   1.38759e-25
      386.586   1.34477e-25
      386.689   1.30324e-25
      386.792   1.26298e-25
      386.895   1.22396e-25
      386.998   1.18615e-25
      387.101   1.14950e-25
      387.204   1.11396e-25
      387.308   1.07919e-25
      387.411   1.04583e-25
      387.514   1.01349e-25
      387.617   9.82151e-26
      387.721   9.51494e-26
      387.824   9.22063e-26
      387.927   8.93516e-26
      388.031   8.65605e-26
      388.134   8.38818e-26
      388.238   8.12622e-26
      388.341   7.87459e-26
      388.445   7.62849e-26
      388.548   7.39217e-26
      388.652   7.16111e-26
      388.755   6.93935e-26
      388.859   6.72235e-26
      388.962   6.51410e-26
      389.066   6.31027e-26
      389.170   6.11297e-26
      389.274   5.92169e-26
      389.377   5.73810e-26
      389.481   5.55842e-26
      389.585   5.38449e-26
      389.689   5.21592e-26
      389.793   5.05254e-26
      389.897   4.89438e-26
      390.000   4.74249e-26
      390.104   4.59399e-26
      390.208   4.45002e-26
      390.312   4.31060e-26
      390.416   4.17553e-26
      390.520   4.04458e-26
      390.625   3.91648e-26
      390.729   3.79371e-26
      390.833   3.67468e-26
      390.937   3.55939e-26
      391.041   3.44775e-26
      391.145   3.33958e-26
      391.250   3.23375e-26
      391.354   3.13229e-26
      391.458   3.03397e-26
      391.563   2.93779e-26
      391.667   2.84556e-26
      391.771   2.75621e-26
      391.876   2.66881e-26
      391.980   2.58495e-26
      392.085   2.50297e-26
      392.189   2.42432e-26
      392.294   2.34739e-26
      392.398   2.27362e-26
      392.503   2.20147e-26
      392.607   2.13225e-26
      392.712   2.06458e-26
      392.817   1.99900e-26
      392.921   1.93614e-26
      393.026   1.87464e-26
      393.131   1.81512e-26
      393.236   1.75742e-26
      393.340   1.70211e-26
      393.445   1.64803e-26
      393.550   1.59565e-26
      393.655   1.54492e-26
      393.760   1.49581e-26
      393.865   1.44824e-26
      393.970   1.40220e-26
      394.075   1.35758e-26
      394.180   1.31441e-26
      394.285   1.27258e-26
      394.390   1.23209e-26
      394.495   1.19286e-26
      394.600   1.15489e-26
      394.706   1.11778e-26
      394.811   1.08219e-26
      394.916   1.04770e-26
      395.021   1.01432e-26
      395.126   9.82018e-27
      395.232   9.50416e-27
      395.337   9.20115e-27
      395.443   8.90511e-27
      395.548   8.62117e-27
      395.653   8.34630e-27
      395.759   8.07746e-27
      395.864   7.81982e-27
      395.970   7.56796e-27
      396.075   7.32642e-27
      396.181   7.09030e-27
      396.286   6.86381e-27
      396.392   6.64269e-27
      396.498   6.42856e-27
      396.603   6.22304e-27
      396.709   6.02239e-27
      396.815   5.82807e-27
      396.921   5.63992e-27
      397.026   5.45958e-27
      397.132   5.28323e-27
      397.238   5.11268e-27
      397.344   4.94739e-27
      397.450   4.78772e-27
      397.556   4.63289e-27
      397.662   4.48311e-27
      397.768   4.33823e-27
      397.874   4.19790e-27
      397.980   4.06212e-27
      398.086   3.93064e-27
      398.192   3.80348e-27
      398.298   3.68033e-27
      398.404   3.56115e-27
      398.510   3.44580e-27
      398.617   3.33321e-27
      398.723   3.22521e-27
      398.829   3.12062e-27
      398.935   3.01943e-27
      399.042   2.92065e-27
      399.148   2.82586e-27
      399.255   2.73338e-27
      399.361   2.64468e-27
      399.467   2.55875e-27
      399.574   2.47494e-27
      399.680   2.39453e-27
      399.787   2.31599e-27
      399.893       0.00000
      400.000       0.00000
