Filter Be-med
observation_date 2022-09-22 22:45:45
wavelength effective area
      1.00000   2.78114e-10
      1.10000   7.93773e-10
      1.20000   2.06297e-09
      1.30000   4.93135e-09
      1.40000   1.11851e-08
      1.50000   2.38505e-08
      1.60000   4.82553e-08
      1.70000   9.36186e-08
      1.80000   1.74158e-07
      1.90000   3.12736e-07
      2.00000   5.43142e-07
      2.10000   9.16355e-07
      2.20000   1.50905e-06
      2.30000   2.42235e-06
      2.40000   3.79696e-06
      2.50000   5.79273e-06
      2.60000   8.82341e-06
      2.70000   1.31274e-05
      2.80000   1.91539e-05
      2.90000   2.76537e-05
      3.00000   3.92944e-05
      3.10000   5.51078e-05
      3.20000   7.64250e-05
      3.30000   0.000104886
      3.40000   0.000142412
      3.50000   0.000191446
      3.60000   0.000256105
      3.70000   0.000338882
      3.80000   0.000446421
      3.90000   0.000584650
      4.00000   0.000760695
      4.10000   0.000984870
      4.20000    0.00127032
      4.30000    0.00163334
      4.40000    0.00209381
      4.50000    0.00267585
      4.60000    0.00340714
      4.70000    0.00433650
      4.80000    0.00551150
      4.90000    0.00691288
      5.00000    0.00889434
      5.10000     0.0112795
      5.20000     0.0143388
      5.30000     0.0180688
      5.40000     0.0227202
      5.50000     0.0286070
      5.60000     0.0349011
      5.70000     0.0448405
      5.80000     0.0519193
      5.90000     0.0782663
      6.00000      0.103827
      6.10000      0.130890
      6.20000      0.158499
      6.30000      0.183903
      6.40000      0.204576
      6.50000      0.218410
      6.60000      0.222517
      6.70000      0.225641
      6.80000      0.222165
      6.90000      0.286405
      7.00000      0.305867
      7.10000      0.317482
      7.20000      0.324880
      7.30000      0.329233
      7.40000      0.330568
      7.50000      0.329908
      7.60000      0.327414
      7.70000      0.322345
      7.80000      0.314262
      7.90000      0.306517
      8.00000      0.432325
      8.10000      0.461548
      8.20000      0.457056
      8.30000      0.450369
      8.40000      0.441699
      8.50000      0.432173
      8.60000      0.421762
      8.70000      0.410788
      8.80000      0.399220
      8.90000      0.387279
      9.00000      0.375011
      9.10000      0.362491
      9.20000      0.349809
      9.30000      0.337031
      9.40000      0.324193
      9.50000      0.311345
      9.60000      0.298568
      9.70000      0.285868
      9.80000      0.273301
      9.90000      0.260938
      10.0000      0.248807
      10.1000      0.236901
      10.2000      0.225243
      10.3000      0.213872
      10.4000      0.202809
      10.5000      0.192041
      10.6000      0.181583
      10.7000      0.171447
      10.8000      0.161658
      10.9000      0.152244
      11.0000      0.143175
      11.1000      0.134459
      11.2000      0.126096
      11.3000      0.118088
      11.4000      0.110429
      11.5000      0.103118
      11.6000     0.0961519
      11.7000     0.0895390
      11.8000     0.0832584
      11.9000     0.0772884
      12.0000     0.0715532
      12.1000     0.0663652
      12.2000     0.0625915
      12.3000     0.0583530
      12.4000     0.0539284
      12.5000     0.0497386
      12.6000     0.0457989
      12.7000     0.0421081
      12.8000     0.0386576
      12.9000     0.0354367
      13.0000     0.0324368
      13.1000     0.0296479
      13.2000     0.0270634
      13.3000     0.0246849
      13.4000     0.0224939
      13.5000     0.0204707
      13.6000     0.0186167
      13.7000     0.0169080
      13.8000     0.0153349
      13.9000     0.0138888
      14.0000     0.0125611
      14.1000     0.0113415
      14.2000     0.0102219
      14.3000    0.00919616
      14.4000    0.00825900
      14.5000    0.00740905
      14.6000    0.00664265
      14.7000    0.00594514
      14.8000    0.00531120
      14.9000    0.00473582
      15.0000    0.00421439
      15.1000    0.00374271
      15.2000    0.00332533
      15.3000    0.00295007
      15.4000    0.00261160
      15.5000    0.00230678
      15.6000    0.00203283
      15.7000    0.00179050
      15.8000    0.00157717
      15.9000    0.00138581
      16.0000    0.00121445
      16.1000    0.00106134
      16.2000   0.000928847
      16.3000   0.000811831
      16.4000   0.000707364
      16.5000   0.000614322
      16.6000   0.000533462
      16.7000   0.000463560
      16.8000   0.000401338
      16.9000   0.000346123
      17.0000   0.000298635
      17.1000   0.000258039
      17.2000   0.000222174
      17.3000   0.000190608
      17.4000   0.000164164
      17.5000   0.000141084
      17.6000   0.000120776
      17.7000   0.000103506
      17.8000   8.95007e-05
      17.9000   7.70569e-05
      18.0000   6.59979e-05
      18.1000   5.68853e-05
      18.2000   4.87248e-05
      18.3000   4.13817e-05
      18.4000   3.51258e-05
      18.5000   2.96908e-05
      18.6000   2.48380e-05
      18.7000   2.07472e-05
      18.8000   1.73229e-05
      18.9000   1.43226e-05
      19.0000   1.18929e-05
      19.1000   9.86999e-06
      19.2000   8.10073e-06
      19.3000   6.69840e-06
      19.4000   5.53117e-06
      19.5000   4.52219e-06
      19.6000   3.76804e-06
      19.7000   3.11360e-06
      19.8000   2.54756e-06
      19.9000   2.11705e-06
      20.0000   1.73399e-06
      20.1000   1.41987e-06
      20.2000   1.16887e-06
      20.3000   9.47148e-07
      20.4000   7.77665e-07
      20.5000   6.32864e-07
      20.6000   5.10052e-07
      20.7000   4.17613e-07
      20.8000   3.35198e-07
      20.9000   2.71938e-07
      21.0000   2.19282e-07
      21.1000   1.74593e-07
      21.2000   1.41686e-07
      21.3000   1.12213e-07
      21.4000   9.03419e-08
      21.5000   7.18506e-08
      21.6000   5.67778e-08
      21.7000   4.54011e-08
      21.8000   3.52669e-08
      21.9000   2.82744e-08
      22.0000   2.19920e-08
      22.1000   1.73428e-08
      22.2000   1.35389e-08
      22.3000   1.04692e-08
      22.4000   8.09861e-09
      22.5000   5.95752e-09
      22.6000   4.28852e-09
      22.7000   2.91138e-09
      22.8000   2.80970e-09
      22.9000   2.78973e-09
      23.0000   2.84113e-09
      23.1000   2.64830e-09
      23.2000   2.23233e-09
      23.3000   1.82302e-09
      23.4000   1.41804e-09
      23.5000   1.12677e-09
      23.6000   8.63977e-10
      23.7000   6.87536e-10
      23.8000   5.20782e-10
      23.9000   4.14264e-10
      24.0000   3.13322e-10
      24.1000   2.47193e-10
      24.2000   1.86548e-10
      24.3000   1.46114e-10
      24.4000   1.10059e-10
      24.5000   8.56180e-11
      24.6000   6.43242e-11
      24.7000   4.97480e-11
      24.8000   3.72619e-11
      24.9000   2.86730e-11
      25.0000   2.13905e-11
      25.1000   1.63949e-11
      25.2000   1.21699e-11
      25.3000   9.30026e-12
      25.4000   6.86037e-12
      25.5000   5.23396e-12
      25.6000   3.83200e-12
      25.7000   2.92227e-12
      25.8000   2.12035e-12
      25.9000   1.61827e-12
      26.0000   1.16187e-12
      26.1000   8.88504e-13
      26.2000   6.30171e-13
      26.3000   4.83455e-13
      26.4000   3.38216e-13
      26.5000   2.60589e-13
      26.6000   1.83380e-13
      26.7000   1.39057e-13
      26.8000   9.88141e-14
      26.9000   7.34227e-14
      27.0000   5.27493e-14
      27.1000   3.83171e-14
      27.2000   2.78559e-14
      27.3000   1.97680e-14
      27.4000   1.46209e-14
      27.5000   1.01580e-14
      27.6000   7.59360e-15
      27.7000   5.11664e-15
      27.8000   3.87578e-15
      27.9000   2.64161e-15
      28.0000   1.94842e-15
      28.1000   1.36295e-15
      28.2000   9.64820e-16
      28.3000   6.91784e-16
      28.4000   4.70204e-16
      28.5000   3.45074e-16
      28.6000   2.25353e-16
      28.7000   1.69032e-16
      28.8000   1.13023e-16
      28.9000   8.12548e-17
      29.0000   5.64785e-17
      29.1000   3.82917e-17
      29.2000   2.75337e-17
      29.3000   1.76785e-17
      29.4000   1.30960e-17
      29.5000   8.53921e-18
      29.6000   6.07760e-18
      29.7000   4.17429e-18
      29.8000   2.75211e-18
      29.9000   1.97264e-18
      30.0000   1.21582e-18
      30.1000   9.03036e-19
      30.2000   5.92022e-19
      30.3000   4.04204e-19
      30.4000   2.86959e-19
      30.5000   1.84357e-19
      30.6000   1.34250e-19
      30.7000   8.44286e-20
      30.8000   5.84504e-20
      30.9000   3.96953e-20
      31.0000   2.46477e-20
      31.1000   1.78305e-20
      31.2000   1.10525e-20
      31.3000   7.77579e-21
      31.4000   5.25809e-21
      31.5000   3.26224e-21
      31.6000   2.34718e-21
      31.7000   1.43744e-21
      31.8000   9.95715e-22
      31.9000   6.72781e-22
      32.0000   4.05528e-22
      32.1000   2.95569e-22
      32.2000   1.86250e-22
      32.3000   1.25823e-22
      32.4000   8.70330e-23
      32.5000   5.12116e-23
      32.6000   3.77491e-23
      32.7000   2.43643e-23
      32.8000   1.54664e-23
      32.9000   1.09197e-23
      33.0000   6.39975e-24
      33.1000   4.53318e-24
      33.2000   3.03285e-24
      33.3000   1.77537e-24
      33.4000   1.28830e-24
      33.5000   8.04000e-25
      33.6000   5.07724e-25
      33.7000   3.54193e-25
      33.8000   2.01519e-25
      33.9000   1.41270e-25
      34.0000   9.40116e-26
      34.1000   5.24985e-26
      34.2000   3.82281e-26
      34.3000   2.40332e-26
      34.4000   1.42317e-26
      34.5000   1.00525e-26
      34.6000   5.89577e-27
      34.7000   3.76136e-27
      34.8000   2.56821e-27
      34.9000   1.38140e-27
      35.0000   9.68527e-28
      35.1000   6.37178e-28
      35.2000   3.33327e-28
      35.3000   2.43272e-28
      35.4000   1.53697e-28
      35.5000   8.33218e-29
      35.6000   5.96365e-29
      35.7000   3.60778e-29
      35.8000   2.03344e-29
      35.9000   1.42769e-29
      36.0000   8.25179e-30
      36.1000   4.84512e-30
      36.2000   3.34001e-30
      36.3000   1.84299e-30
      36.4000   1.12759e-30
      36.5000   7.64386e-31
      36.6000   4.03159e-31
      36.7000   2.56366e-31
      36.8000   1.71292e-31
      36.9000   8.66837e-32
      37.0000   5.69442e-32
      37.1000   3.76142e-32
      37.2000   1.83887e-32
      37.3000   1.23549e-32
      37.4000   8.09767e-33
      37.5000   3.86387e-33
      37.6000   2.61810e-33
      37.7000   1.70994e-33
      37.8000   8.06798e-34
      37.9000   5.41782e-34
      38.0000   3.54161e-34
      38.1000   1.67571e-34
      38.2000   1.09382e-34
      38.3000   7.18743e-35
      38.4000   3.45724e-35
      38.5000   2.15147e-35
      38.6000   1.42706e-35
      38.7000   7.06632e-36
      38.8000   4.12041e-36
      38.9000   2.76892e-36
      39.0000   1.42485e-36
      39.1000   7.67682e-37
      39.2000   5.24151e-37
      39.3000   2.81959e-37
      39.4000   1.38765e-37
      39.5000   9.61692e-38
      39.6000   5.38119e-38
      39.7000   2.36094e-38
      39.8000   1.66858e-38
      39.9000   9.80047e-39
      40.0000   3.87435e-39
      40.1000   2.79503e-39
      40.2000   1.72170e-39
      40.3000   6.54465e-40
      40.4000   4.52154e-40
      40.5000   2.91256e-40
      40.6000   1.31253e-40
      40.7000   7.04587e-41
      40.8000   4.72952e-41
      40.9000   2.42565e-41
      41.0000   1.05504e-41
      41.1000   7.35121e-42
      41.2000   4.17307e-42
      41.3000   1.51761e-42
      41.4000   1.09301e-42
      41.5000   6.71222e-43
      41.6000   2.55036e-43
      41.7000   1.52742e-43
      41.8000   9.94922e-44
      41.9000   4.48416e-44
      42.0000   2.24208e-44
      42.1000   1.54143e-44
      42.2000   7.00649e-45
      42.3000   2.80260e-45
      42.4000   2.80260e-45
      42.5000   2.80260e-45
      42.6000  -2.80260e-45
      42.7000       0.00000
      42.8000       0.00000
      42.9000       0.00000
      43.0000       0.00000
      43.1000       0.00000
      43.2000       0.00000
      43.3000       0.00000
      43.4000       0.00000
      43.5000       0.00000
      43.6000       0.00000
      43.7000       0.00000
      43.8000       0.00000
      43.9000       0.00000
      44.0000       0.00000
      44.1000       0.00000
      44.2000       0.00000
      44.3000       0.00000
      44.4000       0.00000
      44.5000       0.00000
      44.6000       0.00000
      44.7000       0.00000
      44.8000       0.00000
      44.9000       0.00000
      45.0000       0.00000
      45.1000       0.00000
      45.2000       0.00000
      45.3000       0.00000
      45.4000       0.00000
      45.5000       0.00000
      45.6000       0.00000
      45.7000       0.00000
      45.8000       0.00000
      45.9000       0.00000
      46.0000       0.00000
      46.1000       0.00000
      46.2000       0.00000
      46.3000       0.00000
      46.4000       0.00000
      46.5000       0.00000
      46.6000       0.00000
      46.7000       0.00000
      46.8000       0.00000
      46.9000       0.00000
      47.0000       0.00000
      47.1000       0.00000
      47.2000       0.00000
      47.3000       0.00000
      47.4000       0.00000
      47.5000       0.00000
      47.6000       0.00000
      47.7000       0.00000
      47.8000       0.00000
      47.9000       0.00000
      48.0000       0.00000
      48.1000       0.00000
      48.2000       0.00000
      48.3000       0.00000
      48.4000       0.00000
      48.5000       0.00000
      48.6000       0.00000
      48.7000       0.00000
      48.8000       0.00000
      48.9000       0.00000
      49.0000       0.00000
      49.1000       0.00000
      49.2000       0.00000
      49.3000       0.00000
      49.4000       0.00000
      49.5000       0.00000
      49.6000       0.00000
      49.7000       0.00000
      49.8000       0.00000
      49.9000       0.00000
      50.0000       0.00000
      50.1000       0.00000
      50.2000       0.00000
      50.3000       0.00000
      50.4000       0.00000
      50.5000       0.00000
      50.6000       0.00000
      50.7000       0.00000
      50.8000       0.00000
      50.9000       0.00000
      51.0000       0.00000
      51.1000       0.00000
      51.2000       0.00000
      51.3000       0.00000
      51.4000       0.00000
      51.5000       0.00000
      51.6000       0.00000
      51.7000       0.00000
      51.8000       0.00000
      51.9000       0.00000
      52.0000       0.00000
      52.1000       0.00000
      52.2000       0.00000
      52.3000       0.00000
      52.4000       0.00000
      52.5000       0.00000
      52.6000       0.00000
      52.7000       0.00000
      52.8000       0.00000
      52.9000       0.00000
      53.0000       0.00000
      53.1000       0.00000
      53.2000       0.00000
      53.3000       0.00000
      53.4000       0.00000
      53.5000       0.00000
      53.6000       0.00000
      53.7000       0.00000
      53.8000       0.00000
      53.9000       0.00000
      54.0000       0.00000
      54.1000       0.00000
      54.2000       0.00000
      54.3000       0.00000
      54.4000       0.00000
      54.5000       0.00000
      54.6000       0.00000
      54.7000       0.00000
      54.8000       0.00000
      54.9000       0.00000
      55.0000       0.00000
      55.1000       0.00000
      55.2000       0.00000
      55.3000       0.00000
      55.4000       0.00000
      55.5000       0.00000
      55.6000       0.00000
      55.7000       0.00000
      55.8000       0.00000
      55.9000       0.00000
      56.0000       0.00000
      56.1000       0.00000
      56.2000       0.00000
      56.3000       0.00000
      56.4000       0.00000
      56.5000       0.00000
      56.6000       0.00000
      56.7000       0.00000
      56.8000       0.00000
      56.9000       0.00000
      57.0000       0.00000
      57.1000       0.00000
      57.2000       0.00000
      57.3000       0.00000
      57.4000       0.00000
      57.5000       0.00000
      57.6000       0.00000
      57.7000       0.00000
      57.8000       0.00000
      57.9000       0.00000
      58.0000       0.00000
      58.1000       0.00000
      58.2000       0.00000
      58.3000       0.00000
      58.4000       0.00000
      58.5000       0.00000
      58.6000       0.00000
      58.7000       0.00000
      58.8000       0.00000
      58.9000       0.00000
      59.0000       0.00000
      59.1000       0.00000
      59.2000       0.00000
      59.3000       0.00000
      59.4000       0.00000
      59.5000       0.00000
      59.6000       0.00000
      59.7000       0.00000
      59.8000       0.00000
      59.9000       0.00000
      60.0000       0.00000
      60.1000       0.00000
      60.2000       0.00000
      60.3000       0.00000
      60.4000       0.00000
      60.5000       0.00000
      60.6000       0.00000
      60.7000       0.00000
      60.8000       0.00000
      60.9000       0.00000
      61.0000       0.00000
      61.1000       0.00000
      61.2000       0.00000
      61.3000       0.00000
      61.4000       0.00000
      61.5000       0.00000
      61.6000       0.00000
      61.7000       0.00000
      61.8000       0.00000
      61.9000       0.00000
      62.0000       0.00000
      62.1000       0.00000
      62.2000       0.00000
      62.3000       0.00000
      62.4000       0.00000
      62.5000       0.00000
      62.6000       0.00000
      62.7000       0.00000
      62.8000       0.00000
      62.9000       0.00000
      63.0000       0.00000
      63.1000       0.00000
      63.2000       0.00000
      63.3000       0.00000
      63.4000       0.00000
      63.5000       0.00000
      63.6000       0.00000
      63.7000       0.00000
      63.8000       0.00000
      63.9000       0.00000
      64.0000       0.00000
      64.1000       0.00000
      64.2000       0.00000
      64.3000       0.00000
      64.4000       0.00000
      64.5000       0.00000
      64.6000       0.00000
      64.7000       0.00000
      64.8000       0.00000
      64.9000       0.00000
      65.0000       0.00000
      65.1000       0.00000
      65.2000       0.00000
      65.3000       0.00000
      65.4000       0.00000
      65.5000       0.00000
      65.6000       0.00000
      65.7000       0.00000
      65.8000       0.00000
      65.9000       0.00000
      66.0000       0.00000
      66.1000       0.00000
      66.2000       0.00000
      66.3000       0.00000
      66.4000       0.00000
      66.5000       0.00000
      66.6000       0.00000
      66.7000       0.00000
      66.8000       0.00000
      66.9000       0.00000
      67.0000       0.00000
      67.1000       0.00000
      67.2000       0.00000
      67.3000       0.00000
      67.4000       0.00000
      67.5000       0.00000
      67.6000       0.00000
      67.7000       0.00000
      67.8000       0.00000
      67.9000       0.00000
      68.0000       0.00000
      68.1000       0.00000
      68.2000       0.00000
      68.3000       0.00000
      68.4000       0.00000
      68.5000       0.00000
      68.6000       0.00000
      68.7000       0.00000
      68.8000       0.00000
      68.9000       0.00000
      69.0000       0.00000
      69.1000       0.00000
      69.2000       0.00000
      69.3000       0.00000
      69.4000       0.00000
      69.5000       0.00000
      69.6000       0.00000
      69.7000       0.00000
      69.8000       0.00000
      69.9000       0.00000
      70.0000       0.00000
      70.1000       0.00000
      70.2000       0.00000
      70.3000       0.00000
      70.4000       0.00000
      70.5000       0.00000
      70.6000       0.00000
      70.7000       0.00000
      70.8000       0.00000
      70.9000       0.00000
      71.0000       0.00000
      71.1000       0.00000
      71.2000       0.00000
      71.3000       0.00000
      71.4000       0.00000
      71.5000       0.00000
      71.6000       0.00000
      71.7000       0.00000
      71.8000       0.00000
      71.9000       0.00000
      72.0000       0.00000
      72.1000       0.00000
      72.2000       0.00000
      72.3000       0.00000
      72.4000       0.00000
      72.5000       0.00000
      72.6000       0.00000
      72.7000       0.00000
      72.8000       0.00000
      72.9000       0.00000
      73.0000       0.00000
      73.1000       0.00000
      73.2000       0.00000
      73.3000       0.00000
      73.4000       0.00000
      73.5000       0.00000
      73.6000       0.00000
      73.7000       0.00000
      73.8000       0.00000
      73.9000       0.00000
      74.0000       0.00000
      74.1000       0.00000
      74.2000       0.00000
      74.3000       0.00000
      74.4000       0.00000
      74.5000       0.00000
      74.6000       0.00000
      74.7000       0.00000
      74.8000       0.00000
      74.9000       0.00000
      75.0000       0.00000
      75.1000       0.00000
      75.2000       0.00000
      75.3000       0.00000
      75.4000       0.00000
      75.5000       0.00000
      75.6000       0.00000
      75.7000       0.00000
      75.8000       0.00000
      75.9000       0.00000
      76.0000       0.00000
      76.1000       0.00000
      76.2000       0.00000
      76.3000       0.00000
      76.4000       0.00000
      76.5000       0.00000
      76.6000       0.00000
      76.7000       0.00000
      76.8000       0.00000
      76.9000       0.00000
      77.0000       0.00000
      77.1000       0.00000
      77.2000       0.00000
      77.3000       0.00000
      77.4000       0.00000
      77.5000       0.00000
      77.6000       0.00000
      77.7000       0.00000
      77.8000       0.00000
      77.9000       0.00000
      78.0000       0.00000
      78.1000       0.00000
      78.2000       0.00000
      78.3000       0.00000
      78.4000       0.00000
      78.5000       0.00000
      78.6000       0.00000
      78.7000       0.00000
      78.8000       0.00000
      78.9000       0.00000
      79.0000       0.00000
      79.1000       0.00000
      79.2000       0.00000
      79.3000       0.00000
      79.4000       0.00000
      79.5000       0.00000
      79.6000       0.00000
      79.7000       0.00000
      79.8000       0.00000
      79.9000       0.00000
      80.0000       0.00000
      80.1000       0.00000
      80.2000       0.00000
      80.3000       0.00000
      80.4000       0.00000
      80.5000       0.00000
      80.6000       0.00000
      80.7000       0.00000
      80.8000       0.00000
      80.9000       0.00000
      81.0000       0.00000
      81.1000       0.00000
      81.2000       0.00000
      81.3000       0.00000
      81.4000       0.00000
      81.5000       0.00000
      81.6000       0.00000
      81.7000       0.00000
      81.8000       0.00000
      81.9000       0.00000
      82.0000       0.00000
      82.1000       0.00000
      82.2000       0.00000
      82.3000       0.00000
      82.4000       0.00000
      82.5000       0.00000
      82.6000       0.00000
      82.7000       0.00000
      82.8000       0.00000
      82.9000       0.00000
      83.0000       0.00000
      83.1000       0.00000
      83.2000       0.00000
      83.3000       0.00000
      83.4000       0.00000
      83.5000       0.00000
      83.6000       0.00000
      83.7000       0.00000
      83.8000       0.00000
      83.9000       0.00000
      84.0000       0.00000
      84.1000       0.00000
      84.2000       0.00000
      84.3000       0.00000
      84.4000       0.00000
      84.5000       0.00000
      84.6000       0.00000
      84.7000       0.00000
      84.8000       0.00000
      84.9000       0.00000
      85.0000       0.00000
      85.1000       0.00000
      85.2000       0.00000
      85.3000       0.00000
      85.4000       0.00000
      85.5000       0.00000
      85.6000       0.00000
      85.7000       0.00000
      85.8000       0.00000
      85.9000       0.00000
      86.0000       0.00000
      86.1000       0.00000
      86.2000       0.00000
      86.3000       0.00000
      86.4000       0.00000
      86.5000       0.00000
      86.6000       0.00000
      86.7000       0.00000
      86.8000       0.00000
      86.9000       0.00000
      87.0000       0.00000
      87.1000       0.00000
      87.2000       0.00000
      87.3000       0.00000
      87.4000       0.00000
      87.5000       0.00000
      87.6000       0.00000
      87.7000       0.00000
      87.8000       0.00000
      87.9000       0.00000
      88.0000       0.00000
      88.1000       0.00000
      88.2000       0.00000
      88.3000       0.00000
      88.4000       0.00000
      88.5000       0.00000
      88.6000       0.00000
      88.7000       0.00000
      88.8000       0.00000
      88.9000       0.00000
      89.0000       0.00000
      89.1000       0.00000
      89.2000       0.00000
      89.3000       0.00000
      89.4000       0.00000
      89.5000       0.00000
      89.6000       0.00000
      89.7000       0.00000
      89.8000       0.00000
      89.9000       0.00000
      90.0000       0.00000
      90.1000       0.00000
      90.2000       0.00000
      90.3000       0.00000
      90.4000       0.00000
      90.5000       0.00000
      90.6000       0.00000
      90.7000       0.00000
      90.8000       0.00000
      90.9000       0.00000
      91.0000       0.00000
      91.1000       0.00000
      91.2000       0.00000
      91.3000       0.00000
      91.4000       0.00000
      91.5000       0.00000
      91.6000       0.00000
      91.7000       0.00000
      91.8000       0.00000
      91.9000       0.00000
      92.0000       0.00000
      92.1000       0.00000
      92.2000       0.00000
      92.3000       0.00000
      92.4000       0.00000
      92.5000       0.00000
      92.6000       0.00000
      92.7000       0.00000
      92.8000       0.00000
      92.9000       0.00000
      93.0000       0.00000
      93.1000       0.00000
      93.2000       0.00000
      93.3000       0.00000
      93.4000       0.00000
      93.5000       0.00000
      93.6000       0.00000
      93.7000       0.00000
      93.8000       0.00000
      93.9000       0.00000
      94.0000       0.00000
      94.1000       0.00000
      94.2000       0.00000
      94.3000       0.00000
      94.4000       0.00000
      94.5000       0.00000
      94.6000       0.00000
      94.7000       0.00000
      94.8000       0.00000
      94.9000       0.00000
      95.0000       0.00000
      95.1000       0.00000
      95.2000       0.00000
      95.3000       0.00000
      95.4000       0.00000
      95.5000       0.00000
      95.6000       0.00000
      95.7000       0.00000
      95.8000       0.00000
      95.9000       0.00000
      96.0000       0.00000
      96.1000       0.00000
      96.2000       0.00000
      96.3000       0.00000
      96.4000       0.00000
      96.5000       0.00000
      96.6000       0.00000
      96.7000       0.00000
      96.8000       0.00000
      96.9000       0.00000
      97.0000       0.00000
      97.1000       0.00000
      97.2000       0.00000
      97.3000       0.00000
      97.4000       0.00000
      97.5000       0.00000
      97.6000       0.00000
      97.7000       0.00000
      97.8000       0.00000
      97.9000       0.00000
      98.0000       0.00000
      98.1000       0.00000
      98.2000       0.00000
      98.3000       0.00000
      98.4000       0.00000
      98.5000       0.00000
      98.6000       0.00000
      98.7000       0.00000
      98.8000       0.00000
      98.9000       0.00000
      99.0000       0.00000
      99.1000       0.00000
      99.2000       0.00000
      99.3000       0.00000
      99.4000       0.00000
      99.5000       0.00000
      99.6000       0.00000
      99.7000       0.00000
      99.8000       0.00000
      99.9000       0.00000
      100.000       0.00000
      100.100       0.00000
      100.200       0.00000
      100.300       0.00000
      100.400       0.00000
      100.500       0.00000
      100.600       0.00000
      100.700       0.00000
      100.800       0.00000
      100.900       0.00000
      101.000       0.00000
      101.100       0.00000
      101.200       0.00000
      101.300       0.00000
      101.400       0.00000
      101.500       0.00000
      101.600       0.00000
      101.700       0.00000
      101.800       0.00000
      101.900       0.00000
      102.000       0.00000
      102.100       0.00000
      102.200       0.00000
      102.300       0.00000
      102.400       0.00000
      102.500       0.00000
      102.600       0.00000
      102.700       0.00000
      102.800       0.00000
      102.900       0.00000
      103.000       0.00000
      103.100       0.00000
      103.200       0.00000
      103.300       0.00000
      103.400       0.00000
      103.500       0.00000
      103.600       0.00000
      103.700       0.00000
      103.800       0.00000
      103.900       0.00000
      104.000       0.00000
      104.100       0.00000
      104.200       0.00000
      104.300       0.00000
      104.400       0.00000
      104.500       0.00000
      104.600       0.00000
      104.700       0.00000
      104.800       0.00000
      104.900       0.00000
      105.000       0.00000
      105.100       0.00000
      105.200       0.00000
      105.300       0.00000
      105.400       0.00000
      105.500       0.00000
      105.600       0.00000
      105.700       0.00000
      105.800       0.00000
      105.900       0.00000
      106.000       0.00000
      106.100       0.00000
      106.200       0.00000
      106.300       0.00000
      106.400       0.00000
      106.500       0.00000
      106.600       0.00000
      106.700       0.00000
      106.800       0.00000
      106.900       0.00000
      107.000       0.00000
      107.100       0.00000
      107.200       0.00000
      107.300       0.00000
      107.400       0.00000
      107.500       0.00000
      107.600       0.00000
      107.700       0.00000
      107.800       0.00000
      107.900       0.00000
      108.000       0.00000
      108.100       0.00000
      108.200       0.00000
      108.300       0.00000
      108.400       0.00000
      108.500       0.00000
      108.600       0.00000
      108.700       0.00000
      108.800       0.00000
      108.900       0.00000
      109.000       0.00000
      109.100       0.00000
      109.200       0.00000
      109.300       0.00000
      109.400       0.00000
      109.500       0.00000
      109.600       0.00000
      109.700       0.00000
      109.800       0.00000
      109.900       0.00000
      110.000       0.00000
      110.100       0.00000
      110.200       0.00000
      110.300       0.00000
      110.400       0.00000
      110.500       0.00000
      110.600       0.00000
      110.700       0.00000
      110.800       0.00000
      110.900   4.60721e-35
      111.000   2.47227e-28
      111.100   2.91884e-24
      111.200   4.05271e-23
      111.300   2.04337e-22
      111.400   6.75282e-22
      111.500   8.95123e-22
      111.600   1.21337e-21
      111.700   2.23929e-21
      111.800   4.06161e-21
      111.900   5.31234e-21
      112.000   8.53965e-21
      112.100   1.52986e-20
      112.200   2.33133e-20
      112.300   2.99465e-20
      112.400   3.74529e-20
      112.500   4.97857e-20
      112.600   7.07405e-20
      112.700   9.61898e-20
      112.800   1.11111e-19
      112.900   1.44052e-19
      113.000   1.84302e-19
      113.100   2.20770e-19
      113.200   2.53727e-19
      113.300   2.58272e-19
      113.400   3.23086e-19
      113.500   3.99833e-19
      113.600   4.12439e-19
      113.700   4.96723e-19
      113.800   5.65432e-19
      113.900   6.29549e-19
      114.000   6.70740e-19
      114.100   7.00024e-19
      114.200   9.01130e-19
      114.300   1.03638e-18
      114.400   1.00619e-18
      114.500   9.22076e-19
      114.600   9.19857e-19
      114.700   9.35558e-19
      114.800   9.76267e-19
      114.900   1.07875e-18
      115.000   1.18477e-18
      115.100   1.25509e-18
      115.200   1.27433e-18
      115.300   1.29503e-18
      115.400   1.31488e-18
      115.500   1.33558e-18
      115.600   1.35605e-18
      115.700   1.37600e-18
      115.800   1.39727e-18
      115.900   1.41826e-18
      116.000   1.43595e-18
      116.100   1.44340e-18
      116.200   1.44934e-18
      116.300   1.45493e-18
      116.400   1.45460e-18
      116.500   1.42320e-18
      116.600   1.39216e-18
      116.700   1.36203e-18
      116.800   1.33226e-18
      116.900   1.30192e-18
      117.000   1.27360e-18
      117.100   1.24964e-18
      117.200   1.22874e-18
      117.300   1.20567e-18
      117.400   1.18287e-18
      117.500   1.15500e-18
      117.600   1.11533e-18
      117.700   1.07348e-18
      117.800   1.03251e-18
      117.900   9.92752e-19
      118.000   9.53911e-19
      118.100   9.16049e-19
      118.200   8.80121e-19
      118.300   8.45762e-19
      118.400   8.10801e-19
      118.500   7.77420e-19
      118.600   7.46202e-19
      118.700   7.15945e-19
      118.800   6.86528e-19
      118.900   6.58546e-19
      119.000   6.30848e-19
      119.100   6.03376e-19
      119.200   5.82715e-19
      119.300   5.71685e-19
      119.400   5.63369e-19
      119.500   5.52746e-19
      119.600   5.38145e-19
      119.700   5.22261e-19
      119.800   5.05756e-19
      119.900   4.88356e-19
      120.000   4.71943e-19
      120.100   4.56386e-19
      120.200   4.42917e-19
      120.300   4.30736e-19
      120.400   4.18873e-19
      120.500   4.06114e-19
      120.600   3.92826e-19
      120.700   3.79664e-19
      120.800   3.67094e-19
      120.900   3.56365e-19
      121.000   3.48146e-19
      121.100   3.40264e-19
      121.200   3.33122e-19
      121.300   3.25450e-19
      121.400   3.17389e-19
      121.500   3.09006e-19
      121.600   2.95859e-19
      121.700   2.82973e-19
      121.800   2.70090e-19
      121.900   2.57681e-19
      122.000   2.45464e-19
      122.100   2.34012e-19
      122.200   2.23087e-19
      122.300   2.13689e-19
      122.400   2.05780e-19
      122.500   1.98388e-19
      122.600   1.91122e-19
      122.700   1.84109e-19
      122.800   1.77126e-19
      122.900   1.70524e-19
      123.000   1.65242e-19
      123.100   1.62003e-19
      123.200   1.59754e-19
      123.300   1.60984e-19
      123.400   1.62923e-19
      123.500   1.65866e-19
      123.600   1.67932e-19
      123.700   1.66655e-19
      123.800   1.62603e-19
      123.900   1.59097e-19
      124.000   1.56370e-19
      124.100   1.56124e-19
      124.200   1.61660e-19
      124.300   1.71727e-19
      124.400   1.80806e-19
      124.500   1.80473e-19
      124.600   1.75583e-19
      124.700   1.68750e-19
      124.800   1.62226e-19
      124.900   1.55948e-19
      125.000   1.49902e-19
      125.100   1.44040e-19
      125.200   1.38398e-19
      125.300   1.32972e-19
      125.400   1.27758e-19
      125.500   1.22749e-19
      125.600   1.16569e-19
      125.700   1.10389e-19
      125.800   1.05279e-19
      125.900   1.03369e-19
      126.000   1.01706e-19
      126.100   1.00070e-19
      126.200   9.84609e-20
      126.300   9.68777e-20
      126.400   9.53194e-20
      126.500   9.37858e-20
      126.600   9.22779e-20
      126.700   9.07944e-20
      126.800   8.93353e-20
      126.900   8.78989e-20
      127.000   8.64835e-20
      127.100   8.46190e-20
      127.200   8.22504e-20
      127.300   7.97676e-20
      127.400   7.73589e-20
      127.500   7.50220e-20
      127.600   7.27554e-20
      127.700   7.05567e-20
      127.800   6.84239e-20
      127.900   6.63545e-20
      128.000   6.43474e-20
      128.100   6.23998e-20
      128.200   6.05107e-20
      128.300   5.86781e-20
      128.400   5.69010e-20
      128.500   5.51768e-20
      128.600   5.35048e-20
      128.700   5.18834e-20
      128.800   5.03101e-20
      128.900   4.87852e-20
      129.000   4.73073e-20
      129.100   4.58730e-20
      129.200   4.44789e-20
      129.300   4.31265e-20
      129.400   4.18152e-20
      129.500   4.05435e-20
      129.600   3.93103e-20
      129.700   3.81143e-20
      129.800   3.69543e-20
      129.900   3.58298e-20
      130.000   3.47393e-20
      130.100   3.36819e-20
      130.200   3.26563e-20
      130.300   3.16621e-20
      130.400   3.06981e-20
      130.500   2.97625e-20
      130.600   2.88523e-20
      130.700   2.79685e-20
      130.800   2.71115e-20
      130.900   2.62816e-20
      131.000   2.54772e-20
      131.100   2.46975e-20
      131.200   2.39414e-20
      131.300   2.32075e-20
      131.400   2.24960e-20
      131.500   2.18062e-20
      131.600   2.11372e-20
      131.700   2.04887e-20
      131.800   1.98597e-20
      131.900   1.92496e-20
      132.000   1.86582e-20
      132.100   1.80846e-20
      132.200   1.75286e-20
      132.300   1.69893e-20
      132.400   1.64665e-20
      132.500   1.59602e-20
      132.600   1.54697e-20
      132.700   1.49657e-20
      132.800   1.44682e-20
      132.900   1.39857e-20
      133.000   1.35190e-20
      133.100   1.30677e-20
      133.200   1.26313e-20
      133.300   1.22091e-20
      133.400   1.18009e-20
      133.500   1.14061e-20
      133.600   1.10244e-20
      133.700   1.06553e-20
      133.800   1.02984e-20
      133.900   9.95431e-21
      134.000   9.62166e-21
      134.100   9.29993e-21
      134.200   8.98894e-21
      134.300   8.68814e-21
      134.400   8.39732e-21
      134.500   8.11620e-21
      134.600   7.84431e-21
      134.700   7.58143e-21
      134.800   7.32732e-21
      134.900   7.08176e-21
      135.000   6.84428e-21
      135.100   6.61527e-21
      135.200   6.39393e-21
      135.300   6.17994e-21
      135.400   5.97298e-21
      135.500   5.77266e-21
      135.600   5.57884e-21
      135.700   5.39142e-21
      135.800   5.21017e-21
      135.900   5.03495e-21
      136.000   4.86547e-21
      136.100   4.70159e-21
      136.200   4.54360e-21
      136.300   4.39089e-21
      136.400   4.24328e-21
      136.500   4.10054e-21
      136.600   3.96247e-21
      136.700   3.82897e-21
      136.800   3.69990e-21
      136.900   3.57513e-21
      137.000   3.45458e-21
      137.100   3.33821e-21
      137.200   3.22587e-21
      137.300   3.11752e-21
      137.400   3.01276e-21
      137.500   2.91142e-21
      137.600   2.81341e-21
      137.700   2.71859e-21
      137.800   2.62689e-21
      137.900   2.53821e-21
      138.000   2.45249e-21
      138.100   2.36961e-21
      138.200   2.28976e-21
      138.300   2.21260e-21
      138.400   2.13803e-21
      138.500   2.06591e-21
      138.600   1.99617e-21
      138.700   1.92876e-21
      138.800   1.86359e-21
      138.900   1.80056e-21
      139.000   1.73964e-21
      139.100   1.68092e-21
      139.200   1.62450e-21
      139.300   1.57024e-21
      139.400   1.51786e-21
      139.500   1.46718e-21
      139.600   1.41815e-21
      139.700   1.37073e-21
      139.800   1.32486e-21
      139.900   1.28050e-21
      140.000   1.23777e-21
      140.100   1.19644e-21
      140.200   1.15646e-21
      140.300   1.11779e-21
      140.400   1.08038e-21
      140.500   1.04419e-21
      140.600   1.00917e-21
      140.700   9.75306e-22
      140.800   9.42679e-22
      140.900   9.11151e-22
      141.000   8.80644e-22
      141.100   8.51135e-22
      141.200   8.22595e-22
      141.300   7.94981e-22
      141.400   7.68356e-22
      141.500   7.43019e-22
      141.600   7.18845e-22
      141.700   6.95469e-22
      141.800   6.72835e-22
      141.900   6.50918e-22
      142.000   6.29696e-22
      142.100   6.09382e-22
      142.200   5.90394e-22
      142.300   5.72565e-22
      142.400   5.55342e-22
      142.500   5.38616e-22
      142.600   5.22376e-22
      142.700   5.06609e-22
      142.800   4.91306e-22
      142.900   4.76453e-22
      143.000   4.62033e-22
      143.100   4.48084e-22
      143.200   4.34568e-22
      143.300   4.21444e-22
      143.400   4.08708e-22
      143.500   3.96344e-22
      143.600   3.84340e-22
      143.700   3.72772e-22
      143.800   3.62677e-22
      143.900   3.53061e-22
      144.000   3.43710e-22
      144.100   3.34598e-22
      144.200   3.25722e-22
      144.300   3.17071e-22
      144.400   3.08674e-22
      144.500   3.00968e-22
      144.600   2.93599e-22
      144.700   2.86419e-22
      144.800   2.79405e-22
      144.900   2.72554e-22
      145.000   2.65862e-22
      145.100   2.59327e-22
      145.200   2.52966e-22
      145.300   2.46761e-22
      145.400   2.40699e-22
      145.500   2.34777e-22
      145.600   2.28991e-22
      145.700   2.23340e-22
      145.800   2.17829e-22
      145.900   2.12467e-22
      146.000   2.07224e-22
      146.100   2.02045e-22
      146.200   1.96948e-22
      146.300   1.91972e-22
      146.400   1.87112e-22
      146.500   1.82392e-22
      146.600   1.77788e-22
      146.700   1.73293e-22
      146.800   1.68894e-22
      146.900   1.64587e-22
      147.000   1.60384e-22
      147.100   1.56293e-22
      147.200   1.52311e-22
      147.300   1.48425e-22
      147.400   1.44634e-22
      147.500   1.40934e-22
      147.600   1.37323e-22
      147.700   1.33808e-22
      147.800   1.30390e-22
      147.900   1.27053e-22
      148.000   1.23797e-22
      148.100   1.20621e-22
      148.200   1.17522e-22
      148.300   1.14505e-22
      148.400   1.12029e-22
      148.500   1.09956e-22
      148.600   1.08041e-22
      148.700   1.06157e-22
      148.800   1.04303e-22
      148.900   1.02485e-22
      149.000   1.00699e-22
      149.100   9.89421e-23
      149.200   9.72136e-23
      149.300   9.55130e-23
      149.400   9.38401e-23
      149.500   9.21993e-23
      149.600   9.05862e-23
      149.700   8.89995e-23
      149.800   8.74385e-23
      149.900   8.59037e-23
      150.000   8.43940e-23
      150.100   8.29127e-23
      150.200   8.14553e-23
      150.300   8.00240e-23
      150.400   7.86161e-23
      150.500   7.72320e-23
      150.600   7.58708e-23
      150.700   7.45324e-23
      150.800   7.32174e-23
      150.900   7.19261e-23
      151.000   7.06549e-23
      151.100   6.94061e-23
      151.200   6.81779e-23
      151.300   6.69703e-23
      151.400   6.57829e-23
      151.500   6.46180e-23
      151.600   6.34728e-23
      151.700   6.23484e-23
      151.800   6.12427e-23
      151.900   6.01553e-23
      152.000   5.91473e-23
      152.100   5.87774e-23
      152.200   5.84890e-23
      152.300   5.81999e-23
      152.400   5.79113e-23
      152.500   5.76245e-23
      152.600   5.73385e-23
      152.700   5.64455e-23
      152.800   5.53495e-23
      152.900   5.42731e-23
      153.000   5.32168e-23
      153.100   5.21807e-23
      153.200   5.11635e-23
      153.300   5.03440e-23
      153.400   4.97084e-23
      153.500   4.90993e-23
      153.600   4.84983e-23
      153.700   4.79049e-23
      153.800   4.73178e-23
      153.900   4.67374e-23
      154.000   4.61699e-23
      154.100   4.56208e-23
      154.200   4.50815e-23
      154.300   4.45482e-23
      154.400   4.40219e-23
      154.500   4.35009e-23
      154.600   4.29858e-23
      154.700   4.24771e-23
      154.800   4.19741e-23
      154.900   4.14765e-23
      155.000   4.09842e-23
      155.100   4.04979e-23
      155.200   4.00166e-23
      155.300   3.95410e-23
      155.400   3.90709e-23
      155.500   3.86062e-23
      155.600   3.81459e-23
      155.700   3.76909e-23
      155.800   3.72413e-23
      155.900   3.67961e-23
      156.000   3.63564e-23
      156.100   3.59214e-23
      156.200   3.54915e-23
      156.300   3.50663e-23
      156.400   3.46456e-23
      156.500   3.42280e-23
      156.600   3.38077e-23
      156.700   3.33918e-23
      156.800   3.29805e-23
      156.900   3.25740e-23
      157.000   3.21730e-23
      157.100   3.17477e-23
      157.200   3.11325e-23
      157.300   3.03210e-23
      157.400   2.95304e-23
      157.500   2.87595e-23
      157.600   2.80084e-23
      157.700   2.72761e-23
      157.800   2.65627e-23
      157.900   2.62571e-23
      158.000   2.59898e-23
      158.100   2.57253e-23
      158.200   2.54630e-23
      158.300   2.52032e-23
      158.400   2.49461e-23
      158.500   2.46913e-23
      158.600   2.44387e-23
      158.700   2.41882e-23
      158.800   2.39407e-23
      158.900   2.36954e-23
      159.000   2.34524e-23
      159.100   2.32012e-23
      159.200   2.28267e-23
      159.300   2.22533e-23
      159.400   2.16941e-23
      159.500   2.11487e-23
      159.600   2.06165e-23
      159.700   2.00978e-23
      159.800   1.95915e-23
      159.900   1.93218e-23
      160.000   1.92091e-23
      160.100   1.91019e-23
      160.200   1.89950e-23
      160.300   1.88888e-23
      160.400   1.87832e-23
      160.500   1.86529e-23
      160.600   1.83807e-23
      160.700   1.80077e-23
      160.800   1.76421e-23
      160.900   1.72835e-23
      161.000   1.69321e-23
      161.100   1.65877e-23
      161.200   1.62504e-23
      161.300   1.59198e-23
      161.400   1.55958e-23
      161.500   1.52783e-23
      161.600   1.49670e-23
      161.700   1.46617e-23
      161.800   1.43624e-23
      161.900   1.40743e-23
      162.000   1.38361e-23
      162.100   1.36283e-23
      162.200   1.34236e-23
      162.300   1.32218e-23
      162.400   1.30229e-23
      162.500   1.28267e-23
      162.600   1.26336e-23
      162.700   1.24432e-23
      162.800   1.22555e-23
      162.900   1.20706e-23
      163.000   1.18883e-23
      163.100   1.17088e-23
      163.200   1.15316e-23
      163.300   1.13571e-23
      163.400   1.11850e-23
      163.500   1.10156e-23
      163.600   1.08485e-23
      163.700   1.06838e-23
      163.800   1.05216e-23
      163.900   1.03618e-23
      164.000   1.02042e-23
      164.100   1.00168e-23
      164.200   9.74672e-24
      164.300   9.48423e-24
      164.400   9.22874e-24
      164.500   8.98005e-24
      164.600   8.73801e-24
      164.700   8.50227e-24
      164.800   8.29922e-24
      164.900   8.15857e-24
      165.000   8.04344e-24
      165.100   7.92983e-24
      165.200   7.81777e-24
      165.300   7.70725e-24
      165.400   7.59833e-24
      165.500   7.49086e-24
      165.600   7.31629e-24
      165.700   7.11636e-24
      165.800   6.91963e-24
      165.900   6.72829e-24
      166.000   6.54247e-24
      166.100   6.36167e-24
      166.200   6.18582e-24
      166.300   6.01482e-24
      166.400   5.84848e-24
      166.500   5.68661e-24
      166.600   5.52917e-24
      166.700   5.37607e-24
      166.800   5.22708e-24
      166.900   5.08219e-24
      167.000   4.94136e-24
      167.100   4.80427e-24
      167.200   4.67093e-24
      167.300   4.54124e-24
      167.400   4.41513e-24
      167.500   4.29243e-24
      167.600   4.17311e-24
      167.700   4.05707e-24
      167.800   3.94421e-24
      167.900   3.83444e-24
      168.000   3.72767e-24
      168.100   3.62381e-24
      168.200   3.52281e-24
      168.300   3.42458e-24
      168.400   3.32907e-24
      168.500   3.23699e-24
      168.600   3.16626e-24
      168.700   3.10694e-24
      168.800   3.04872e-24
      168.900   2.99156e-24
      169.000   2.93548e-24
      169.100   2.88036e-24
      169.200   2.82631e-24
      169.300   2.77323e-24
      169.400   2.72112e-24
      169.500   2.66981e-24
      169.600   2.61881e-24
      169.700   2.56809e-24
      169.800   2.51812e-24
      169.900   2.46906e-24
      170.000   2.42092e-24
      170.100   2.35190e-24
      170.200   2.25333e-24
      170.300   2.84275e-24
      170.400   5.91732e-24
      170.500   1.09148e-23
      170.600   1.56246e-23
      170.700   1.90699e-23
      170.800   2.02746e-23
      170.900   1.98964e-23
      171.000   1.92598e-23
      171.100   1.86640e-23
      171.200   1.80856e-23
      171.300   1.75239e-23
      171.400   1.69786e-23
      171.500   1.64493e-23
      171.600   1.59354e-23
      171.700   1.54370e-23
      171.800   1.49535e-23
      171.900   1.44846e-23
      172.000   1.40303e-23
      172.100   1.35899e-23
      172.200   1.31634e-23
      172.300   1.27498e-23
      172.400   1.23466e-23
      172.500   1.19559e-23
      172.600   1.15776e-23
      172.700   1.12115e-23
      172.800   1.08571e-23
      172.900   1.05138e-23
      173.000   1.01818e-23
      173.100   9.86049e-24
      173.200   9.54933e-24
      173.300   9.24822e-24
      173.400   8.95660e-24
      173.500   8.67444e-24
      173.600   8.40139e-24
      173.700   8.13694e-24
      173.800   7.88107e-24
      173.900   7.63341e-24
      174.000   7.39353e-24
      174.100   7.16135e-24
      174.200   6.93657e-24
      174.300   6.71883e-24
      174.400   6.50804e-24
      174.500   6.30382e-24
      174.600   6.10601e-24
      174.700   5.91450e-24
      174.800   5.72902e-24
      174.900   5.54929e-24
      175.000   5.37512e-24
      175.100   5.20639e-24
      175.200   5.04317e-24
      175.300   4.88496e-24
      175.400   4.73167e-24
      175.500   4.58326e-24
      175.600   4.43940e-24
      175.700   4.30007e-24
      175.800   4.16503e-24
      175.900   4.03422e-24
      176.000   3.90748e-24
      176.100   3.78475e-24
      176.200   3.66585e-24
      176.300   3.55063e-24
      176.400   3.43905e-24
      176.500   3.33065e-24
      176.600   3.17618e-24
      176.700   3.00576e-24
      176.800   2.84440e-24
      176.900   2.69165e-24
      177.000   2.54700e-24
      177.100   2.41004e-24
      177.200   2.28042e-24
      177.300   2.15770e-24
      177.400   2.04148e-24
      177.500   1.93143e-24
      177.600   1.82728e-24
      177.700   1.72871e-24
      177.800   1.63539e-24
      177.900   1.54702e-24
      178.000   1.46349e-24
      178.100   1.38443e-24
      178.200   1.30957e-24
      178.300   1.23871e-24
      178.400   1.17167e-24
      178.500   1.10822e-24
      178.600   1.04940e-24
      178.700   1.00039e-24
      178.800   9.64067e-25
      178.900   9.29046e-25
      179.000   8.95278e-25
      179.100   8.62715e-25
      179.200   8.31337e-25
      179.300   8.01090e-25
      179.400   7.71926e-25
      179.500   7.43836e-25
      179.600   7.16780e-25
      179.700   6.90703e-25
      179.800   6.65568e-25
      179.900   6.41345e-25
      180.000   6.17993e-25
      180.100   5.95495e-25
      180.200   5.73823e-25
      180.300   5.52934e-25
      180.400   5.32806e-25
      180.500   5.13416e-25
      180.600   4.94727e-25
      180.700   4.76721e-25
      180.800   4.59374e-25
      180.900   4.42656e-25
      181.000   4.26544e-25
      181.100   4.11022e-25
      181.200   3.96068e-25
      181.300   3.81658e-25
      181.400   3.67777e-25
      181.500   3.54399e-25
      181.600   3.41509e-25
      181.700   3.29088e-25
      181.800   3.17119e-25
      181.900   3.05586e-25
      182.000   2.94479e-25
      182.100   2.83770e-25
      182.200   2.73553e-25
      182.300   2.64508e-25
      182.400   2.55818e-25
      182.500   2.47412e-25
      182.600   2.39282e-25
      182.700   2.31418e-25
      182.800   2.23812e-25
      182.900   2.16455e-25
      183.000   2.09340e-25
      183.100   2.02460e-25
      183.200   1.95803e-25
      183.300   1.89363e-25
      183.400   1.83134e-25
      183.500   1.77110e-25
      183.600   1.71283e-25
      183.700   1.65645e-25
      183.800   1.60196e-25
      183.900   1.54926e-25
      184.000   1.49827e-25
      184.100   1.44900e-25
      184.200   1.40138e-25
      184.300   1.35532e-25
      184.400   1.31078e-25
      184.500   1.26770e-25
      184.600   1.22601e-25
      184.700   1.18570e-25
      184.800   1.14671e-25
      184.900   1.10899e-25
      185.000   1.07250e-25
      185.100   1.03763e-25
      185.200   1.00600e-25
      185.300   9.78075e-26
      185.400   9.50915e-26
      185.500   9.24497e-26
      185.600   8.98809e-26
      185.700   8.73831e-26
      185.800   8.49580e-26
      185.900   8.26003e-26
      186.000   8.03081e-26
      186.100   7.80785e-26
      186.200   7.59098e-26
      186.300   7.37999e-26
      186.400   7.17492e-26
      186.500   6.97549e-26
      186.600   6.78145e-26
      186.700   6.59265e-26
      186.800   6.40903e-26
      186.900   6.23050e-26
      187.000   6.05686e-26
      187.100   5.88783e-26
      187.200   5.72359e-26
      187.300   5.56409e-26
      187.400   5.40894e-26
      187.500   5.25807e-26
      187.600   5.11132e-26
      187.700   4.96861e-26
      187.800   4.82982e-26
      187.900   4.69483e-26
      188.000   4.56359e-26
      188.100   4.42895e-26
      188.200   4.27400e-26
      188.300   4.09428e-26
      188.400   3.92204e-26
      188.500   3.75697e-26
      188.600   3.59899e-26
      188.700   3.44784e-26
      188.800   3.30302e-26
      188.900   3.16422e-26
      189.000   3.03116e-26
      189.100   2.90361e-26
      189.200   2.78136e-26
      189.300   2.66422e-26
      189.400   2.55197e-26
      189.500   2.44498e-26
      189.600   2.35079e-26
      189.700   2.29241e-26
      189.800   2.23571e-26
      189.900   2.18048e-26
      190.000   2.12666e-26
      190.100   2.07418e-26
      190.200   2.02300e-26
      190.300   1.97308e-26
      190.400   1.92438e-26
      190.500   1.87690e-26
      190.600   1.83060e-26
      190.700   1.78544e-26
      190.800   1.74140e-26
      190.900   1.69845e-26
      191.000   1.65663e-26
      191.100   1.61588e-26
      191.200   1.57611e-26
      191.300   1.53734e-26
      191.400   1.49953e-26
      191.500   1.46264e-26
      191.600   1.42666e-26
      191.700   1.39157e-26
      191.800   1.35732e-26
      191.900   1.32392e-26
      192.000   1.29136e-26
      192.100   1.25963e-26
      192.200   1.22873e-26
      192.300   1.19858e-26
      192.400   1.16916e-26
      192.500   1.13832e-26
      192.600   1.10148e-26
      192.700   1.06038e-26
      192.800   1.02080e-26
      192.900   9.82671e-27
      193.000   9.45953e-27
      193.100   9.10653e-27
      193.200   8.76728e-27
      193.300   8.44062e-27
      193.400   8.12609e-27
      193.500   7.82310e-27
      193.600   7.53121e-27
      193.700   7.25006e-27
      193.800   6.97938e-27
      193.900   6.71876e-27
      194.000   6.47278e-27
      194.100   6.33563e-27
      194.200   6.23503e-27
      194.300   6.13845e-27
      194.400   6.04340e-27
      194.500   5.94992e-27
      194.600   5.85788e-27
      194.700   5.76728e-27
      194.800   5.67812e-27
      194.900   5.59031e-27
      195.000   5.50391e-27
      195.100   5.41905e-27
      195.200   5.33545e-27
      195.300   5.25313e-27
      195.400   5.17206e-27
      195.500   5.09061e-27
      195.600   4.96841e-27
      195.700   4.77895e-27
      195.800   4.59659e-27
      195.900   4.42111e-27
      196.000   4.25206e-27
      196.100   4.08934e-27
      196.200   3.93276e-27
      196.300   3.78202e-27
      196.400   3.63693e-27
      196.500   3.49723e-27
      196.600   3.36283e-27
      196.700   3.23345e-27
      196.800   3.10916e-27
      196.900   2.98992e-27
      197.000   2.87517e-27
      197.100   2.76469e-27
      197.200   2.65837e-27
      197.300   2.55600e-27
      197.400   2.45745e-27
      197.500   2.36262e-27
      197.600   2.27134e-27
      197.700   2.18395e-27
      197.800   2.09990e-27
      197.900   2.01896e-27
      198.000   1.94106e-27
      198.100   1.86610e-27
      198.200   1.79396e-27
      198.300   1.72450e-27
      198.400   1.65770e-27
      198.500   1.59368e-27
      198.600   1.53217e-27
      198.700   1.47897e-27
      198.800   1.43598e-27
      198.900   1.39832e-27
      199.000   1.36161e-27
      199.100   1.32584e-27
      199.200   1.29099e-27
      199.300   1.25716e-27
      199.400   1.22422e-27
      199.500   1.19213e-27
      199.600   1.16084e-27
      199.700   1.13037e-27
      199.800   1.10069e-27
      199.900   1.07177e-27
      200.000   1.04358e-27
      200.100   1.01625e-27
      200.200   9.89606e-28
      200.300   9.63672e-28
      200.400   9.38399e-28
      200.500   9.13776e-28
      200.600   8.89812e-28
      200.700   8.66466e-28
      200.800   8.43716e-28
      200.900   8.21578e-28
      201.000   8.00024e-28
      201.100   7.79064e-28
      201.200   7.58648e-28
      201.300   7.38760e-28
      201.400   7.19398e-28
      201.500   7.00540e-28
      201.600   6.82165e-28
      201.700   6.64277e-28
      201.800   6.46853e-28
      201.900   6.29390e-28
      202.000   6.04271e-28
      202.100   5.76386e-28
      202.200   5.49784e-28
      202.300   5.24441e-28
      202.400   5.00330e-28
      202.500   4.77340e-28
      202.600   4.55386e-28
      202.700   4.34440e-28
      202.800   4.14469e-28
      202.900   3.95447e-28
      203.000   3.77292e-28
      203.100   3.59974e-28
      203.200   3.43431e-28
      203.300   3.27637e-28
      203.400   3.12563e-28
      203.500   2.98179e-28
      203.600   2.84966e-28
      203.700   2.73755e-28
      203.800   2.63180e-28
      203.900   2.53025e-28
      204.000   2.43259e-28
      204.100   2.33867e-28
      204.200   2.24838e-28
      204.300   2.16154e-28
      204.400   2.07805e-28
      204.500   1.99776e-28
      204.600   1.92056e-28
      204.700   1.84632e-28
      204.800   1.77504e-28
      204.900   1.70660e-28
      205.000   1.64079e-28
      205.100   1.57752e-28
      205.200   1.51666e-28
      205.300   1.45815e-28
      205.400   1.40190e-28
      205.500   1.34779e-28
      205.600   1.29565e-28
      205.700   1.24488e-28
      205.800   1.19594e-28
      205.900   1.14896e-28
      206.000   1.10390e-28
      206.100   1.06057e-28
      206.200   1.01892e-28
      206.300   9.78916e-29
      206.400   9.40480e-29
      206.500   9.03521e-29
      206.600   8.68009e-29
      206.700   8.33887e-29
      206.800   8.01082e-29
      206.900   7.69556e-29
      207.000   7.39266e-29
      207.100   7.10210e-29
      207.200   6.82310e-29
      207.300   6.55482e-29
      207.400   6.29696e-29
      207.500   6.04914e-29
      207.600   5.81104e-29
      207.700   5.58210e-29
      207.800   5.36208e-29
      207.900   5.15065e-29
      208.000   4.94745e-29
      208.100   4.75221e-29
      208.200   4.56454e-29
      208.300   4.38426e-29
      208.400   4.21133e-29
      208.500   4.04519e-29
      208.600   3.88545e-29
      208.700   3.73191e-29
      208.800   3.58438e-29
      208.900   3.43732e-29
      209.000   3.27390e-29
      209.100   3.10317e-29
      209.200   2.94123e-29
      209.300   2.78758e-29
      209.400   2.64194e-29
      209.500   2.50377e-29
      209.600   2.37271e-29
      209.700   2.24860e-29
      209.800   2.13118e-29
      209.900   2.01972e-29
      210.000   1.91408e-29
      210.100   1.81389e-29
      210.200   1.71887e-29
      210.300   1.62879e-29
      210.400   1.54337e-29
      210.500   1.46237e-29
      210.600   1.38559e-29
      210.700   1.31279e-29
      210.800   1.24378e-29
      210.900   1.17835e-29
      211.000   1.11632e-29
      211.100   1.05753e-29
      211.200   1.00181e-29
      211.300   9.49123e-30
      211.400   8.99213e-30
      211.500   8.51877e-30
      211.600   8.07016e-30
      211.700   7.64501e-30
      211.800   7.24180e-30
      211.900   6.85967e-30
      212.000   6.49777e-30
      212.100   6.15464e-30
      212.200   5.82938e-30
      212.300   5.50747e-30
      212.400   5.16433e-30
      212.500   4.82732e-30
      212.600   4.51211e-30
      212.700   4.21726e-30
      212.800   3.94146e-30
      212.900   3.68361e-30
      213.000   3.44261e-30
      213.100   3.21770e-30
      213.200   3.00731e-30
      213.300   2.81058e-30
      213.400   2.62656e-30
      213.500   2.45447e-30
      213.600   2.29354e-30
      213.700   2.14310e-30
      213.800   2.00239e-30
      213.900   1.87091e-30
      214.000   1.74795e-30
      214.100   1.63501e-30
      214.200   1.55287e-30
      214.300   1.49038e-30
      214.400   1.43039e-30
      214.500   1.37280e-30
      214.600   1.31753e-30
      214.700   1.26448e-30
      214.800   1.21357e-30
      214.900   1.16470e-30
      215.000   1.11779e-30
      215.100   1.07277e-30
      215.200   1.02962e-30
      215.300   9.88216e-31
      215.400   9.48468e-31
      215.500   9.10311e-31
      215.600   8.73717e-31
      215.700   8.38569e-31
      215.800   8.04828e-31
      215.900   7.72465e-31
      216.000   7.38326e-31
      216.100   6.98418e-31
      216.200   6.58002e-31
      216.300   6.19918e-31
      216.400   5.84029e-31
      216.500   5.50193e-31
      216.600   5.18319e-31
      216.700   4.88288e-31
      216.800   4.59983e-31
      216.900   4.33318e-31
      217.000   4.08192e-31
      217.100   3.84507e-31
      217.200   3.62198e-31
      217.300   3.41178e-31
      217.400   3.21369e-31
      217.500   3.02714e-31
      217.600   2.85126e-31
      217.700   2.68553e-31
      217.800   2.52946e-31
      217.900   2.38184e-31
      218.000   2.22788e-31
      218.100   2.08380e-31
      218.200   1.94898e-31
      218.300   1.82292e-31
      218.400   1.70507e-31
      218.500   1.59474e-31
      218.600   1.49155e-31
      218.700   1.39497e-31
      218.800   1.30459e-31
      218.900   1.22008e-31
      219.000   1.14096e-31
      219.100   1.06693e-31
      219.200   9.97687e-32
      219.300   9.32917e-32
      219.400   8.72306e-32
      219.500   8.15611e-32
      219.600   7.62576e-32
      219.700   7.12959e-32
      219.800   6.66567e-32
      219.900   6.23161e-32
      220.000   5.82549e-32
      220.100   5.44567e-32
      220.200   5.09046e-32
      220.300   4.75832e-32
      220.400   4.44759e-32
      220.500   4.15711e-32
      220.600   3.88549e-32
      220.700   3.63136e-32
      220.800   3.39371e-32
      220.900   3.17164e-32
      221.000   2.96391e-32
      221.100   2.76964e-32
      221.200   2.58810e-32
      221.300   2.41835e-32
      221.400   2.25961e-32
      221.500   2.11127e-32
      221.600   1.97257e-32
      221.700   1.84290e-32
      221.800   1.73029e-32
      221.900   1.64664e-32
      222.000   1.57320e-32
      222.100   1.50299e-32
      222.200   1.43591e-32
      222.300   1.37179e-32
      222.400   1.31053e-32
      222.500   1.25198e-32
      222.600   1.19604e-32
      222.700   1.14258e-32
      222.800   1.09149e-32
      222.900   1.04268e-32
      223.000   9.96039e-33
      223.100   9.51461e-33
      223.200   9.08878e-33
      223.300   8.68180e-33
      223.400   8.29303e-33
      223.500   7.92143e-33
      223.600   7.56653e-33
      223.700   7.22738e-33
      223.800   6.89651e-33
      223.900   6.53488e-33
      224.000   6.18545e-33
      224.100   5.85465e-33
      224.200   5.54141e-33
      224.300   5.24487e-33
      224.400   4.96396e-33
      224.500   4.69815e-33
      224.600   4.44637e-33
      224.700   4.20814e-33
      224.800   3.98249e-33
      224.900   3.76882e-33
      225.000   3.56659e-33
      225.100   3.37511e-33
      225.200   3.19381e-33
      225.300   3.02231e-33
      225.400   2.85983e-33
      225.500   2.70605e-33
      225.600   2.56048e-33
      225.700   2.42275e-33
      225.800   2.29230e-33
      225.900   2.20203e-33
      226.000   2.12881e-33
      226.100   2.05939e-33
      226.200   1.99221e-33
      226.300   1.92738e-33
      226.400   1.86473e-33
      226.500   1.80405e-33
      226.600   1.74528e-33
      226.700   1.68842e-33
      226.800   1.63338e-33
      226.900   1.58013e-33
      227.000   1.52859e-33
      227.100   1.47871e-33
      227.200   1.43049e-33
      227.300   1.38383e-33
      227.400   1.33867e-33
      227.500   1.29500e-33
      227.600   1.25274e-33
      227.700   1.21186e-33
      227.800   1.17232e-33
      227.900   1.13027e-33
      228.000   1.08009e-33
      228.100   1.02673e-33
      228.200   9.75978e-34
      228.300   9.27734e-34
      228.400   8.81877e-34
      228.500   8.38261e-34
      228.600   7.96810e-34
      228.700   7.57401e-34
      228.800   7.19921e-34
      228.900   6.84309e-34
      229.000   6.50448e-34
      229.100   6.18257e-34
      229.200   5.87652e-34
      229.300   5.58561e-34
      229.400   5.30908e-34
      229.500   5.04619e-34
      229.600   4.79627e-34
      229.700   4.55870e-34
      229.800   4.33289e-34
      229.900   4.11825e-34
      230.000   3.91174e-34
      230.100   3.69678e-34
      230.200   3.48252e-34
      230.300   3.28076e-34
      230.400   3.09055e-34
      230.500   2.91146e-34
      230.600   2.74287e-34
      230.700   2.58396e-34
      230.800   2.43426e-34
      230.900   2.29322e-34
      231.000   2.16027e-34
      231.100   2.03499e-34
      231.200   1.91698e-34
      231.300   1.80581e-34
      231.400   1.70107e-34
      231.500   1.60234e-34
      231.600   1.50929e-34
      231.700   1.42166e-34
      231.800   1.33910e-34
      231.900   1.26130e-34
      232.000   1.18799e-34
      232.100   1.11893e-34
      232.200   1.06328e-34
      232.300   1.02365e-34
      232.400   9.88969e-35
      232.500   9.55467e-35
      232.600   9.23105e-35
      232.700   8.91841e-35
      232.800   8.61639e-35
      232.900   8.32440e-35
      233.000   8.04198e-35
      233.100   7.76920e-35
      233.200   7.50574e-35
      233.300   7.25122e-35
      233.400   7.00537e-35
      233.500   6.76796e-35
      233.600   6.53875e-35
      233.700   6.31729e-35
      233.800   6.10094e-35
      233.900   5.89162e-35
      234.000   5.68946e-35
      234.100   5.49421e-35
      234.200   5.30575e-35
      234.300   5.12368e-35
      234.400   4.94784e-35
      234.500   4.77804e-35
      234.600   4.61403e-35
      234.700   4.45569e-35
      234.800   4.30280e-35
      234.900   4.15511e-35
      235.000   4.01245e-35
      235.100   3.87469e-35
      235.200   3.74167e-35
      235.300   3.61321e-35
      235.400   3.48910e-35
      235.500   3.36930e-35
      235.600   3.25362e-35
      235.700   3.14187e-35
      235.800   3.03411e-35
      235.900   2.93003e-35
      236.000   2.82956e-35
      236.100   2.73248e-35
      236.200   2.63872e-35
      236.300   2.54816e-35
      236.400   2.46074e-35
      236.500   2.37628e-35
      236.600   2.29906e-35
      236.700   2.23383e-35
      236.800   2.17641e-35
      236.900   2.12044e-35
      237.000   2.06591e-35
      237.100   2.01278e-35
      237.200   1.96100e-35
      237.300   1.91055e-35
      237.400   1.86139e-35
      237.500   1.81351e-35
      237.600   1.76680e-35
      237.700   1.72137e-35
      237.800   1.67711e-35
      237.900   1.63395e-35
      238.000   1.59191e-35
      238.100   1.55094e-35
      238.200   1.51102e-35
      238.300   1.47211e-35
      238.400   1.43419e-35
      238.500   1.39723e-35
      238.600   1.36122e-35
      238.700   1.32614e-35
      238.800   1.29194e-35
      238.900   1.26127e-35
      239.000   1.24060e-35
      239.100   1.22133e-35
      239.200   1.20236e-35
      239.300   1.18368e-35
      239.400   1.16528e-35
      239.500   1.14717e-35
      239.600   1.12932e-35
      239.700   1.11174e-35
      239.800   1.09444e-35
      239.900   1.07740e-35
      240.000   1.06060e-35
      240.100   1.04406e-35
      240.200   1.02778e-35
      240.300   1.01173e-35
      240.400   9.95936e-36
      240.500   9.80373e-36
      240.600   9.65057e-36
      240.700   9.49952e-36
      240.800   9.35077e-36
      240.900   9.20447e-36
      241.000   9.06031e-36
      241.100   8.91837e-36
      241.200   8.77863e-36
      241.300   8.64091e-36
      241.400   8.50534e-36
      241.500   8.37186e-36
      241.600   8.24043e-36
      241.700   8.11098e-36
      241.800   7.98343e-36
      241.900   7.85788e-36
      242.000   7.73428e-36
      242.100   7.61260e-36
      242.200   7.49283e-36
      242.300   7.37505e-36
      242.400   7.25901e-36
      242.500   7.14479e-36
      242.600   7.03228e-36
      242.700   6.92153e-36
      242.800   6.81256e-36
      242.900   6.70527e-36
      243.000   6.59960e-36
      243.100   6.49558e-36
      243.200   6.39320e-36
      243.300   6.29239e-36
      243.400   6.19320e-36
      243.500   6.09561e-36
      243.600   5.99961e-36
      243.700   5.90509e-36
      243.800   5.81208e-36
      243.900   5.72051e-36
      244.000   5.63037e-36
      244.100   5.54169e-36
      244.200   5.45442e-36
      244.300   5.36848e-36
      244.400   5.28389e-36
      244.500   5.20070e-36
      244.600   5.11877e-36
      244.700   5.03817e-36
      244.800   4.95898e-36
      244.900   4.88098e-36
      245.000   4.80421e-36
      245.100   4.72867e-36
      245.200   4.65435e-36
      245.300   4.58120e-36
      245.400   4.50918e-36
      245.500   4.43833e-36
      245.600   4.36861e-36
      245.700   4.29999e-36
      245.800   4.23247e-36
      245.900   4.16606e-36
      246.000   4.10077e-36
      246.100   4.03651e-36
      246.200   3.97323e-36
      246.300   3.91099e-36
      246.400   3.84978e-36
      246.500   3.78950e-36
      246.600   3.73016e-36
      246.700   3.67179e-36
      246.800   3.61435e-36
      246.900   3.55783e-36
      247.000   3.50224e-36
      247.100   3.44751e-36
      247.200   3.39373e-36
      247.300   3.34078e-36
      247.400   3.28868e-36
      247.500   3.23740e-36
      247.600   3.18690e-36
      247.700   3.13723e-36
      247.800   3.08837e-36
      247.900   3.04025e-36
      248.000   2.99292e-36
      248.100   2.94643e-36
      248.200   2.90068e-36
      248.300   2.85560e-36
      248.400   2.81123e-36
      248.500   2.74956e-36
      248.600   2.65971e-36
      248.700   2.55406e-36
      248.800   2.45255e-36
      248.900   2.35507e-36
      249.000   2.26141e-36
      249.100   2.17178e-36
      249.200   2.08575e-36
      249.300   2.00309e-36
      249.400   1.92365e-36
      249.500   1.84734e-36
      249.600   1.77402e-36
      249.700   1.70358e-36
      249.800   1.63590e-36
      249.900   1.57088e-36
      250.000   1.50843e-36
      250.100   1.44861e-36
      250.200   1.39119e-36
      250.300   1.33609e-36
      250.400   1.28313e-36
      250.500   1.23226e-36
      250.600   1.18341e-36
      250.700   1.13647e-36
      250.800   1.09139e-36
      250.900   1.04808e-36
      251.000   1.00648e-36
      251.100   9.66520e-37
      251.200   9.28185e-37
      251.300   8.91426e-37
      251.400   8.56123e-37
      251.500   8.22201e-37
      251.600   7.75000e-37
      251.700   7.03122e-37
      251.800   6.34120e-37
      251.900   5.71797e-37
      252.000   5.15510e-37
      252.100   4.64715e-37
      252.200   4.18842e-37
      252.300   3.77535e-37
      252.400   3.40419e-37
      252.500   3.06922e-37
      252.600   2.78298e-37
      252.700   2.61844e-37
      252.800   2.56098e-37
      252.900   2.50481e-37
      253.000   2.44987e-37
      253.100   2.39612e-37
      253.200   2.34358e-37
      253.300   2.29268e-37
      253.400   2.24311e-37
      253.500   2.19469e-37
      253.600   2.14734e-37
      253.700   2.09999e-37
      253.800   2.04882e-37
      253.900   1.99796e-37
      254.000   1.94835e-37
      254.100   1.89996e-37
      254.200   1.85276e-37
      254.300   1.80674e-37
      254.400   1.76186e-37
      254.500   1.71810e-37
      254.600   1.67539e-37
      254.700   1.63378e-37
      254.800   1.59323e-37
      254.900   1.55369e-37
      255.000   1.51513e-37
      255.100   1.47748e-37
      255.200   1.44079e-37
      255.300   1.40500e-37
      255.400   1.37009e-37
      255.500   1.33604e-37
      255.600   1.30284e-37
      255.700   1.27045e-37
      255.800   1.23885e-37
      255.900   1.20804e-37
      256.000   1.17797e-37
      256.100   1.14868e-37
      256.200   1.12011e-37
      256.300   1.09225e-37
      256.400   1.06511e-37
      256.500   1.03861e-37
      256.600   1.01275e-37
      256.700   9.87541e-38
      256.800   9.62955e-38
      256.900   9.33162e-38
      257.000   8.95108e-38
      257.100   8.55790e-38
      257.200   8.18198e-38
      257.300   7.82235e-38
      257.400   7.47940e-38
      257.500   7.15171e-38
      257.600   6.83891e-38
      257.700   6.53984e-38
      257.800   6.25361e-38
      257.900   5.97989e-38
      258.000   5.71806e-38
      258.100   5.46753e-38
      258.200   5.22793e-38
      258.300   4.99880e-38
      258.400   4.77947e-38
      258.500   4.56971e-38
      258.600   4.36912e-38
      258.700   4.17723e-38
      258.800   3.99368e-38
      258.900   3.81820e-38
      259.000   3.65029e-38
      259.100   3.48974e-38
      259.200   3.33630e-38
      259.300   3.18979e-38
      259.400   3.04959e-38
      259.500   2.91551e-38
      259.600   2.78729e-38
      259.700   2.66469e-38
      259.800   2.54741e-38
      259.900   2.43521e-38
      260.000   2.32795e-38
      260.100   2.21766e-38
      260.200   2.10308e-38
      260.300   1.99270e-38
      260.400   1.88809e-38
      260.500   1.78895e-38
      260.600   1.69492e-38
      260.700   1.60580e-38
      260.800   1.52139e-38
      260.900   1.44133e-38
      261.000   1.36554e-38
      261.100   1.29377e-38
      261.200   1.22536e-38
      261.300   1.16051e-38
      261.400   1.09907e-38
      261.500   1.04089e-38
      261.600   9.85841e-39
      261.700   9.33708e-39
      261.800   8.84316e-39
      261.900   8.37499e-39
      262.000   7.93152e-39
      262.100   7.51134e-39
      262.200   7.11350e-39
      262.300   6.73643e-39
      262.400   6.37927e-39
      262.500   6.04084e-39
      262.600   5.72022e-39
      262.700   5.41663e-39
      262.800   5.12904e-39
      262.900   4.85649e-39
      263.000   4.59857e-39
      263.100   4.35418e-39
      263.200   4.12310e-39
      263.300   3.90423e-39
      263.400   3.69689e-39
      263.500   3.50057e-39
      263.600   3.31460e-39
      263.700   3.13845e-39
      263.800   2.97158e-39
      263.900   2.81366e-39
      264.000   2.66402e-39
      264.100   2.52225e-39
      264.200   2.38798e-39
      264.300   2.26091e-39
      264.400   2.14056e-39
      264.500   2.02654e-39
      264.600   1.91856e-39
      264.700   1.81634e-39
      264.800   1.71950e-39
      264.900   1.62784e-39
      265.000   1.54105e-39
      265.100   1.45883e-39
      265.200   1.38099e-39
      265.300   1.30728e-39
      265.400   1.23652e-39
      265.500   1.16918e-39
      265.600   1.10552e-39
      265.700   1.04526e-39
      265.800   9.88351e-40
      265.900   9.34548e-40
      266.000   8.83694e-40
      266.100   8.35594e-40
      266.200   7.90111e-40
      266.300   7.47074e-40
      266.400   7.06396e-40
      266.500   6.67904e-40
      266.600   6.31506e-40
      266.700   5.97083e-40
      266.800   5.64552e-40
      266.900   5.33769e-40
      267.000   5.04657e-40
      267.100   4.77123e-40
      267.200   4.51113e-40
      267.300   4.26502e-40
      267.400   4.03219e-40
      267.500   3.81213e-40
      267.600   3.60404e-40
      267.700   3.40727e-40
      267.800   3.22116e-40
      267.900   3.04522e-40
      268.000   2.87888e-40
      268.100   2.72156e-40
      268.200   2.57294e-40
      268.300   2.43236e-40
      268.400   2.29938e-40
      268.500   2.17362e-40
      268.600   2.05481e-40
      268.700   1.94244e-40
      268.800   1.83621e-40
      268.900   1.73576e-40
      269.000   1.64086e-40
      269.100   1.55106e-40
      269.200   1.46623e-40
      269.300   1.38597e-40
      269.400   1.31013e-40
      269.500   1.23834e-40
      269.600   1.17057e-40
      269.700   1.09647e-40
      269.800   1.02476e-40
      269.900   9.57591e-41
      270.000   8.94883e-41
      270.100   8.36211e-41
      270.200   7.81462e-41
      270.300   7.30273e-41
      270.400   6.82418e-41
      270.500   6.37647e-41
      270.600   5.95832e-41
      270.700   5.56750e-41
      270.800   5.20204e-41
      270.900   4.86082e-41
      271.000   4.54161e-41
      271.100   4.24355e-41
      271.200   3.96427e-41
      271.300   3.70363e-41
      271.400   3.46051e-41
      271.500   3.23336e-41
      271.600   3.02050e-41
      271.700   2.82151e-41
      271.800   2.63584e-41
      271.900   2.46208e-41
      272.000   2.30009e-41
      272.100   2.14833e-41
      272.200   2.00736e-41
      272.300   1.87508e-41
      272.400   1.75120e-41
      272.500   1.63546e-41
      272.600   1.52756e-41
      272.700   1.42722e-41
      272.800   1.33684e-41
      272.900   1.26495e-41
      273.000   1.20189e-41
      273.100   1.14220e-41
      273.200   1.08559e-41
      273.300   1.03136e-41
      273.400   9.80208e-42
      273.500   9.31303e-42
      273.600   8.85060e-42
      273.700   8.40919e-42
      273.800   7.99020e-42
      273.900   7.53058e-42
      274.000   6.96445e-42
      274.100   6.44037e-42
      274.200   5.95272e-42
      274.300   5.50430e-42
      274.400   5.09232e-42
      274.500   4.70556e-42
      274.600   4.35103e-42
      274.700   4.01892e-42
      274.800   3.71624e-42
      274.900   3.43178e-42
      275.000   3.16974e-42
      275.100   2.93292e-42
      275.200   2.70871e-42
      275.300   2.50132e-42
      275.400   2.31354e-42
      275.500   2.13698e-42
      275.600   1.97163e-42
      275.700   1.82169e-42
      275.800   1.68436e-42
      275.900   1.55544e-42
      276.000   1.44754e-42
      276.100   1.36066e-42
      276.200   1.29340e-42
      276.300   1.22333e-42
      276.400   1.16028e-42
      276.500   1.09582e-42
      276.600   1.04537e-42
      276.700   9.87915e-43
      276.800   9.33265e-43
      276.900   8.85621e-43
      277.000   8.36575e-43
      277.100   7.91734e-43
      277.200   7.53899e-43
      277.300   7.11860e-43
      277.400   6.74025e-43
      277.500   6.38992e-43
      277.600   6.03960e-43
      277.700   5.68927e-43
      277.800   5.39500e-43
      277.900   5.11474e-43
      278.000   4.89053e-43
      278.100   4.63830e-43
      278.200   4.28797e-43
      278.300   3.96567e-43
      278.400   3.67140e-43
      278.500   3.39114e-43
      278.600   3.12490e-43
      278.700   2.94273e-43
      278.800   2.69049e-43
      278.900   2.46629e-43
      279.000   2.32616e-43
      279.100   2.14399e-43
      279.200   1.97583e-43
      279.300   1.84971e-43
      279.400   1.72360e-43
      279.500   1.62551e-43
      279.600   1.49939e-43
      279.700   1.47136e-43
      279.800   1.37327e-43
      279.900   1.27518e-43
      280.000   1.17709e-43
      280.100   1.12104e-43
      280.200   1.05097e-43
      280.300   9.52883e-44
      280.400   8.96831e-44
      280.500   8.68805e-44
      280.600   7.98740e-44
      280.700   7.28675e-44
      280.800   6.72623e-44
      280.900   6.72623e-44
      281.000   6.44597e-44
      281.100   6.02558e-44
      281.200   5.74532e-44
      281.300   5.46506e-44
      281.400   4.76441e-44
      281.500   4.76441e-44
      281.600   4.48416e-44
      281.700   4.20390e-44
      281.800   4.20390e-44
      281.900   3.78351e-44
      282.000   3.78351e-44
      282.100   3.50325e-44
      282.200   3.22299e-44
      282.300   3.22299e-44
      282.400   3.22299e-44
      282.500   2.94273e-44
      282.600   2.94273e-44
      282.700   2.52234e-44
      282.800   2.52234e-44
      282.900   2.24208e-44
      283.000   2.24208e-44
      283.100   2.24208e-44
      283.200   2.24208e-44
      283.300   1.96182e-44
      283.400   1.96182e-44
      283.500   1.96182e-44
      283.600   1.54143e-44
      283.700   1.54143e-44
      283.800   1.54143e-44
      283.900   1.54143e-44
      284.000   1.26117e-44
      284.100   1.26117e-44
      284.200   1.26117e-44
      284.300   1.26117e-44
      284.400   9.80909e-45
      284.500   9.80909e-45
      284.600   9.80909e-45
      284.700   9.80909e-45
      284.800   9.80909e-45
      284.900   9.80909e-45
      285.000   7.00649e-45
      285.100   7.00649e-45
      285.200   7.00649e-45
      285.300   7.00649e-45
      285.400   7.00649e-45
      285.500   7.00649e-45
      285.600   2.80260e-45
      285.700   2.80260e-45
      285.800   2.80260e-45
      285.900   2.80260e-45
      286.000   2.80260e-45
      286.100   2.80260e-45
      286.200   2.80260e-45
      286.300   2.80260e-45
      286.400   2.80260e-45
      286.500   2.80260e-45
      286.600   2.80260e-45
      286.700   2.80260e-45
      286.800   2.80260e-45
      286.900   2.80260e-45
      287.000   2.80260e-45
      287.100   2.80260e-45
      287.200   2.80260e-45
      287.300   2.80260e-45
      287.400   2.80260e-45
      287.500   2.80260e-45
      287.600   2.80260e-45
      287.700   2.80260e-45
      287.800       0.00000
      287.900       0.00000
      288.000       0.00000
      288.100       0.00000
      288.200       0.00000
      288.300       0.00000
      288.400       0.00000
      288.500       0.00000
      288.600       0.00000
      288.700       0.00000
      288.800       0.00000
      288.900       0.00000
      289.000       0.00000
      289.100       0.00000
      289.200       0.00000
      289.300       0.00000
      289.400       0.00000
      289.500       0.00000
      289.600       0.00000
      289.700       0.00000
      289.800       0.00000
      289.900       0.00000
      290.000       0.00000
      290.100       0.00000
      290.200       0.00000
      290.300       0.00000
      290.400       0.00000
      290.500       0.00000
      290.600       0.00000
      290.700       0.00000
      290.800       0.00000
      290.900       0.00000
      291.000       0.00000
      291.100       0.00000
      291.200       0.00000
      291.300       0.00000
      291.400       0.00000
      291.500       0.00000
      291.600       0.00000
      291.700       0.00000
      291.800       0.00000
      291.900       0.00000
      292.000       0.00000
      292.100       0.00000
      292.200       0.00000
      292.300       0.00000
      292.400       0.00000
      292.500       0.00000
      292.600       0.00000
      292.700       0.00000
      292.800       0.00000
      292.900       0.00000
      293.000       0.00000
      293.100       0.00000
      293.200       0.00000
      293.300       0.00000
      293.400       0.00000
      293.500       0.00000
      293.600       0.00000
      293.700       0.00000
      293.800       0.00000
      293.900       0.00000
      294.000       0.00000
      294.100       0.00000
      294.200       0.00000
      294.300       0.00000
      294.400       0.00000
      294.500       0.00000
      294.600       0.00000
      294.700       0.00000
      294.800       0.00000
      294.900       0.00000
      295.000       0.00000
      295.100       0.00000
      295.200       0.00000
      295.300       0.00000
      295.400       0.00000
      295.500       0.00000
      295.600       0.00000
      295.700       0.00000
      295.800       0.00000
      295.900       0.00000
      296.000       0.00000
      296.100       0.00000
      296.200       0.00000
      296.300       0.00000
      296.400       0.00000
      296.500       0.00000
      296.600       0.00000
      296.700       0.00000
      296.800       0.00000
      296.900       0.00000
      297.000       0.00000
      297.100       0.00000
      297.200       0.00000
      297.300       0.00000
      297.400       0.00000
      297.500       0.00000
      297.600       0.00000
      297.700       0.00000
      297.800       0.00000
      297.900       0.00000
      298.000       0.00000
      298.100       0.00000
      298.200       0.00000
      298.300       0.00000
      298.400       0.00000
      298.500       0.00000
      298.600       0.00000
      298.700       0.00000
      298.800       0.00000
      298.900       0.00000
      299.000       0.00000
      299.100       0.00000
      299.200       0.00000
      299.300       0.00000
      299.400       0.00000
      299.500       0.00000
      299.600       0.00000
      299.700       0.00000
      299.800       0.00000
      299.900       0.00000
      300.000       0.00000
      300.100       0.00000
      300.192       0.00000
      300.285       0.00000
      300.377       0.00000
      300.470       0.00000
      300.562       0.00000
      300.654       0.00000
      300.747       0.00000
      300.839       0.00000
      300.932       0.00000
      301.025       0.00000
      301.117       0.00000
      301.210       0.00000
      301.303       0.00000
      301.395       0.00000
      301.488       0.00000
      301.581       0.00000
      301.674       0.00000
      301.766       0.00000
      301.859       0.00000
      301.952       0.00000
      302.045       0.00000
      302.138       0.00000
      302.231       0.00000
      302.324       0.00000
      302.417       0.00000
      302.510       0.00000
      302.603       0.00000
      302.696       0.00000
      302.789       0.00000
      302.882       0.00000
      302.976       0.00000
      303.069       0.00000
      303.162       0.00000
      303.255       0.00000
      303.349       0.00000
      303.442       0.00000
      303.535       0.00000
      303.629       0.00000
      303.722       0.00000
      303.816       0.00000
      303.909       0.00000
      304.003       0.00000
      304.096       0.00000
      304.190       0.00000
      304.283       0.00000
      304.377       0.00000
      304.471       0.00000
      304.564       0.00000
      304.658       0.00000
      304.752       0.00000
      304.846       0.00000
      304.939       0.00000
      305.033       0.00000
      305.127       0.00000
      305.221       0.00000
      305.315       0.00000
      305.409       0.00000
      305.503       0.00000
      305.597       0.00000
      305.691       0.00000
      305.785       0.00000
      305.879       0.00000
      305.973       0.00000
      306.067       0.00000
      306.161       0.00000
      306.255       0.00000
      306.350       0.00000
      306.444       0.00000
      306.538       0.00000
      306.633       0.00000
      306.727       0.00000
      306.821       0.00000
      306.916       0.00000
      307.010       0.00000
      307.105       0.00000
      307.199       0.00000
      307.294       0.00000
      307.388       0.00000
      307.483       0.00000
      307.577       0.00000
      307.672       0.00000
      307.767       0.00000
      307.861       0.00000
      307.956       0.00000
      308.051       0.00000
      308.146       0.00000
      308.240       0.00000
      308.335       0.00000
      308.430       0.00000
      308.525       0.00000
      308.620       0.00000
      308.715       0.00000
      308.810       0.00000
      308.905       0.00000
      309.000       0.00000
      309.095       0.00000
      309.190       0.00000
      309.285       0.00000
      309.380       0.00000
      309.476       0.00000
      309.571       0.00000
      309.666       0.00000
      309.761       0.00000
      309.857       0.00000
      309.952       0.00000
      310.047       0.00000
      310.143       0.00000
      310.238       0.00000
      310.334       0.00000
      310.429       0.00000
      310.525       0.00000
      310.620       0.00000
      310.716       0.00000
      310.811       0.00000
      310.907       0.00000
      311.003       0.00000
      311.098       0.00000
      311.194       0.00000
      311.290       0.00000
      311.386       0.00000
      311.481       0.00000
      311.577       0.00000
      311.673       0.00000
      311.769       0.00000
      311.865       0.00000
      311.961       0.00000
      312.057       0.00000
      312.153       0.00000
      312.249       0.00000
      312.345       0.00000
      312.441       0.00000
      312.537       0.00000
      312.633       0.00000
      312.730       0.00000
      312.826       0.00000
      312.922       0.00000
      313.018       0.00000
      313.115       0.00000
      313.211       0.00000
      313.307       0.00000
      313.404       0.00000
      313.500       0.00000
      313.597       0.00000
      313.693       0.00000
      313.790       0.00000
      313.886       0.00000
      313.983       0.00000
      314.079       0.00000
      314.176       0.00000
      314.273       0.00000
      314.369       0.00000
      314.466       0.00000
      314.563       0.00000
      314.660       0.00000
      314.756       0.00000
      314.853       0.00000
      314.950       0.00000
      315.047       0.00000
      315.144       0.00000
      315.241       0.00000
      315.338       0.00000
      315.435       0.00000
      315.532       0.00000
      315.629       0.00000
      315.726       0.00000
      315.823       0.00000
      315.921       0.00000
      316.018       0.00000
      316.115       0.00000
      316.212       0.00000
      316.310       0.00000
      316.407       0.00000
      316.504       0.00000
      316.602       0.00000
      316.699       0.00000
      316.796       0.00000
      316.894       0.00000
      316.991       0.00000
      317.089       0.00000
      317.187       0.00000
      317.284       0.00000
      317.382       0.00000
      317.479       0.00000
      317.577       0.00000
      317.675       0.00000
      317.773       0.00000
      317.870       0.00000
      317.968       0.00000
      318.066       0.00000
      318.164       0.00000
      318.262       0.00000
      318.360       0.00000
      318.458       0.00000
      318.556       0.00000
      318.654       0.00000
      318.752       0.00000
      318.850       0.00000
      318.948       0.00000
      319.046       0.00000
      319.144       0.00000
      319.242       0.00000
      319.341       0.00000
      319.439       0.00000
      319.537       0.00000
      319.635       0.00000
      319.734       0.00000
      319.832       0.00000
      319.930       0.00000
      320.029       0.00000
      320.127       0.00000
      320.226       0.00000
      320.324       0.00000
      320.423       0.00000
      320.522       0.00000
      320.620       0.00000
      320.719       0.00000
      320.818       0.00000
      320.916       0.00000
      321.015       0.00000
      321.114       0.00000
      321.213       0.00000
      321.311       0.00000
      321.410       0.00000
      321.509       0.00000
      321.608       0.00000
      321.707       0.00000
      321.806       0.00000
      321.905       0.00000
      322.004       0.00000
      322.103       0.00000
      322.202       0.00000
      322.301       0.00000
      322.401       0.00000
      322.500       0.00000
      322.599       0.00000
      322.698       0.00000
      322.798       0.00000
      322.897       0.00000
      322.996       0.00000
      323.096       0.00000
      323.195       0.00000
      323.294       0.00000
      323.394       0.00000
      323.493       0.00000
      323.593       0.00000
      323.692       0.00000
      323.792       0.00000
      323.892       0.00000
      323.991       0.00000
      324.091       0.00000
      324.191       0.00000
      324.291       0.00000
      324.390       0.00000
      324.490       0.00000
      324.590       0.00000
      324.690       0.00000
      324.790       0.00000
      324.890       0.00000
      324.990       0.00000
      325.090       0.00000
      325.190       0.00000
      325.290       0.00000
      325.390       0.00000
      325.490       0.00000
      325.590       0.00000
      325.690       0.00000
      325.790       0.00000
      325.891       0.00000
      325.991       0.00000
      326.091       0.00000
      326.192       0.00000
      326.292       0.00000
      326.392       0.00000
      326.493       0.00000
      326.593       0.00000
      326.694       0.00000
      326.794       0.00000
      326.895       0.00000
      326.995       0.00000
      327.096       0.00000
      327.197       0.00000
      327.297       0.00000
      327.398       0.00000
      327.499       0.00000
      327.599       0.00000
      327.700       0.00000
      327.801       0.00000
      327.902       0.00000
      328.003       0.00000
      328.104       0.00000
      328.205       0.00000
      328.306       0.00000
      328.407       0.00000
      328.508       0.00000
      328.609       0.00000
      328.710       0.00000
      328.811       0.00000
      328.912       0.00000
      329.013       0.00000
      329.115       0.00000
      329.216       0.00000
      329.317       0.00000
      329.419       0.00000
      329.520       0.00000
      329.621       0.00000
      329.723       0.00000
      329.824       0.00000
      329.926       0.00000
      330.027       0.00000
      330.129       0.00000
      330.230       0.00000
      330.332       0.00000
      330.434       0.00000
      330.535       0.00000
      330.637       0.00000
      330.739       0.00000
      330.840       0.00000
      330.942       0.00000
      331.044       0.00000
      331.146       0.00000
      331.248       0.00000
      331.350       0.00000
      331.452       0.00000
      331.554       0.00000
      331.656       0.00000
      331.758       0.00000
      331.860       0.00000
      331.962       0.00000
      332.064       0.00000
      332.166       0.00000
      332.268       0.00000
      332.371       0.00000
      332.473       0.00000
      332.575       0.00000
      332.677       0.00000
      332.780       0.00000
      332.882       0.00000
      332.985       0.00000
      333.087       0.00000
      333.190       0.00000
      333.292       0.00000
      333.395       0.00000
      333.497       0.00000
      333.600       0.00000
      333.702       0.00000
      333.805       0.00000
      333.908       0.00000
      334.011       0.00000
      334.113       0.00000
      334.216       0.00000
      334.319       0.00000
      334.422       0.00000
      334.525       0.00000
      334.628       0.00000
      334.731       0.00000
      334.834       0.00000
      334.937       0.00000
      335.040       0.00000
      335.143       0.00000
      335.246       0.00000
      335.349       0.00000
      335.452       0.00000
      335.555       0.00000
      335.659       0.00000
      335.762       0.00000
      335.865       0.00000
      335.969       0.00000
      336.072       0.00000
      336.175       0.00000
      336.279       0.00000
      336.382       0.00000
      336.486       0.00000
      336.589       0.00000
      336.693       0.00000
      336.796       0.00000
      336.900       0.00000
      337.004       0.00000
      337.107       0.00000
      337.211       0.00000
      337.315       0.00000
      337.419       0.00000
      337.523       0.00000
      337.626       0.00000
      337.730       0.00000
      337.834       0.00000
      337.938       0.00000
      338.042       0.00000
      338.146       0.00000
      338.250       0.00000
      338.354       0.00000
      338.458       0.00000
      338.562       0.00000
      338.667       0.00000
      338.771       0.00000
      338.875       0.00000
      338.979       0.00000
      339.084       0.00000
      339.188       0.00000
      339.292       0.00000
      339.397       0.00000
      339.501       0.00000
      339.606       0.00000
      339.710       0.00000
      339.815       0.00000
      339.919       0.00000
      340.024       0.00000
      340.128       0.00000
      340.233       0.00000
      340.338       0.00000
      340.442       0.00000
      340.547       0.00000
      340.652       0.00000
      340.757       0.00000
      340.862       0.00000
      340.966       0.00000
      341.071       0.00000
      341.176       0.00000
      341.281       0.00000
      341.386       0.00000
      341.491       0.00000
      341.596       0.00000
      341.702       0.00000
      341.807       0.00000
      341.912       0.00000
      342.017       0.00000
      342.122       0.00000
      342.228       0.00000
      342.333       0.00000
      342.438       0.00000
      342.544       0.00000
      342.649       0.00000
      342.754       0.00000
      342.860       0.00000
      342.965       0.00000
      343.071       0.00000
      343.176       0.00000
      343.282       0.00000
      343.388       0.00000
      343.493       0.00000
      343.599       0.00000
      343.705       0.00000
      343.810       0.00000
      343.916       0.00000
      344.022       0.00000
      344.128       0.00000
      344.234       0.00000
      344.340       0.00000
      344.446       0.00000
      344.552       0.00000
      344.658       0.00000
      344.764       0.00000
      344.870       0.00000
      344.976       0.00000
      345.082       0.00000
      345.188       0.00000
      345.294       0.00000
      345.401       0.00000
      345.507       0.00000
      345.613       0.00000
      345.719       0.00000
      345.826       0.00000
      345.932       0.00000
      346.039       0.00000
      346.145       0.00000
      346.252       0.00000
      346.358       0.00000
      346.465       0.00000
      346.571       0.00000
      346.678       0.00000
      346.785       0.00000
      346.891       0.00000
      346.998       0.00000
      347.105       0.00000
      347.212       0.00000
      347.319       0.00000
      347.425       0.00000
      347.532       0.00000
      347.639       0.00000
      347.746       0.00000
      347.853       0.00000
      347.960       0.00000
      348.067       0.00000
      348.174       0.00000
      348.281       0.00000
      348.389       0.00000
      348.496       0.00000
      348.603       0.00000
      348.710       0.00000
      348.818       0.00000
      348.925       0.00000
      349.032       0.00000
      349.140       0.00000
      349.247       0.00000
      349.355       0.00000
      349.462       0.00000
      349.570       0.00000
      349.677       0.00000
      349.785       0.00000
      349.892       0.00000
      350.000       0.00000
      350.100       0.00000
      350.193       0.00000
      350.287       0.00000
      350.380       0.00000
      350.473       0.00000
      350.567       0.00000
      350.660       0.00000
      350.754       0.00000
      350.847       0.00000
      350.941       0.00000
      351.034       0.00000
      351.128       0.00000
      351.221       0.00000
      351.315       0.00000
      351.409       0.00000
      351.502       0.00000
      351.596       0.00000
      351.690       0.00000
      351.783       0.00000
      351.877       0.00000
      351.971       0.00000
      352.065       0.00000
      352.159       0.00000
      352.252       0.00000
      352.346       0.00000
      352.440       0.00000
      352.534       0.00000
      352.628       0.00000
      352.722       0.00000
      352.816       0.00000
      352.910       0.00000
      353.004       0.00000
      353.098       0.00000
      353.192       0.00000
      353.287       0.00000
      353.381       0.00000
      353.475       0.00000
      353.569       0.00000
      353.663       0.00000
      353.758       0.00000
      353.852       0.00000
      353.946       0.00000
      354.041       0.00000
      354.135       0.00000
      354.229       0.00000
      354.324       0.00000
      354.418       0.00000
      354.513       0.00000
      354.607       0.00000
      354.702       0.00000
      354.796       0.00000
      354.891       0.00000
      354.985       0.00000
      355.080       0.00000
      355.175       0.00000
      355.269       0.00000
      355.364       0.00000
      355.459       0.00000
      355.553       0.00000
      355.648       0.00000
      355.743       0.00000
      355.838       0.00000
      355.933       0.00000
      356.027       0.00000
      356.122       0.00000
      356.217       0.00000
      356.312       0.00000
      356.407       0.00000
      356.502       0.00000
      356.597       0.00000
      356.692       0.00000
      356.787       0.00000
      356.882       0.00000
      356.977       0.00000
      357.073       0.00000
      357.168       0.00000
      357.263       0.00000
      357.358       0.00000
      357.453       0.00000
      357.549       0.00000
      357.644       0.00000
      357.739       0.00000
      357.835       0.00000
      357.930       0.00000
      358.025       0.00000
      358.121       0.00000
      358.216       0.00000
      358.312       0.00000
      358.407       0.00000
      358.503       0.00000
      358.598       0.00000
      358.694       0.00000
      358.790       0.00000
      358.885       0.00000
      358.981       0.00000
      359.076       0.00000
      359.172       0.00000
      359.268       0.00000
      359.364       0.00000
      359.459       0.00000
      359.555       0.00000
      359.651       0.00000
      359.747       0.00000
      359.843       0.00000
      359.939       0.00000
      360.035       0.00000
      360.131       0.00000
      360.227       0.00000
      360.323       0.00000
      360.419       0.00000
      360.515       0.00000
      360.611       0.00000
      360.707       0.00000
      360.803       0.00000
      360.899       0.00000
      360.995       0.00000
      361.092       0.00000
      361.188       0.00000
      361.284       0.00000
      361.380       0.00000
      361.477       0.00000
      361.573       0.00000
      361.669       0.00000
      361.766       0.00000
      361.862       0.00000
      361.959       0.00000
      362.055       0.00000
      362.152       0.00000
      362.248       0.00000
      362.345       0.00000
      362.441       0.00000
      362.538       0.00000
      362.635       0.00000
      362.731       0.00000
      362.828       0.00000
      362.925       0.00000
      363.021       0.00000
      363.118       0.00000
      363.215       0.00000
      363.312       0.00000
      363.409       0.00000
      363.505       0.00000
      363.602       0.00000
      363.699       0.00000
      363.796       0.00000
      363.893       0.00000
      363.990       0.00000
      364.087       0.00000
      364.184       0.00000
      364.281       0.00000
      364.378       0.00000
      364.475       0.00000
      364.573       0.00000
      364.670       0.00000
      364.767       0.00000
      364.864       0.00000
      364.961       0.00000
      365.059       0.00000
      365.156       0.00000
      365.253       0.00000
      365.351       0.00000
      365.448       0.00000
      365.545       0.00000
      365.643       0.00000
      365.740       0.00000
      365.838       0.00000
      365.935       0.00000
      366.033       0.00000
      366.130       0.00000
      366.228       0.00000
      366.326       0.00000
      366.423       0.00000
      366.521       0.00000
      366.618       0.00000
      366.716       0.00000
      366.814       0.00000
      366.912       0.00000
      367.010       0.00000
      367.107       0.00000
      367.205       0.00000
      367.303       0.00000
      367.401       0.00000
      367.499       0.00000
      367.597       0.00000
      367.695       0.00000
      367.793       0.00000
      367.891       0.00000
      367.989       0.00000
      368.087       0.00000
      368.185       0.00000
      368.283       0.00000
      368.381       0.00000
      368.480       0.00000
      368.578       0.00000
      368.676       0.00000
      368.774       0.00000
      368.873       0.00000
      368.971       0.00000
      369.069       0.00000
      369.168       0.00000
      369.266       0.00000
      369.364       0.00000
      369.463       0.00000
      369.561       0.00000
      369.660       0.00000
      369.758       0.00000
      369.857       0.00000
      369.955       0.00000
      370.054       0.00000
      370.153       0.00000
      370.251       0.00000
      370.350       0.00000
      370.449       0.00000
      370.547       0.00000
      370.646       0.00000
      370.745       0.00000
      370.844       0.00000
      370.943       0.00000
      371.041       0.00000
      371.140       0.00000
      371.239       0.00000
      371.338       0.00000
      371.437       0.00000
      371.536       0.00000
      371.635       0.00000
      371.734       0.00000
      371.833       0.00000
      371.932       0.00000
      372.032       0.00000
      372.131       0.00000
      372.230       0.00000
      372.329       0.00000
      372.428       0.00000
      372.528       0.00000
      372.627       0.00000
      372.726       0.00000
      372.826       0.00000
      372.925       0.00000
      373.024       0.00000
      373.124       0.00000
      373.223       0.00000
      373.323       0.00000
      373.422       0.00000
      373.522       0.00000
      373.621       0.00000
      373.721       0.00000
      373.820       0.00000
      373.920       0.00000
      374.020       0.00000
      374.119       0.00000
      374.219       0.00000
      374.319       0.00000
      374.419       0.00000
      374.518       0.00000
      374.618       0.00000
      374.718       0.00000
      374.818       0.00000
      374.918       0.00000
      375.018       0.00000
      375.118       0.00000
      375.218       0.00000
      375.318       0.00000
      375.418       0.00000
      375.518       0.00000
      375.618       0.00000
      375.718       0.00000
      375.818       0.00000
      375.918       0.00000
      376.019       0.00000
      376.119       0.00000
      376.219       0.00000
      376.319       0.00000
      376.420       0.00000
      376.520       0.00000
      376.620       0.00000
      376.721       0.00000
      376.821       0.00000
      376.922       0.00000
      377.022       0.00000
      377.122       0.00000
      377.223       0.00000
      377.323       0.00000
      377.424       0.00000
      377.525       0.00000
      377.625       0.00000
      377.726       0.00000
      377.827       0.00000
      377.927       0.00000
      378.028       0.00000
      378.129       0.00000
      378.230       0.00000
      378.330       0.00000
      378.431       0.00000
      378.532       0.00000
      378.633       0.00000
      378.734       0.00000
      378.835       0.00000
      378.936       0.00000
      379.037       0.00000
      379.138       0.00000
      379.239       0.00000
      379.340       0.00000
      379.441       0.00000
      379.542       0.00000
      379.643       0.00000
      379.745       0.00000
      379.846       0.00000
      379.947       0.00000
      380.048       0.00000
      380.150       0.00000
      380.251       0.00000
      380.352       0.00000
      380.454       0.00000
      380.555       0.00000
      380.656       0.00000
      380.758       0.00000
      380.859       0.00000
      380.961       0.00000
      381.062       0.00000
      381.164       0.00000
      381.266       0.00000
      381.367       0.00000
      381.469       0.00000
      381.570       0.00000
      381.672       0.00000
      381.774       0.00000
      381.876       0.00000
      381.977       0.00000
      382.079       0.00000
      382.181       0.00000
      382.283       0.00000
      382.385       0.00000
      382.487       0.00000
      382.589       0.00000
      382.691       0.00000
      382.793       0.00000
      382.895       0.00000
      382.997       0.00000
      383.099       0.00000
      383.201       0.00000
      383.303       0.00000
      383.405       0.00000
      383.507       0.00000
      383.610       0.00000
      383.712       0.00000
      383.814       0.00000
      383.916       0.00000
      384.019       0.00000
      384.121       0.00000
      384.223       0.00000
      384.326       0.00000
      384.428       0.00000
      384.531       0.00000
      384.633       0.00000
      384.736       0.00000
      384.838       0.00000
      384.941       0.00000
      385.043       0.00000
      385.146       0.00000
      385.249       0.00000
      385.351       0.00000
      385.454       0.00000
      385.557       0.00000
      385.660       0.00000
      385.762       0.00000
      385.865       0.00000
      385.968       0.00000
      386.071       0.00000
      386.174       0.00000
      386.277       0.00000
      386.380       0.00000
      386.483       0.00000
      386.586       0.00000
      386.689       0.00000
      386.792       0.00000
      386.895       0.00000
      386.998       0.00000
      387.101       0.00000
      387.204       0.00000
      387.308       0.00000
      387.411       0.00000
      387.514       0.00000
      387.617       0.00000
      387.721       0.00000
      387.824       0.00000
      387.927       0.00000
      388.031       0.00000
      388.134       0.00000
      388.238       0.00000
      388.341       0.00000
      388.445       0.00000
      388.548       0.00000
      388.652       0.00000
      388.755       0.00000
      388.859       0.00000
      388.962       0.00000
      389.066       0.00000
      389.170       0.00000
      389.274       0.00000
      389.377       0.00000
      389.481       0.00000
      389.585       0.00000
      389.689       0.00000
      389.793       0.00000
      389.897       0.00000
      390.000       0.00000
      390.104       0.00000
      390.208       0.00000
      390.312       0.00000
      390.416       0.00000
      390.520       0.00000
      390.625       0.00000
      390.729       0.00000
      390.833       0.00000
      390.937       0.00000
      391.041       0.00000
      391.145       0.00000
      391.250       0.00000
      391.354       0.00000
      391.458       0.00000
      391.563       0.00000
      391.667       0.00000
      391.771       0.00000
      391.876       0.00000
      391.980       0.00000
      392.085       0.00000
      392.189       0.00000
      392.294       0.00000
      392.398       0.00000
      392.503       0.00000
      392.607       0.00000
      392.712       0.00000
      392.817       0.00000
      392.921       0.00000
      393.026       0.00000
      393.131       0.00000
      393.236       0.00000
      393.340       0.00000
      393.445       0.00000
      393.550       0.00000
      393.655       0.00000
      393.760       0.00000
      393.865       0.00000
      393.970       0.00000
      394.075       0.00000
      394.180       0.00000
      394.285       0.00000
      394.390       0.00000
      394.495       0.00000
      394.600       0.00000
      394.706       0.00000
      394.811       0.00000
      394.916       0.00000
      395.021       0.00000
      395.126       0.00000
      395.232       0.00000
      395.337       0.00000
      395.443       0.00000
      395.548       0.00000
      395.653       0.00000
      395.759       0.00000
      395.864       0.00000
      395.970       0.00000
      396.075       0.00000
      396.181       0.00000
      396.286       0.00000
      396.392       0.00000
      396.498       0.00000
      396.603       0.00000
      396.709       0.00000
      396.815       0.00000
      396.921       0.00000
      397.026       0.00000
      397.132       0.00000
      397.238       0.00000
      397.344       0.00000
      397.450       0.00000
      397.556       0.00000
      397.662       0.00000
      397.768       0.00000
      397.874       0.00000
      397.980       0.00000
      398.086       0.00000
      398.192       0.00000
      398.298       0.00000
      398.404       0.00000
      398.510       0.00000
      398.617       0.00000
      398.723       0.00000
      398.829       0.00000
      398.935       0.00000
      399.042       0.00000
      399.148       0.00000
      399.255       0.00000
      399.361       0.00000
      399.467       0.00000
      399.574       0.00000
      399.680       0.00000
      399.787       0.00000
      399.893       0.00000
      400.000       0.00000
