Filter Be-med
observation_date 2015-09-22 22:40:45
wavelength effective area
      1.00000   2.78115e-10
      1.10000   7.93777e-10
      1.20000   2.06298e-09
      1.30000   4.93139e-09
      1.40000   1.11852e-08
      1.50000   2.38508e-08
      1.60000   4.82560e-08
      1.70000   9.36202e-08
      1.80000   1.74161e-07
      1.90000   3.12744e-07
      2.00000   5.43156e-07
      2.10000   9.16384e-07
      2.20000   1.50910e-06
      2.30000   2.42245e-06
      2.40000   3.79714e-06
      2.50000   5.79304e-06
      2.60000   8.82394e-06
      2.70000   1.31283e-05
      2.80000   1.91554e-05
      2.90000   2.76560e-05
      3.00000   3.92981e-05
      3.10000   5.51135e-05
      3.20000   7.64337e-05
      3.30000   0.000104899
      3.40000   0.000142431
      3.50000   0.000191475
      3.60000   0.000256147
      3.70000   0.000338943
      3.80000   0.000446507
      3.90000   0.000584772
      4.00000   0.000760866
      4.10000   0.000985107
      4.20000    0.00127065
      4.30000    0.00163379
      4.40000    0.00209443
      4.50000    0.00267670
      4.60000    0.00340830
      4.70000    0.00433807
      4.80000    0.00551361
      4.90000    0.00691570
      5.00000    0.00889820
      5.10000     0.0112847
      5.20000     0.0143457
      5.30000     0.0180781
      5.40000     0.0227325
      5.50000     0.0286234
      5.60000     0.0349222
      5.70000     0.0448690
      5.80000     0.0519540
      5.90000     0.0783213
      6.00000      0.103904
      6.10000      0.130992
      6.20000      0.158628
      6.30000      0.184059
      6.40000      0.204758
      6.50000      0.218613
      6.60000      0.222733
      6.70000      0.225870
      6.80000      0.222400
      6.90000      0.286722
      7.00000      0.306219
      7.10000      0.317863
      7.20000      0.325286
      7.30000      0.329660
      7.40000      0.331015
      7.50000      0.330371
      7.60000      0.327890
      7.70000      0.322833
      7.80000      0.314755
      7.90000      0.307016
      8.00000      0.433054
      8.10000      0.462355
      8.20000      0.457884
      8.30000      0.451213
      8.40000      0.442555
      8.50000      0.433040
      8.60000      0.422636
      8.70000      0.411667
      8.80000      0.400103
      8.90000      0.388163
      9.00000      0.375895
      9.10000      0.363372
      9.20000      0.350686
      9.30000      0.337902
      9.40000      0.325057
      9.50000      0.312199
      9.60000      0.299412
      9.70000      0.286700
      9.80000      0.274120
      9.90000      0.261742
      10.0000      0.249596
      10.1000      0.237673
      10.2000      0.225998
      10.3000      0.214608
      10.4000      0.203526
      10.5000      0.192738
      10.6000      0.182260
      10.7000      0.172103
      10.8000      0.162293
      10.9000      0.152857
      11.0000      0.143767
      11.1000      0.135028
      11.2000      0.126644
      11.3000      0.118613
      11.4000      0.110933
      11.5000      0.103600
      11.6000     0.0966123
      11.7000     0.0899782
      11.8000     0.0836765
      11.9000     0.0776856
      12.0000     0.0719296
      12.1000     0.0667223
      12.2000     0.0629359
      12.3000     0.0586813
      12.4000     0.0542387
      12.5000     0.0500311
      12.6000     0.0460741
      12.7000     0.0423667
      12.8000     0.0389002
      12.9000     0.0356639
      13.0000     0.0326492
      13.1000     0.0298462
      13.2000     0.0272481
      13.3000     0.0248569
      13.4000     0.0226539
      13.5000     0.0206193
      13.6000     0.0187545
      13.7000     0.0170356
      13.8000     0.0154529
      13.9000     0.0139978
      14.0000     0.0126616
      14.1000     0.0114340
      14.2000     0.0103068
      14.3000    0.00927403
      14.4000    0.00833025
      14.5000    0.00747417
      14.6000    0.00670212
      14.7000    0.00599936
      14.8000    0.00536053
      14.9000    0.00478062
      15.0000    0.00425498
      15.1000    0.00377941
      15.2000    0.00335854
      15.3000    0.00298006
      15.4000    0.00263862
      15.5000    0.00233107
      15.6000    0.00205461
      15.7000    0.00181002
      15.8000    0.00159466
      15.9000    0.00140144
      16.0000    0.00122839
      16.1000    0.00107372
      16.2000   0.000939864
      16.3000   0.000821620
      16.4000   0.000716034
      16.5000   0.000621976
      16.6000   0.000540216
      16.7000   0.000469524
      16.8000   0.000406585
      16.9000   0.000350720
      17.0000   0.000302665
      17.1000   0.000261577
      17.2000   0.000225268
      17.3000   0.000193304
      17.4000   0.000166521
      17.5000   0.000143140
      17.6000   0.000122561
      17.7000   0.000105058
      17.8000   9.08606e-05
      17.9000   7.82434e-05
      18.0000   6.70277e-05
      18.1000   5.77849e-05
      18.2000   4.95056e-05
      18.3000   4.20538e-05
      18.4000   3.57040e-05
      18.5000   3.01862e-05
      18.6000   2.52582e-05
      18.7000   2.11031e-05
      18.8000   1.76241e-05
      18.9000   1.45751e-05
      19.0000   1.21054e-05
      19.1000   1.00488e-05
      19.2000   8.24944e-06
      19.3000   6.82302e-06
      19.4000   5.63544e-06
      19.5000   4.60856e-06
      19.6000   3.84095e-06
      19.7000   3.17463e-06
      19.8000   2.59813e-06
      19.9000   2.15961e-06
      20.0000   1.76930e-06
      20.1000   1.44914e-06
      20.2000   1.19327e-06
      20.3000   9.67170e-07
      20.4000   7.94308e-07
      20.5000   6.46576e-07
      20.6000   5.21239e-07
      20.7000   4.26885e-07
      20.8000   3.42731e-07
      20.9000   2.78124e-07
      21.0000   2.24330e-07
      21.1000   1.78661e-07
      21.2000   1.45027e-07
      21.3000   1.14890e-07
      21.4000   9.25231e-08
      21.5000   7.36059e-08
      21.6000   5.81812e-08
      21.7000   4.65365e-08
      21.8000   3.61591e-08
      21.9000   2.89982e-08
      22.0000   2.25615e-08
      22.1000   1.77971e-08
      22.2000   1.38976e-08
      22.3000   1.07498e-08
      22.4000   8.31814e-09
      22.5000   6.12085e-09
      22.6000   4.40743e-09
      22.7000   2.98751e-09
      22.8000   2.87334e-09
      22.9000   2.84907e-09
      23.0000   2.90010e-09
      23.1000   2.70370e-09
      23.2000   2.27955e-09
      23.3000   1.86201e-09
      23.4000   1.44870e-09
      23.5000   1.15140e-09
      23.6000   8.83068e-10
      23.7000   7.02893e-10
      23.8000   5.32540e-10
      23.9000   4.23718e-10
      24.0000   3.20549e-10
      24.1000   2.52956e-10
      24.2000   1.90943e-10
      24.3000   1.49593e-10
      24.4000   1.12708e-10
      24.5000   8.76999e-11
      24.6000   6.59047e-11
      24.7000   5.09831e-11
      24.8000   3.81967e-11
      24.9000   2.93998e-11
      25.0000   2.19383e-11
      25.1000   1.68190e-11
      25.2000   1.24880e-11
      25.3000   9.54579e-12
      25.4000   7.04333e-12
      25.5000   5.37495e-12
      25.6000   3.93626e-12
      25.7000   3.00256e-12
      25.8000   2.17918e-12
      25.9000   1.66361e-12
      26.0000   1.19474e-12
      26.1000   9.13883e-13
      26.2000   6.48346e-13
      26.3000   4.97533e-13
      26.4000   3.48159e-13
      26.5000   2.68323e-13
      26.6000   1.88875e-13
      26.7000   1.43262e-13
      26.8000   1.01831e-13
      26.9000   7.56855e-14
      27.0000   5.43903e-14
      27.1000   3.95202e-14
      27.2000   2.87388e-14
      27.3000   2.04003e-14
      27.4000   1.50929e-14
      27.5000   1.04889e-14
      27.6000   7.84327e-15
      27.7000   5.28642e-15
      27.8000   4.00556e-15
      27.9000   2.73086e-15
      28.0000   2.01485e-15
      28.1000   1.40984e-15
      28.2000   9.98310e-16
      28.3000   7.16013e-16
      28.4000   4.86819e-16
      28.5000   3.57377e-16
      28.6000   2.33458e-16
      28.7000   1.75166e-16
      28.8000   1.17160e-16
      28.9000   8.42552e-17
      29.0000   5.85823e-17
      29.1000   3.97305e-17
      29.2000   2.85773e-17
      29.3000   1.83544e-17
      29.4000   1.36010e-17
      29.5000   8.87134e-18
      29.6000   6.31601e-18
      29.7000   4.33945e-18
      29.8000   2.86192e-18
      29.9000   2.05203e-18
      30.0000   1.26517e-18
      30.1000   9.39995e-19
      30.2000   6.16455e-19
      30.3000   4.21026e-19
      30.4000   2.99002e-19
      30.5000   1.92158e-19
      30.6000   1.39978e-19
      30.7000   8.80609e-20
      30.8000   6.09859e-20
      30.9000   4.14315e-20
      31.0000   2.57346e-20
      31.1000   1.86232e-20
      31.2000   1.15479e-20
      31.3000   8.12714e-21
      31.4000   5.49761e-21
      31.5000   3.41204e-21
      31.6000   2.45583e-21
      31.7000   1.50452e-21
      31.8000   1.04255e-21
      31.9000   7.04681e-22
      32.0000   4.24909e-22
      32.1000   3.09807e-22
      32.2000   1.95294e-22
      32.3000   1.31980e-22
      32.4000   9.13258e-23
      32.5000   5.37572e-23
      32.6000   3.96397e-23
      32.7000   2.55936e-23
      32.8000   1.62526e-23
      32.9000   1.14790e-23
      33.0000   6.72996e-24
      33.1000   4.76870e-24
      33.2000   3.19150e-24
      33.3000   1.86888e-24
      33.4000   1.35663e-24
      33.5000   8.46932e-25
      33.6000   5.35021e-25
      33.7000   3.73366e-25
      33.8000   2.12502e-25
      33.9000   1.49021e-25
      34.0000   9.92047e-26
      34.1000   5.54180e-26
      34.2000   4.03683e-26
      34.3000   2.53877e-26
      34.4000   1.50392e-26
      34.5000   1.06267e-26
      34.6000   6.23475e-27
      34.7000   3.97905e-27
      34.8000   2.71784e-27
      34.9000   1.46241e-27
      35.0000   1.02570e-27
      35.1000   6.75037e-28
      35.2000   3.53262e-28
      35.3000   2.57916e-28
      35.4000   1.63009e-28
      35.5000   8.84027e-29
      35.6000   6.32966e-29
      35.7000   3.83062e-29
      35.8000   2.15986e-29
      35.9000   1.51701e-29
      36.0000   8.77141e-30
      36.1000   5.15217e-30
      36.2000   3.55303e-30
      36.3000   1.96128e-30
      36.4000   1.20042e-30
      36.5000   8.14067e-31
      36.6000   4.29528e-31
      36.7000   2.73239e-31
      36.8000   1.82637e-31
      36.9000   9.24607e-32
      37.0000   6.07630e-32
      37.1000   4.01523e-32
      37.2000   1.96373e-32
      37.3000   1.31990e-32
      37.4000   8.65431e-33
      37.5000   4.13112e-33
      37.6000   2.80029e-33
      37.7000   1.82967e-33
      37.8000   8.63634e-34
      37.9000   5.80181e-34
      38.0000   3.79415e-34
      38.1000   1.79592e-34
      38.2000   1.17277e-34
      38.3000   7.70930e-35
      38.4000   3.70978e-35
      38.5000   2.30958e-35
      38.6000   1.53256e-35
      38.7000   7.59187e-36
      38.8000   4.42870e-36
      38.9000   2.97733e-36
      39.0000   1.53273e-36
      39.1000   8.26149e-37
      39.2000   5.64306e-37
      39.3000   3.03688e-37
      39.4000   1.49521e-37
      39.5000   1.03668e-37
      39.6000   5.80323e-38
      39.7000   2.54719e-38
      39.8000   1.80098e-38
      39.9000   1.05827e-38
      40.0000   4.18537e-39
      40.1000   3.02071e-39
      40.2000   1.86152e-39
      40.3000   7.07921e-40
      40.4000   4.89296e-40
      40.5000   3.15320e-40
      40.6000   1.42156e-40
      40.7000   7.63469e-41
      40.8000   5.12693e-41
      40.9000   2.63080e-41
      41.0000   1.14472e-41
      41.1000   7.98039e-42
      41.2000   4.53040e-42
      41.3000   1.64793e-42
      41.4000   1.18550e-42
      41.5000   7.28675e-43
      41.6000   2.77457e-43
      41.7000   1.66755e-43
      41.8000   1.09301e-43
      41.9000   5.04467e-44
      42.0000   2.24208e-44
      42.1000   1.96182e-44
      42.2000   7.00649e-45
      42.3000   2.80260e-45
      42.4000   2.80260e-45
      42.5000   2.80260e-45
      42.6000  -2.80260e-45
      42.7000       0.00000
      42.8000       0.00000
      42.9000       0.00000
      43.0000       0.00000
      43.1000       0.00000
      43.2000       0.00000
      43.3000       0.00000
      43.4000       0.00000
      43.5000       0.00000
      43.6000       0.00000
      43.7000       0.00000
      43.8000       0.00000
      43.9000       0.00000
      44.0000       0.00000
      44.1000       0.00000
      44.2000       0.00000
      44.3000       0.00000
      44.4000       0.00000
      44.5000       0.00000
      44.6000       0.00000
      44.7000       0.00000
      44.8000       0.00000
      44.9000       0.00000
      45.0000       0.00000
      45.1000       0.00000
      45.2000       0.00000
      45.3000       0.00000
      45.4000       0.00000
      45.5000       0.00000
      45.6000       0.00000
      45.7000       0.00000
      45.8000       0.00000
      45.9000       0.00000
      46.0000       0.00000
      46.1000       0.00000
      46.2000       0.00000
      46.3000       0.00000
      46.4000       0.00000
      46.5000       0.00000
      46.6000       0.00000
      46.7000       0.00000
      46.8000       0.00000
      46.9000       0.00000
      47.0000       0.00000
      47.1000       0.00000
      47.2000       0.00000
      47.3000       0.00000
      47.4000       0.00000
      47.5000       0.00000
      47.6000       0.00000
      47.7000       0.00000
      47.8000       0.00000
      47.9000       0.00000
      48.0000       0.00000
      48.1000       0.00000
      48.2000       0.00000
      48.3000       0.00000
      48.4000       0.00000
      48.5000       0.00000
      48.6000       0.00000
      48.7000       0.00000
      48.8000       0.00000
      48.9000       0.00000
      49.0000       0.00000
      49.1000       0.00000
      49.2000       0.00000
      49.3000       0.00000
      49.4000       0.00000
      49.5000       0.00000
      49.6000       0.00000
      49.7000       0.00000
      49.8000       0.00000
      49.9000       0.00000
      50.0000       0.00000
      50.1000       0.00000
      50.2000       0.00000
      50.3000       0.00000
      50.4000       0.00000
      50.5000       0.00000
      50.6000       0.00000
      50.7000       0.00000
      50.8000       0.00000
      50.9000       0.00000
      51.0000       0.00000
      51.1000       0.00000
      51.2000       0.00000
      51.3000       0.00000
      51.4000       0.00000
      51.5000       0.00000
      51.6000       0.00000
      51.7000       0.00000
      51.8000       0.00000
      51.9000       0.00000
      52.0000       0.00000
      52.1000       0.00000
      52.2000       0.00000
      52.3000       0.00000
      52.4000       0.00000
      52.5000       0.00000
      52.6000       0.00000
      52.7000       0.00000
      52.8000       0.00000
      52.9000       0.00000
      53.0000       0.00000
      53.1000       0.00000
      53.2000       0.00000
      53.3000       0.00000
      53.4000       0.00000
      53.5000       0.00000
      53.6000       0.00000
      53.7000       0.00000
      53.8000       0.00000
      53.9000       0.00000
      54.0000       0.00000
      54.1000       0.00000
      54.2000       0.00000
      54.3000       0.00000
      54.4000       0.00000
      54.5000       0.00000
      54.6000       0.00000
      54.7000       0.00000
      54.8000       0.00000
      54.9000       0.00000
      55.0000       0.00000
      55.1000       0.00000
      55.2000       0.00000
      55.3000       0.00000
      55.4000       0.00000
      55.5000       0.00000
      55.6000       0.00000
      55.7000       0.00000
      55.8000       0.00000
      55.9000       0.00000
      56.0000       0.00000
      56.1000       0.00000
      56.2000       0.00000
      56.3000       0.00000
      56.4000       0.00000
      56.5000       0.00000
      56.6000       0.00000
      56.7000       0.00000
      56.8000       0.00000
      56.9000       0.00000
      57.0000       0.00000
      57.1000       0.00000
      57.2000       0.00000
      57.3000       0.00000
      57.4000       0.00000
      57.5000       0.00000
      57.6000       0.00000
      57.7000       0.00000
      57.8000       0.00000
      57.9000       0.00000
      58.0000       0.00000
      58.1000       0.00000
      58.2000       0.00000
      58.3000       0.00000
      58.4000       0.00000
      58.5000       0.00000
      58.6000       0.00000
      58.7000       0.00000
      58.8000       0.00000
      58.9000       0.00000
      59.0000       0.00000
      59.1000       0.00000
      59.2000       0.00000
      59.3000       0.00000
      59.4000       0.00000
      59.5000       0.00000
      59.6000       0.00000
      59.7000       0.00000
      59.8000       0.00000
      59.9000       0.00000
      60.0000       0.00000
      60.1000       0.00000
      60.2000       0.00000
      60.3000       0.00000
      60.4000       0.00000
      60.5000       0.00000
      60.6000       0.00000
      60.7000       0.00000
      60.8000       0.00000
      60.9000       0.00000
      61.0000       0.00000
      61.1000       0.00000
      61.2000       0.00000
      61.3000       0.00000
      61.4000       0.00000
      61.5000       0.00000
      61.6000       0.00000
      61.7000       0.00000
      61.8000       0.00000
      61.9000       0.00000
      62.0000       0.00000
      62.1000       0.00000
      62.2000       0.00000
      62.3000       0.00000
      62.4000       0.00000
      62.5000       0.00000
      62.6000       0.00000
      62.7000       0.00000
      62.8000       0.00000
      62.9000       0.00000
      63.0000       0.00000
      63.1000       0.00000
      63.2000       0.00000
      63.3000       0.00000
      63.4000       0.00000
      63.5000       0.00000
      63.6000       0.00000
      63.7000       0.00000
      63.8000       0.00000
      63.9000       0.00000
      64.0000       0.00000
      64.1000       0.00000
      64.2000       0.00000
      64.3000       0.00000
      64.4000       0.00000
      64.5000       0.00000
      64.6000       0.00000
      64.7000       0.00000
      64.8000       0.00000
      64.9000       0.00000
      65.0000       0.00000
      65.1000       0.00000
      65.2000       0.00000
      65.3000       0.00000
      65.4000       0.00000
      65.5000       0.00000
      65.6000       0.00000
      65.7000       0.00000
      65.8000       0.00000
      65.9000       0.00000
      66.0000       0.00000
      66.1000       0.00000
      66.2000       0.00000
      66.3000       0.00000
      66.4000       0.00000
      66.5000       0.00000
      66.6000       0.00000
      66.7000       0.00000
      66.8000       0.00000
      66.9000       0.00000
      67.0000       0.00000
      67.1000       0.00000
      67.2000       0.00000
      67.3000       0.00000
      67.4000       0.00000
      67.5000       0.00000
      67.6000       0.00000
      67.7000       0.00000
      67.8000       0.00000
      67.9000       0.00000
      68.0000       0.00000
      68.1000       0.00000
      68.2000       0.00000
      68.3000       0.00000
      68.4000       0.00000
      68.5000       0.00000
      68.6000       0.00000
      68.7000       0.00000
      68.8000       0.00000
      68.9000       0.00000
      69.0000       0.00000
      69.1000       0.00000
      69.2000       0.00000
      69.3000       0.00000
      69.4000       0.00000
      69.5000       0.00000
      69.6000       0.00000
      69.7000       0.00000
      69.8000       0.00000
      69.9000       0.00000
      70.0000       0.00000
      70.1000       0.00000
      70.2000       0.00000
      70.3000       0.00000
      70.4000       0.00000
      70.5000       0.00000
      70.6000       0.00000
      70.7000       0.00000
      70.8000       0.00000
      70.9000       0.00000
      71.0000       0.00000
      71.1000       0.00000
      71.2000       0.00000
      71.3000       0.00000
      71.4000       0.00000
      71.5000       0.00000
      71.6000       0.00000
      71.7000       0.00000
      71.8000       0.00000
      71.9000       0.00000
      72.0000       0.00000
      72.1000       0.00000
      72.2000       0.00000
      72.3000       0.00000
      72.4000       0.00000
      72.5000       0.00000
      72.6000       0.00000
      72.7000       0.00000
      72.8000       0.00000
      72.9000       0.00000
      73.0000       0.00000
      73.1000       0.00000
      73.2000       0.00000
      73.3000       0.00000
      73.4000       0.00000
      73.5000       0.00000
      73.6000       0.00000
      73.7000       0.00000
      73.8000       0.00000
      73.9000       0.00000
      74.0000       0.00000
      74.1000       0.00000
      74.2000       0.00000
      74.3000       0.00000
      74.4000       0.00000
      74.5000       0.00000
      74.6000       0.00000
      74.7000       0.00000
      74.8000       0.00000
      74.9000       0.00000
      75.0000       0.00000
      75.1000       0.00000
      75.2000       0.00000
      75.3000       0.00000
      75.4000       0.00000
      75.5000       0.00000
      75.6000       0.00000
      75.7000       0.00000
      75.8000       0.00000
      75.9000       0.00000
      76.0000       0.00000
      76.1000       0.00000
      76.2000       0.00000
      76.3000       0.00000
      76.4000       0.00000
      76.5000       0.00000
      76.6000       0.00000
      76.7000       0.00000
      76.8000       0.00000
      76.9000       0.00000
      77.0000       0.00000
      77.1000       0.00000
      77.2000       0.00000
      77.3000       0.00000
      77.4000       0.00000
      77.5000       0.00000
      77.6000       0.00000
      77.7000       0.00000
      77.8000       0.00000
      77.9000       0.00000
      78.0000       0.00000
      78.1000       0.00000
      78.2000       0.00000
      78.3000       0.00000
      78.4000       0.00000
      78.5000       0.00000
      78.6000       0.00000
      78.7000       0.00000
      78.8000       0.00000
      78.9000       0.00000
      79.0000       0.00000
      79.1000       0.00000
      79.2000       0.00000
      79.3000       0.00000
      79.4000       0.00000
      79.5000       0.00000
      79.6000       0.00000
      79.7000       0.00000
      79.8000       0.00000
      79.9000       0.00000
      80.0000       0.00000
      80.1000       0.00000
      80.2000       0.00000
      80.3000       0.00000
      80.4000       0.00000
      80.5000       0.00000
      80.6000       0.00000
      80.7000       0.00000
      80.8000       0.00000
      80.9000       0.00000
      81.0000       0.00000
      81.1000       0.00000
      81.2000       0.00000
      81.3000       0.00000
      81.4000       0.00000
      81.5000       0.00000
      81.6000       0.00000
      81.7000       0.00000
      81.8000       0.00000
      81.9000       0.00000
      82.0000       0.00000
      82.1000       0.00000
      82.2000       0.00000
      82.3000       0.00000
      82.4000       0.00000
      82.5000       0.00000
      82.6000       0.00000
      82.7000       0.00000
      82.8000       0.00000
      82.9000       0.00000
      83.0000       0.00000
      83.1000       0.00000
      83.2000       0.00000
      83.3000       0.00000
      83.4000       0.00000
      83.5000       0.00000
      83.6000       0.00000
      83.7000       0.00000
      83.8000       0.00000
      83.9000       0.00000
      84.0000       0.00000
      84.1000       0.00000
      84.2000       0.00000
      84.3000       0.00000
      84.4000       0.00000
      84.5000       0.00000
      84.6000       0.00000
      84.7000       0.00000
      84.8000       0.00000
      84.9000       0.00000
      85.0000       0.00000
      85.1000       0.00000
      85.2000       0.00000
      85.3000       0.00000
      85.4000       0.00000
      85.5000       0.00000
      85.6000       0.00000
      85.7000       0.00000
      85.8000       0.00000
      85.9000       0.00000
      86.0000       0.00000
      86.1000       0.00000
      86.2000       0.00000
      86.3000       0.00000
      86.4000       0.00000
      86.5000       0.00000
      86.6000       0.00000
      86.7000       0.00000
      86.8000       0.00000
      86.9000       0.00000
      87.0000       0.00000
      87.1000       0.00000
      87.2000       0.00000
      87.3000       0.00000
      87.4000       0.00000
      87.5000       0.00000
      87.6000       0.00000
      87.7000       0.00000
      87.8000       0.00000
      87.9000       0.00000
      88.0000       0.00000
      88.1000       0.00000
      88.2000       0.00000
      88.3000       0.00000
      88.4000       0.00000
      88.5000       0.00000
      88.6000       0.00000
      88.7000       0.00000
      88.8000       0.00000
      88.9000       0.00000
      89.0000       0.00000
      89.1000       0.00000
      89.2000       0.00000
      89.3000       0.00000
      89.4000       0.00000
      89.5000       0.00000
      89.6000       0.00000
      89.7000       0.00000
      89.8000       0.00000
      89.9000       0.00000
      90.0000       0.00000
      90.1000       0.00000
      90.2000       0.00000
      90.3000       0.00000
      90.4000       0.00000
      90.5000       0.00000
      90.6000       0.00000
      90.7000       0.00000
      90.8000       0.00000
      90.9000       0.00000
      91.0000       0.00000
      91.1000       0.00000
      91.2000       0.00000
      91.3000       0.00000
      91.4000       0.00000
      91.5000       0.00000
      91.6000       0.00000
      91.7000       0.00000
      91.8000       0.00000
      91.9000       0.00000
      92.0000       0.00000
      92.1000       0.00000
      92.2000       0.00000
      92.3000       0.00000
      92.4000       0.00000
      92.5000       0.00000
      92.6000       0.00000
      92.7000       0.00000
      92.8000       0.00000
      92.9000       0.00000
      93.0000       0.00000
      93.1000       0.00000
      93.2000       0.00000
      93.3000       0.00000
      93.4000       0.00000
      93.5000       0.00000
      93.6000       0.00000
      93.7000       0.00000
      93.8000       0.00000
      93.9000       0.00000
      94.0000       0.00000
      94.1000       0.00000
      94.2000       0.00000
      94.3000       0.00000
      94.4000       0.00000
      94.5000       0.00000
      94.6000       0.00000
      94.7000       0.00000
      94.8000       0.00000
      94.9000       0.00000
      95.0000       0.00000
      95.1000       0.00000
      95.2000       0.00000
      95.3000       0.00000
      95.4000       0.00000
      95.5000       0.00000
      95.6000       0.00000
      95.7000       0.00000
      95.8000       0.00000
      95.9000       0.00000
      96.0000       0.00000
      96.1000       0.00000
      96.2000       0.00000
      96.3000       0.00000
      96.4000       0.00000
      96.5000       0.00000
      96.6000       0.00000
      96.7000       0.00000
      96.8000       0.00000
      96.9000       0.00000
      97.0000       0.00000
      97.1000       0.00000
      97.2000       0.00000
      97.3000       0.00000
      97.4000       0.00000
      97.5000       0.00000
      97.6000       0.00000
      97.7000       0.00000
      97.8000       0.00000
      97.9000       0.00000
      98.0000       0.00000
      98.1000       0.00000
      98.2000       0.00000
      98.3000       0.00000
      98.4000       0.00000
      98.5000       0.00000
      98.6000       0.00000
      98.7000       0.00000
      98.8000       0.00000
      98.9000       0.00000
      99.0000       0.00000
      99.1000       0.00000
      99.2000       0.00000
      99.3000       0.00000
      99.4000       0.00000
      99.5000       0.00000
      99.6000       0.00000
      99.7000       0.00000
      99.8000       0.00000
      99.9000       0.00000
      100.000       0.00000
      100.100       0.00000
      100.200       0.00000
      100.300       0.00000
      100.400       0.00000
      100.500       0.00000
      100.600       0.00000
      100.700       0.00000
      100.800       0.00000
      100.900       0.00000
      101.000       0.00000
      101.100       0.00000
      101.200       0.00000
      101.300       0.00000
      101.400       0.00000
      101.500       0.00000
      101.600       0.00000
      101.700       0.00000
      101.800       0.00000
      101.900       0.00000
      102.000       0.00000
      102.100       0.00000
      102.200       0.00000
      102.300       0.00000
      102.400       0.00000
      102.500       0.00000
      102.600       0.00000
      102.700       0.00000
      102.800       0.00000
      102.900       0.00000
      103.000       0.00000
      103.100       0.00000
      103.200       0.00000
      103.300       0.00000
      103.400       0.00000
      103.500       0.00000
      103.600       0.00000
      103.700       0.00000
      103.800       0.00000
      103.900       0.00000
      104.000       0.00000
      104.100       0.00000
      104.200       0.00000
      104.300       0.00000
      104.400       0.00000
      104.500       0.00000
      104.600       0.00000
      104.700       0.00000
      104.800       0.00000
      104.900       0.00000
      105.000       0.00000
      105.100       0.00000
      105.200       0.00000
      105.300       0.00000
      105.400       0.00000
      105.500       0.00000
      105.600       0.00000
      105.700       0.00000
      105.800       0.00000
      105.900       0.00000
      106.000       0.00000
      106.100       0.00000
      106.200       0.00000
      106.300       0.00000
      106.400       0.00000
      106.500       0.00000
      106.600       0.00000
      106.700       0.00000
      106.800       0.00000
      106.900       0.00000
      107.000       0.00000
      107.100       0.00000
      107.200       0.00000
      107.300       0.00000
      107.400       0.00000
      107.500       0.00000
      107.600       0.00000
      107.700       0.00000
      107.800       0.00000
      107.900       0.00000
      108.000       0.00000
      108.100       0.00000
      108.200       0.00000
      108.300       0.00000
      108.400       0.00000
      108.500       0.00000
      108.600       0.00000
      108.700       0.00000
      108.800       0.00000
      108.900       0.00000
      109.000       0.00000
      109.100       0.00000
      109.200       0.00000
      109.300       0.00000
      109.400       0.00000
      109.500       0.00000
      109.600       0.00000
      109.700       0.00000
      109.800       0.00000
      109.900       0.00000
      110.000       0.00000
      110.100       0.00000
      110.200       0.00000
      110.300       0.00000
      110.400       0.00000
      110.500       0.00000
      110.600       0.00000
      110.700       0.00000
      110.800       0.00000
      110.900   4.87674e-35
      111.000   2.61722e-28
      111.100   3.09034e-24
      111.200   4.29136e-23
      111.300   2.16395e-22
      111.400   7.15220e-22
      111.500   9.48178e-22
      111.600   1.28544e-21
      111.700   2.37259e-21
      111.800   4.30390e-21
      111.900   5.62992e-21
      112.000   9.05124e-21
      112.100   1.62171e-20
      112.200   2.47158e-20
      112.300   3.17518e-20
      112.400   3.97154e-20
      112.500   5.27994e-20
      112.600   7.50314e-20
      112.700   1.02036e-19
      112.800   1.17878e-19
      112.900   1.52843e-19
      113.000   1.95572e-19
      113.100   2.34296e-19
      113.200   2.69303e-19
      113.300   2.74159e-19
      113.400   3.42999e-19
      113.500   4.24523e-19
      113.600   4.37957e-19
      113.700   5.27515e-19
      113.800   6.00550e-19
      113.900   6.68724e-19
      114.000   7.12557e-19
      114.100   7.43750e-19
      114.200   9.57524e-19
      114.300   1.10136e-18
      114.400   1.06939e-18
      114.500   9.80105e-19
      114.600   9.77855e-19
      114.700   9.94656e-19
      114.800   1.03805e-18
      114.900   1.14715e-18
      115.000   1.26003e-18
      115.100   1.33497e-18
      115.200   1.35558e-18
      115.300   1.37775e-18
      115.400   1.39902e-18
      115.500   1.42120e-18
      115.600   1.44314e-18
      115.700   1.46455e-18
      115.800   1.48735e-18
      115.900   1.50987e-18
      116.000   1.52887e-18
      116.100   1.53698e-18
      116.200   1.54347e-18
      116.300   1.54960e-18
      116.400   1.54943e-18
      116.500   1.51616e-18
      116.600   1.48326e-18
      116.700   1.45133e-18
      116.800   1.41977e-18
      116.900   1.38760e-18
      117.000   1.35757e-18
      117.100   1.33219e-18
      117.200   1.31006e-18
      117.300   1.28562e-18
      117.400   1.26146e-18
      117.500   1.23189e-18
      117.600   1.18972e-18
      117.700   1.14521e-18
      117.800   1.10163e-18
      117.900   1.05935e-18
      118.000   1.01802e-18
      118.100   9.77737e-19
      118.200   9.39504e-19
      118.300   9.02938e-19
      118.400   8.65719e-19
      118.500   8.30179e-19
      118.600   7.96941e-19
      118.700   7.64720e-19
      118.800   7.33389e-19
      118.900   7.03583e-19
      119.000   6.74075e-19
      119.100   6.44800e-19
      119.200   6.22797e-19
      119.300   6.11084e-19
      119.400   6.02269e-19
      119.500   5.90986e-19
      119.600   5.75446e-19
      119.700   5.58530e-19
      119.800   5.40945e-19
      119.900   5.22399e-19
      120.000   5.04904e-19
      120.100   4.88321e-19
      120.200   4.73968e-19
      120.300   4.60990e-19
      120.400   4.48348e-19
      120.500   4.34745e-19
      120.600   4.20571e-19
      120.700   4.06529e-19
      120.800   3.93118e-19
      120.900   3.81675e-19
      121.000   3.72917e-19
      121.100   3.64518e-19
      121.200   3.56911e-19
      121.300   3.48733e-19
      121.400   3.40137e-19
      121.500   3.31194e-19
      121.600   3.17141e-19
      121.700   3.03364e-19
      121.800   2.89588e-19
      121.900   2.76316e-19
      122.000   2.63248e-19
      122.100   2.50996e-19
      122.200   2.39308e-19
      122.300   2.29254e-19
      122.400   2.20796e-19
      122.500   2.12890e-19
      122.600   2.05118e-19
      122.700   1.97615e-19
      122.800   1.90143e-19
      122.900   1.83078e-19
      123.000   1.77429e-19
      123.100   1.73972e-19
      123.200   1.71578e-19
      123.300   1.72920e-19
      123.400   1.75024e-19
      123.500   1.78208e-19
      123.600   1.80450e-19
      123.700   1.79100e-19
      123.800   1.74768e-19
      123.900   1.71021e-19
      124.000   1.68110e-19
      124.100   1.67866e-19
      124.200   1.73841e-19
      124.300   1.84690e-19
      124.400   1.94479e-19
      124.500   1.94146e-19
      124.600   1.88909e-19
      124.700   1.81582e-19
      124.800   1.74584e-19
      124.900   1.67849e-19
      125.000   1.61364e-19
      125.100   1.55072e-19
      125.200   1.49017e-19
      125.300   1.43193e-19
      125.400   1.37596e-19
      125.500   1.32218e-19
      125.600   1.25576e-19
      125.700   1.18935e-19
      125.800   1.13444e-19
      125.900   1.11400e-19
      126.000   1.09622e-19
      126.100   1.07873e-19
      126.200   1.06152e-19
      126.300   1.04459e-19
      126.400   1.02792e-19
      126.500   1.01152e-19
      126.600   9.95385e-20
      126.700   9.79512e-20
      126.800   9.63899e-20
      126.900   9.48529e-20
      127.000   9.33380e-20
      127.100   9.13378e-20
      127.200   8.87928e-20
      127.300   8.61239e-20
      127.400   8.35343e-20
      127.500   8.10216e-20
      127.600   7.85842e-20
      127.700   7.62195e-20
      127.800   7.39252e-20
      127.900   7.16991e-20
      128.000   6.95395e-20
      128.100   6.74438e-20
      128.200   6.54106e-20
      128.300   6.34380e-20
      128.400   6.15249e-20
      128.500   5.96684e-20
      128.600   5.78680e-20
      128.700   5.61217e-20
      128.800   5.44271e-20
      128.900   5.27844e-20
      129.000   5.11919e-20
      129.100   4.96464e-20
      129.200   4.81439e-20
      129.300   4.66861e-20
      129.400   4.52723e-20
      129.500   4.39011e-20
      129.600   4.25713e-20
      129.700   4.12814e-20
      129.800   4.00301e-20
      129.900   3.88168e-20
      130.000   3.76402e-20
      130.100   3.64991e-20
      130.200   3.53921e-20
      130.300   3.43189e-20
      130.400   3.32781e-20
      130.500   3.22679e-20
      130.600   3.12849e-20
      130.700   3.03302e-20
      130.800   2.94045e-20
      130.900   2.85078e-20
      131.000   2.76386e-20
      131.100   2.67960e-20
      131.200   2.59787e-20
      131.300   2.51853e-20
      131.400   2.44161e-20
      131.500   2.36701e-20
      131.600   2.29467e-20
      131.700   2.22452e-20
      131.800   2.15648e-20
      131.900   2.09048e-20
      132.000   2.02648e-20
      132.100   1.96441e-20
      132.200   1.90423e-20
      132.300   1.84586e-20
      132.400   1.78925e-20
      132.500   1.73444e-20
      132.600   1.68132e-20
      132.700   1.62673e-20
      132.800   1.57283e-20
      132.900   1.52055e-20
      133.000   1.46997e-20
      133.100   1.42106e-20
      133.200   1.37376e-20
      133.300   1.32799e-20
      133.400   1.28373e-20
      133.500   1.24092e-20
      133.600   1.19953e-20
      133.700   1.15950e-20
      133.800   1.12079e-20
      133.900   1.08347e-20
      134.000   1.04738e-20
      134.100   1.01247e-20
      134.200   9.78724e-21
      134.300   9.46081e-21
      134.400   9.14517e-21
      134.500   8.84003e-21
      134.600   8.54488e-21
      134.700   8.25948e-21
      134.800   7.98357e-21
      134.900   7.71693e-21
      135.000   7.45902e-21
      135.100   7.21029e-21
      135.200   6.96988e-21
      135.300   6.73741e-21
      135.400   6.51257e-21
      135.500   6.29492e-21
      135.600   6.08429e-21
      135.700   5.88061e-21
      135.800   5.68362e-21
      135.900   5.49315e-21
      136.000   5.30892e-21
      136.100   5.13075e-21
      136.200   4.95896e-21
      136.300   4.79290e-21
      136.400   4.63236e-21
      136.500   4.47712e-21
      136.600   4.32693e-21
      136.700   4.18170e-21
      136.800   4.04127e-21
      136.900   3.90550e-21
      137.000   3.77431e-21
      137.100   3.64766e-21
      137.200   3.52538e-21
      137.300   3.40744e-21
      137.400   3.29338e-21
      137.500   3.18304e-21
      137.600   3.07631e-21
      137.700   2.97305e-21
      137.800   2.87316e-21
      137.900   2.77656e-21
      138.000   2.68318e-21
      138.100   2.59287e-21
      138.200   2.50586e-21
      138.300   2.42176e-21
      138.400   2.34047e-21
      138.500   2.26185e-21
      138.600   2.18582e-21
      138.700   2.11231e-21
      138.800   2.04124e-21
      138.900   1.97249e-21
      139.000   1.90603e-21
      139.100   1.84196e-21
      139.200   1.78041e-21
      139.300   1.72120e-21
      139.400   1.66403e-21
      139.500   1.60871e-21
      139.600   1.55518e-21
      139.700   1.50340e-21
      139.800   1.45331e-21
      139.900   1.40486e-21
      140.000   1.35819e-21
      140.100   1.31303e-21
      140.200   1.26935e-21
      140.300   1.22709e-21
      140.400   1.18621e-21
      140.500   1.14664e-21
      140.600   1.10836e-21
      140.700   1.07132e-21
      140.800   1.03564e-21
      140.900   1.00115e-21
      141.000   9.67777e-22
      141.100   9.35490e-22
      141.200   9.04257e-22
      141.300   8.74033e-22
      141.400   8.44886e-22
      141.500   8.17148e-22
      141.600   7.90681e-22
      141.700   7.65081e-22
      141.800   7.40293e-22
      141.900   7.16284e-22
      142.000   6.93033e-22
      142.100   6.70775e-22
      142.200   6.49969e-22
      142.300   6.30434e-22
      142.400   6.11559e-22
      142.500   5.93227e-22
      142.600   5.75423e-22
      142.700   5.58136e-22
      142.800   5.41355e-22
      142.900   5.25065e-22
      143.000   5.09246e-22
      143.100   4.93942e-22
      143.200   4.79111e-22
      143.300   4.64707e-22
      143.400   4.50727e-22
      143.500   4.37153e-22
      143.600   4.23974e-22
      143.700   4.11270e-22
      143.800   4.00187e-22
      143.900   3.89632e-22
      144.000   3.79364e-22
      144.100   3.69357e-22
      144.200   3.59609e-22
      144.300   3.50105e-22
      144.400   3.40880e-22
      144.500   3.32415e-22
      144.600   3.24320e-22
      144.700   3.16432e-22
      144.800   3.08724e-22
      144.900   3.01195e-22
      145.000   2.93838e-22
      145.100   2.86654e-22
      145.200   2.79660e-22
      145.300   2.72836e-22
      145.400   2.66169e-22
      145.500   2.59654e-22
      145.600   2.53289e-22
      145.700   2.47071e-22
      145.800   2.41006e-22
      145.900   2.35104e-22
      146.000   2.29332e-22
      146.100   2.23630e-22
      146.200   2.18016e-22
      146.300   2.12536e-22
      146.400   2.07183e-22
      146.500   2.01983e-22
      146.600   1.96909e-22
      146.700   1.91956e-22
      146.800   1.87108e-22
      146.900   1.82360e-22
      147.000   1.77726e-22
      147.100   1.73215e-22
      147.200   1.68824e-22
      147.300   1.64538e-22
      147.400   1.60357e-22
      147.500   1.56275e-22
      147.600   1.52291e-22
      147.700   1.48412e-22
      147.800   1.44640e-22
      147.900   1.40957e-22
      148.000   1.37362e-22
      148.100   1.33856e-22
      148.200   1.30434e-22
      148.300   1.27103e-22
      148.400   1.24371e-22
      148.500   1.22086e-22
      148.600   1.19976e-22
      148.700   1.17899e-22
      148.800   1.15856e-22
      148.900   1.13851e-22
      149.000   1.11883e-22
      149.100   1.09945e-22
      149.200   1.08039e-22
      149.300   1.06164e-22
      149.400   1.04319e-22
      149.500   1.02509e-22
      149.600   1.00729e-22
      149.700   9.89783e-23
      149.800   9.72558e-23
      149.900   9.55619e-23
      150.000   9.38955e-23
      150.100   9.22603e-23
      150.200   9.06513e-23
      150.300   8.90710e-23
      150.400   8.75163e-23
      150.500   8.59876e-23
      150.600   8.44842e-23
      150.700   8.30057e-23
      150.800   8.15528e-23
      150.900   8.01261e-23
      151.000   7.87213e-23
      151.100   7.73411e-23
      151.200   7.59835e-23
      151.300   7.46484e-23
      151.400   7.33357e-23
      151.500   7.20476e-23
      151.600   7.07811e-23
      151.700   6.95374e-23
      151.800   6.83143e-23
      151.900   6.71112e-23
      152.000   6.59964e-23
      152.100   6.55935e-23
      152.200   6.52814e-23
      152.300   6.49684e-23
      152.400   6.46559e-23
      152.500   6.43454e-23
      152.600   6.40356e-23
      152.700   6.30479e-23
      152.800   6.18330e-23
      152.900   6.06397e-23
      153.000   5.94685e-23
      153.100   5.83195e-23
      153.200   5.71913e-23
      153.300   5.62839e-23
      153.400   5.55818e-23
      153.500   5.49090e-23
      153.600   5.42452e-23
      153.700   5.35897e-23
      153.800   5.29410e-23
      153.900   5.22997e-23
      154.000   5.16725e-23
      154.100   5.10658e-23
      154.200   5.04699e-23
      154.300   4.98804e-23
      154.400   4.92988e-23
      154.500   4.87228e-23
      154.600   4.81533e-23
      154.700   4.75908e-23
      154.800   4.70345e-23
      154.900   4.64840e-23
      155.000   4.59393e-23
      155.100   4.54012e-23
      155.200   4.48685e-23
      155.300   4.43421e-23
      155.400   4.38216e-23
      155.500   4.33070e-23
      155.600   4.27973e-23
      155.700   4.22933e-23
      155.800   4.17952e-23
      155.900   4.13019e-23
      156.000   4.08147e-23
      156.100   4.03325e-23
      156.200   3.98559e-23
      156.300   3.93844e-23
      156.400   3.89178e-23
      156.500   3.84546e-23
      156.600   3.79882e-23
      156.700   3.75266e-23
      156.800   3.70700e-23
      156.900   3.66187e-23
      157.000   3.61733e-23
      157.100   3.57006e-23
      157.200   3.50142e-23
      157.300   3.41066e-23
      157.400   3.32224e-23
      157.500   3.23600e-23
      157.600   3.15197e-23
      157.700   3.07002e-23
      157.800   2.99017e-23
      157.900   2.95622e-23
      158.000   2.92657e-23
      158.100   2.89723e-23
      158.200   2.86812e-23
      158.300   2.83928e-23
      158.400   2.81074e-23
      158.500   2.78245e-23
      158.600   2.75440e-23
      158.700   2.72658e-23
      158.800   2.69909e-23
      158.900   2.67183e-23
      159.000   2.64483e-23
      159.100   2.61689e-23
      159.200   2.57505e-23
      159.300   2.51073e-23
      159.400   2.44801e-23
      159.500   2.38683e-23
      159.600   2.32712e-23
      159.700   2.26891e-23
      159.800   2.21208e-23
      159.900   2.18196e-23
      160.000   2.16957e-23
      160.100   2.15778e-23
      160.200   2.14604e-23
      160.300   2.13436e-23
      160.400   2.12275e-23
      160.500   2.10834e-23
      160.600   2.07789e-23
      160.700   2.03604e-23
      160.800   1.99500e-23
      160.900   1.95475e-23
      161.000   1.91530e-23
      161.100   1.87663e-23
      161.200   1.83875e-23
      161.300   1.80162e-23
      161.400   1.76522e-23
      161.500   1.72955e-23
      161.600   1.69458e-23
      161.700   1.66026e-23
      161.800   1.62663e-23
      161.900   1.59425e-23
      162.000   1.56751e-23
      162.100   1.54421e-23
      162.200   1.52125e-23
      162.300   1.49861e-23
      162.400   1.47630e-23
      162.500   1.45429e-23
      162.600   1.43262e-23
      162.700   1.41125e-23
      162.800   1.39018e-23
      162.900   1.36943e-23
      163.000   1.34897e-23
      163.100   1.32880e-23
      163.200   1.30891e-23
      163.300   1.28930e-23
      163.400   1.26998e-23
      163.500   1.25094e-23
      163.600   1.23217e-23
      163.700   1.21365e-23
      163.800   1.19543e-23
      163.900   1.17746e-23
      164.000   1.15974e-23
      164.100   1.13863e-23
      164.200   1.10811e-23
      164.300   1.07845e-23
      164.400   1.04957e-23
      164.500   1.02146e-23
      164.600   9.94091e-24
      164.700   9.67433e-24
      164.800   9.44487e-24
      164.900   9.28636e-24
      165.000   9.15686e-24
      165.100   9.02904e-24
      165.200   8.90295e-24
      165.300   8.77857e-24
      165.400   8.65599e-24
      165.500   8.53501e-24
      165.600   8.33753e-24
      165.700   8.11108e-24
      165.800   7.88820e-24
      165.900   7.67140e-24
      166.000   7.46081e-24
      166.100   7.25588e-24
      166.200   7.05654e-24
      166.300   6.86266e-24
      166.400   6.67402e-24
      166.500   6.49043e-24
      166.600   6.31184e-24
      166.700   6.13814e-24
      166.800   5.96906e-24
      166.900   5.80463e-24
      167.000   5.64476e-24
      167.100   5.48911e-24
      167.200   5.33770e-24
      167.300   5.19041e-24
      167.400   5.04716e-24
      167.500   4.90776e-24
      167.600   4.77217e-24
      167.700   4.64029e-24
      167.800   4.51201e-24
      167.900   4.38720e-24
      168.000   4.26579e-24
      168.100   4.14768e-24
      168.200   4.03279e-24
      168.300   3.92103e-24
      168.400   3.81235e-24
      168.500   3.70756e-24
      168.600   3.62719e-24
      168.700   3.55986e-24
      168.800   3.49377e-24
      168.900   3.42887e-24
      169.000   3.36519e-24
      169.100   3.30259e-24
      169.200   3.24118e-24
      169.300   3.18087e-24
      169.400   3.12165e-24
      169.500   3.06332e-24
      169.600   3.00534e-24
      169.700   2.94764e-24
      169.800   2.89079e-24
      169.900   2.83497e-24
      170.000   2.78018e-24
      170.100   2.70139e-24
      170.200   2.58863e-24
      170.300   3.26632e-24
      170.400   6.80019e-24
      170.500   1.25455e-23
      170.600   1.79620e-23
      170.700   2.19265e-23
      170.800   2.33157e-23
      170.900   2.28848e-23
      171.000   2.21564e-23
      171.100   2.14747e-23
      171.200   2.08127e-23
      171.300   2.01697e-23
      171.400   1.95455e-23
      171.500   1.89394e-23
      171.600   1.83508e-23
      171.700   1.77799e-23
      171.800   1.72259e-23
      171.900   1.66886e-23
      172.000   1.61678e-23
      172.100   1.56630e-23
      172.200   1.51739e-23
      172.300   1.46997e-23
      172.400   1.42372e-23
      172.500   1.37889e-23
      172.600   1.33549e-23
      172.700   1.29347e-23
      172.800   1.25278e-23
      172.900   1.21338e-23
      173.000   1.17525e-23
      173.100   1.13835e-23
      173.200   1.10261e-23
      173.300   1.06801e-23
      173.400   1.03450e-23
      173.500   1.00208e-23
      173.600   9.70688e-24
      173.700   9.40285e-24
      173.800   9.10865e-24
      173.900   8.82382e-24
      174.000   8.54789e-24
      174.100   8.28078e-24
      174.200   8.02213e-24
      174.300   7.77155e-24
      174.400   7.52892e-24
      174.500   7.29382e-24
      174.600   7.06605e-24
      174.700   6.84550e-24
      174.800   6.63186e-24
      174.900   6.42481e-24
      175.000   6.22413e-24
      175.100   6.02969e-24
      175.200   5.84156e-24
      175.300   5.65918e-24
      175.400   5.48244e-24
      175.500   5.31130e-24
      175.600   5.14538e-24
      175.700   4.98466e-24
      175.800   4.82887e-24
      175.900   4.67793e-24
      176.000   4.53166e-24
      176.100   4.38999e-24
      176.200   4.25273e-24
      176.300   4.11969e-24
      176.400   3.99083e-24
      176.500   3.86563e-24
      176.600   3.68690e-24
      176.700   3.48961e-24
      176.800   3.30278e-24
      176.900   3.12589e-24
      177.000   2.95835e-24
      177.100   2.79970e-24
      177.200   2.64952e-24
      177.300   2.50732e-24
      177.400   2.37262e-24
      177.500   2.24507e-24
      177.600   2.12432e-24
      177.700   2.01003e-24
      177.800   1.90182e-24
      177.900   1.79932e-24
      178.000   1.70243e-24
      178.100   1.61070e-24
      178.200   1.52384e-24
      178.300   1.44161e-24
      178.400   1.36380e-24
      178.500   1.29014e-24
      178.600   1.22185e-24
      178.700   1.16497e-24
      178.800   1.12284e-24
      178.900   1.08222e-24
      179.000   1.04304e-24
      179.100   1.00526e-24
      179.200   9.68849e-25
      179.300   9.33744e-25
      179.400   8.99891e-25
      179.500   8.67280e-25
      179.600   8.35864e-25
      179.700   8.05582e-25
      179.800   7.76388e-25
      179.900   7.48250e-25
      180.000   7.21120e-25
      180.100   6.94977e-25
      180.200   6.69791e-25
      180.300   6.45512e-25
      180.400   6.22113e-25
      180.500   5.99569e-25
      180.600   5.77838e-25
      180.700   5.56897e-25
      180.800   5.36719e-25
      180.900   5.17271e-25
      181.000   4.98524e-25
      181.100   4.80461e-25
      181.200   4.63058e-25
      181.300   4.46284e-25
      181.400   4.30124e-25
      181.500   4.14547e-25
      181.600   3.99536e-25
      181.700   3.85069e-25
      181.800   3.71127e-25
      181.900   3.57690e-25
      182.000   3.44748e-25
      182.100   3.32268e-25
      182.200   3.20359e-25
      182.300   3.09820e-25
      182.400   2.99693e-25
      182.500   2.89895e-25
      182.600   2.80418e-25
      182.700   2.71250e-25
      182.800   2.62382e-25
      182.900   2.53801e-25
      183.000   2.45502e-25
      183.100   2.37476e-25
      183.200   2.29709e-25
      183.300   2.22193e-25
      183.400   2.14924e-25
      183.500   2.07891e-25
      183.600   2.01088e-25
      183.700   1.94505e-25
      183.800   1.88141e-25
      183.900   1.81984e-25
      184.000   1.76028e-25
      184.100   1.70271e-25
      184.200   1.64705e-25
      184.300   1.59322e-25
      184.400   1.54115e-25
      184.500   1.49078e-25
      184.600   1.44203e-25
      184.700   1.39488e-25
      184.800   1.34927e-25
      184.900   1.30514e-25
      185.000   1.26244e-25
      185.100   1.22163e-25
      185.200   1.18462e-25
      185.300   1.15196e-25
      185.400   1.12019e-25
      185.500   1.08928e-25
      185.600   1.05922e-25
      185.700   1.02999e-25
      185.800   1.00160e-25
      185.900   9.73999e-26
      186.000   9.47158e-26
      186.100   9.21047e-26
      186.200   8.95643e-26
      186.300   8.70924e-26
      186.400   8.46894e-26
      186.500   8.23521e-26
      186.600   8.00774e-26
      186.700   7.78638e-26
      186.800   7.57106e-26
      186.900   7.36167e-26
      187.000   7.15797e-26
      187.100   6.95964e-26
      187.200   6.76690e-26
      187.300   6.57968e-26
      187.400   6.39754e-26
      187.500   6.22038e-26
      187.600   6.04803e-26
      187.700   5.88038e-26
      187.800   5.71732e-26
      187.900   5.55869e-26
      188.000   5.40443e-26
      188.100   5.24608e-26
      188.200   5.06361e-26
      188.300   4.85171e-26
      188.400   4.64859e-26
      188.500   4.45388e-26
      188.600   4.26749e-26
      188.700   4.08913e-26
      188.800   3.91821e-26
      188.900   3.75435e-26
      189.000   3.59724e-26
      189.100   3.44660e-26
      189.200   3.30219e-26
      189.300   3.16379e-26
      189.400   3.03114e-26
      189.500   2.90468e-26
      189.600   2.79338e-26
      189.700   2.72458e-26
      189.800   2.65776e-26
      189.900   2.59266e-26
      190.000   2.52921e-26
      190.100   2.46733e-26
      190.200   2.40695e-26
      190.300   2.34807e-26
      190.400   2.29060e-26
      190.500   2.23456e-26
      190.600   2.17991e-26
      190.700   2.12658e-26
      190.800   2.07457e-26
      190.900   2.02384e-26
      191.000   1.97443e-26
      191.100   1.92627e-26
      191.200   1.87926e-26
      191.300   1.83342e-26
      191.400   1.78871e-26
      191.500   1.74508e-26
      191.600   1.70252e-26
      191.700   1.66099e-26
      191.800   1.62046e-26
      191.900   1.58092e-26
      192.000   1.54237e-26
      192.100   1.50478e-26
      192.200   1.46819e-26
      192.300   1.43246e-26
      192.400   1.39759e-26
      192.500   1.36102e-26
      192.600   1.31724e-26
      192.700   1.26837e-26
      192.800   1.22128e-26
      192.900   1.17590e-26
      193.000   1.13220e-26
      193.100   1.09018e-26
      193.200   1.04979e-26
      193.300   1.01088e-26
      193.400   9.73415e-27
      193.500   9.37315e-27
      193.600   9.02529e-27
      193.700   8.69016e-27
      193.800   8.36744e-27
      193.900   8.05664e-27
      194.000   7.76328e-27
      194.100   7.60035e-27
      194.200   7.48120e-27
      194.300   7.36681e-27
      194.400   7.25423e-27
      194.500   7.14346e-27
      194.600   7.03439e-27
      194.700   6.92700e-27
      194.800   6.82128e-27
      194.900   6.71715e-27
      195.000   6.61467e-27
      195.100   6.51398e-27
      195.200   6.41478e-27
      195.300   6.31707e-27
      195.400   6.22082e-27
      195.500   6.12407e-27
      195.600   5.97824e-27
      195.700   5.75141e-27
      195.800   5.53303e-27
      195.900   5.32286e-27
      196.000   5.12034e-27
      196.100   4.92535e-27
      196.200   4.73768e-27
      196.300   4.55698e-27
      196.400   4.38301e-27
      196.500   4.21548e-27
      196.600   4.05425e-27
      196.700   3.89902e-27
      196.800   3.74988e-27
      196.900   3.60675e-27
      197.000   3.46899e-27
      197.100   3.33634e-27
      197.200   3.20864e-27
      197.300   3.08568e-27
      197.400   2.96726e-27
      197.500   2.85330e-27
      197.600   2.74359e-27
      197.700   2.63852e-27
      197.800   2.53745e-27
      197.900   2.44010e-27
      198.000   2.34640e-27
      198.100   2.25621e-27
      198.200   2.16939e-27
      198.300   2.08578e-27
      198.400   2.00537e-27
      198.500   1.92828e-27
      198.600   1.85419e-27
      198.700   1.79014e-27
      198.800   1.73843e-27
      198.900   1.69316e-27
      199.000   1.64900e-27
      199.100   1.60598e-27
      199.200   1.56406e-27
      199.300   1.52335e-27
      199.400   1.48370e-27
      199.500   1.44507e-27
      199.600   1.40741e-27
      199.700   1.37071e-27
      199.800   1.33497e-27
      199.900   1.30012e-27
      200.000   1.26616e-27
      200.100   1.23322e-27
      200.200   1.20111e-27
      200.300   1.16984e-27
      200.400   1.13937e-27
      200.500   1.10967e-27
      200.600   1.08076e-27
      200.700   1.05260e-27
      200.800   1.02514e-27
      200.900   9.98426e-28
      201.000   9.72407e-28
      201.100   9.47101e-28
      201.200   9.22447e-28
      201.300   8.98426e-28
      201.400   8.75037e-28
      201.500   8.52252e-28
      201.600   8.30046e-28
      201.700   8.08425e-28
      201.800   7.87361e-28
      201.900   7.66243e-28
      202.000   7.35794e-28
      202.100   7.01965e-28
      202.200   6.69687e-28
      202.300   6.38928e-28
      202.400   6.09652e-28
      202.500   5.81731e-28
      202.600   5.55065e-28
      202.700   5.29618e-28
      202.800   5.05353e-28
      202.900   4.82236e-28
      203.000   4.60170e-28
      203.100   4.39118e-28
      203.200   4.19005e-28
      203.300   3.99799e-28
      203.400   3.81467e-28
      203.500   3.63970e-28
      203.600   3.47897e-28
      203.700   3.34264e-28
      203.800   3.21403e-28
      203.900   3.09051e-28
      204.000   2.97170e-28
      204.100   2.85743e-28
      204.200   2.74756e-28
      204.300   2.64187e-28
      204.400   2.54023e-28
      204.500   2.44248e-28
      204.600   2.34847e-28
      204.700   2.25805e-28
      204.800   2.17124e-28
      204.900   2.08787e-28
      205.000   2.00768e-28
      205.100   1.93058e-28
      205.200   1.85639e-28
      205.300   1.78508e-28
      205.400   1.71649e-28
      205.500   1.65051e-28
      205.600   1.58692e-28
      205.700   1.52498e-28
      205.800   1.46525e-28
      205.900   1.40791e-28
      206.000   1.35291e-28
      206.100   1.30002e-28
      206.200   1.24917e-28
      206.300   1.20031e-28
      206.400   1.15336e-28
      206.500   1.10822e-28
      206.600   1.06483e-28
      206.700   1.02313e-28
      206.800   9.83042e-29
      206.900   9.44507e-29
      207.000   9.07478e-29
      207.100   8.71951e-29
      207.200   8.37833e-29
      207.300   8.05021e-29
      207.400   7.73479e-29
      207.500   7.43160e-29
      207.600   7.14025e-29
      207.700   6.86007e-29
      207.800   6.59077e-29
      207.900   6.33193e-29
      208.000   6.08314e-29
      208.100   5.84405e-29
      208.200   5.61420e-29
      208.300   5.39336e-29
      208.400   5.18150e-29
      208.500   4.97791e-29
      208.600   4.78215e-29
      208.700   4.59395e-29
      208.800   4.41309e-29
      208.900   4.23275e-29
      209.000   4.03219e-29
      209.100   3.82257e-29
      209.200   3.62371e-29
      209.300   3.43500e-29
      209.400   3.25608e-29
      209.500   3.08633e-29
      209.600   2.92528e-29
      209.700   2.77275e-29
      209.800   2.62841e-29
      209.900   2.49138e-29
      210.000   2.36148e-29
      210.100   2.23826e-29
      210.200   2.12139e-29
      210.300   2.01056e-29
      210.400   1.90546e-29
      210.500   1.80577e-29
      210.600   1.71126e-29
      210.700   1.62164e-29
      210.800   1.53667e-29
      210.900   1.45608e-29
      211.000   1.37968e-29
      211.100   1.30726e-29
      211.200   1.23860e-29
      211.300   1.17367e-29
      211.400   1.11215e-29
      211.500   1.05380e-29
      211.600   9.98485e-30
      211.700   9.46054e-30
      211.800   8.96320e-30
      211.900   8.49179e-30
      212.000   8.04524e-30
      212.100   7.62178e-30
      212.200   7.22031e-30
      212.300   6.82285e-30
      212.400   6.39893e-30
      212.500   5.98245e-30
      212.600   5.59284e-30
      212.700   5.22834e-30
      212.800   4.88732e-30
      212.900   4.56844e-30
      213.000   4.27034e-30
      213.100   3.99209e-30
      213.200   3.73177e-30
      213.300   3.48830e-30
      213.400   3.26050e-30
      213.500   3.04746e-30
      213.600   2.84818e-30
      213.700   2.66186e-30
      213.800   2.48756e-30
      213.900   2.32466e-30
      214.000   2.17228e-30
      214.100   2.03231e-30
      214.200   1.93057e-30
      214.300   1.85323e-30
      214.400   1.77897e-30
      214.500   1.70767e-30
      214.600   1.63923e-30
      214.700   1.57353e-30
      214.800   1.51046e-30
      214.900   1.44992e-30
      215.000   1.39178e-30
      215.100   1.33599e-30
      215.200   1.28250e-30
      215.300   1.23116e-30
      215.400   1.18186e-30
      215.500   1.13453e-30
      215.600   1.08913e-30
      215.700   1.04552e-30
      215.800   1.00365e-30
      215.900   9.63474e-31
      216.000   9.21071e-31
      216.100   8.71452e-31
      216.200   8.21181e-31
      216.300   7.73802e-31
      216.400   7.29146e-31
      216.500   6.87035e-31
      216.600   6.47358e-31
      216.700   6.09969e-31
      216.800   5.74721e-31
      216.900   5.41510e-31
      217.000   5.10209e-31
      217.100   4.80698e-31
      217.200   4.52895e-31
      217.300   4.26695e-31
      217.400   4.01998e-31
      217.500   3.78736e-31
      217.600   3.56800e-31
      217.700   3.36127e-31
      217.800   3.16654e-31
      217.900   2.98232e-31
      218.000   2.79008e-31
      218.100   2.61015e-31
      218.200   2.44175e-31
      218.300   2.28426e-31
      218.400   2.13700e-31
      218.500   1.99911e-31
      218.600   1.87011e-31
      218.700   1.74936e-31
      218.800   1.63634e-31
      218.900   1.53064e-31
      219.000   1.43166e-31
      219.100   1.33902e-31
      219.200   1.25237e-31
      219.300   1.17129e-31
      219.400   1.09540e-31
      219.500   1.02441e-31
      219.600   9.57981e-32
      219.700   8.95825e-32
      219.800   8.37695e-32
      219.900   7.83297e-32
      220.000   7.32391e-32
      220.100   6.84773e-32
      220.200   6.40230e-32
      220.300   5.98572e-32
      220.400   5.59592e-32
      220.500   5.23145e-32
      220.600   4.89058e-32
      220.700   4.57160e-32
      220.800   4.27324e-32
      220.900   3.99439e-32
      221.000   3.73350e-32
      221.100   3.48945e-32
      221.200   3.26136e-32
      221.300   3.04804e-32
      221.400   2.84852e-32
      221.500   2.66203e-32
      221.600   2.48763e-32
      221.700   2.32455e-32
      221.800   2.18293e-32
      221.900   2.07779e-32
      222.000   1.98550e-32
      222.100   1.89726e-32
      222.200   1.81292e-32
      222.300   1.73231e-32
      222.400   1.65526e-32
      222.500   1.58162e-32
      222.600   1.51124e-32
      222.700   1.44397e-32
      222.800   1.37966e-32
      222.900   1.31822e-32
      223.000   1.25949e-32
      223.100   1.20335e-32
      223.200   1.14972e-32
      223.300   1.09845e-32
      223.400   1.04946e-32
      223.500   1.00262e-32
      223.600   9.57887e-33
      223.700   9.15127e-33
      223.800   8.73398e-33
      223.900   8.27758e-33
      224.000   7.83647e-33
      224.100   7.41877e-33
      224.200   7.02319e-33
      224.300   6.64861e-33
      224.400   6.29372e-33
      224.500   5.95784e-33
      224.600   5.63962e-33
      224.700   5.33847e-33
      224.800   5.05316e-33
      224.900   4.78296e-33
      225.000   4.52717e-33
      225.100   4.28493e-33
      225.200   4.05553e-33
      225.300   3.83849e-33
      225.400   3.63282e-33
      225.500   3.43813e-33
      225.600   3.25379e-33
      225.700   3.07934e-33
      225.800   2.91409e-33
      225.900   2.79987e-33
      226.000   2.70728e-33
      226.100   2.61950e-33
      226.200   2.53453e-33
      226.300   2.45250e-33
      226.400   2.37323e-33
      226.500   2.29644e-33
      226.600   2.22206e-33
      226.700   2.15006e-33
      226.800   2.08037e-33
      226.900   2.01293e-33
      227.000   1.94763e-33
      227.100   1.88445e-33
      227.200   1.82333e-33
      227.300   1.76419e-33
      227.400   1.70695e-33
      227.500   1.65157e-33
      227.600   1.59797e-33
      227.700   1.54612e-33
      227.800   1.49596e-33
      227.900   1.44257e-33
      228.000   1.37880e-33
      228.100   1.31092e-33
      228.200   1.24636e-33
      228.300   1.18497e-33
      228.400   1.12661e-33
      228.500   1.07110e-33
      228.600   1.01833e-33
      228.700   9.68144e-34
      228.800   9.20410e-34
      228.900   8.75046e-34
      229.000   8.31905e-34
      229.100   7.90883e-34
      229.200   7.51876e-34
      229.300   7.14792e-34
      229.400   6.79532e-34
      229.500   6.46007e-34
      229.600   6.14129e-34
      229.700   5.83822e-34
      229.800   5.55007e-34
      229.900   5.27615e-34
      230.000   5.01254e-34
      230.100   4.73803e-34
      230.200   4.46433e-34
      230.300   4.20653e-34
      230.400   3.96345e-34
      230.500   3.73452e-34
      230.600   3.51899e-34
      230.700   3.31579e-34
      230.800   3.12431e-34
      230.900   2.94389e-34
      231.000   2.77378e-34
      231.100   2.61345e-34
      231.200   2.46240e-34
      231.300   2.32006e-34
      231.400   2.18595e-34
      231.500   2.05949e-34
      231.600   1.94029e-34
      231.700   1.82800e-34
      231.800   1.72220e-34
      231.900   1.62247e-34
      232.000   1.52849e-34
      232.100   1.43992e-34
      232.200   1.36858e-34
      232.300   1.31785e-34
      232.400   1.27346e-34
      232.500   1.23057e-34
      232.600   1.18914e-34
      232.700   1.14910e-34
      232.800   1.11042e-34
      232.900   1.07301e-34
      233.000   1.03682e-34
      233.100   1.00186e-34
      233.200   9.68083e-35
      233.300   9.35449e-35
      233.400   9.03920e-35
      233.500   8.73468e-35
      233.600   8.44061e-35
      233.700   8.15643e-35
      233.800   7.87883e-35
      233.900   7.61020e-35
      234.000   7.35070e-35
      234.100   7.10001e-35
      234.200   6.85800e-35
      234.300   6.62413e-35
      234.400   6.39823e-35
      234.500   6.18003e-35
      234.600   5.96923e-35
      234.700   5.76568e-35
      234.800   5.56908e-35
      234.900   5.37913e-35
      235.000   5.19562e-35
      235.100   5.01836e-35
      235.200   4.84717e-35
      235.300   4.68182e-35
      235.400   4.52202e-35
      235.500   4.36774e-35
      235.600   4.21873e-35
      235.700   4.07475e-35
      235.800   3.93589e-35
      235.900   3.80174e-35
      236.000   3.67221e-35
      236.100   3.54702e-35
      236.200   3.42610e-35
      236.300   3.30927e-35
      236.400   3.19647e-35
      236.500   3.08746e-35
      236.600   2.98782e-35
      236.700   2.90371e-35
      236.800   2.82971e-35
      236.900   2.75759e-35
      237.000   2.68728e-35
      237.100   2.61877e-35
      237.200   2.55199e-35
      237.300   2.48692e-35
      237.400   2.42349e-35
      237.500   2.36169e-35
      237.600   2.30139e-35
      237.700   2.24273e-35
      237.800   2.18558e-35
      237.900   2.12983e-35
      238.000   2.07551e-35
      238.100   2.02256e-35
      238.200   1.97096e-35
      238.300   1.92066e-35
      238.400   1.87162e-35
      238.500   1.82381e-35
      238.600   1.77723e-35
      238.700   1.73182e-35
      238.800   1.68757e-35
      238.900   1.64788e-35
      239.000   1.62127e-35
      239.100   1.59646e-35
      239.200   1.57203e-35
      239.300   1.54797e-35
      239.400   1.52427e-35
      239.500   1.50093e-35
      239.600   1.47792e-35
      239.700   1.45526e-35
      239.800   1.43296e-35
      239.900   1.41097e-35
      240.000   1.38930e-35
      240.100   1.36796e-35
      240.200   1.34695e-35
      240.300   1.32624e-35
      240.400   1.30584e-35
      240.500   1.28574e-35
      240.600   1.26595e-35
      240.700   1.24644e-35
      240.800   1.22721e-35
      240.900   1.20830e-35
      241.000   1.18966e-35
      241.100   1.17130e-35
      241.200   1.15322e-35
      241.300   1.13540e-35
      241.400   1.11786e-35
      241.500   1.10058e-35
      241.600   1.08356e-35
      241.700   1.06679e-35
      241.800   1.05027e-35
      241.900   1.03400e-35
      242.000   1.01798e-35
      242.100   1.00220e-35
      242.200   9.86674e-36
      242.300   9.71397e-36
      242.400   9.56343e-36
      242.500   9.41522e-36
      242.600   9.26919e-36
      242.700   9.12540e-36
      242.800   8.98390e-36
      242.900   8.84454e-36
      243.000   8.70726e-36
      243.100   8.57209e-36
      243.200   8.43901e-36
      243.300   8.30794e-36
      243.400   8.17896e-36
      243.500   8.05202e-36
      243.600   7.92712e-36
      243.700   7.80411e-36
      243.800   7.68305e-36
      243.900   7.56383e-36
      244.000   7.44645e-36
      244.100   7.33093e-36
      244.200   7.21723e-36
      244.300   7.10523e-36
      244.400   6.99497e-36
      244.500   6.88651e-36
      244.600   6.77965e-36
      244.700   6.67452e-36
      244.800   6.57119e-36
      244.900   6.46940e-36
      245.000   6.36919e-36
      245.100   6.27056e-36
      245.200   6.17349e-36
      245.300   6.07793e-36
      245.400   5.98383e-36
      245.500   5.89122e-36
      245.600   5.80009e-36
      245.700   5.71035e-36
      245.800   5.62205e-36
      245.900   5.53517e-36
      246.000   5.44974e-36
      246.100   5.36563e-36
      246.200   5.28280e-36
      246.300   5.20129e-36
      246.400   5.12112e-36
      246.500   5.04215e-36
      246.600   4.96439e-36
      246.700   4.88788e-36
      246.800   4.81257e-36
      246.900   4.73846e-36
      247.000   4.66554e-36
      247.100   4.59373e-36
      247.200   4.52317e-36
      247.300   4.45367e-36
      247.400   4.38526e-36
      247.500   4.31791e-36
      247.600   4.25159e-36
      247.700   4.18633e-36
      247.800   4.12211e-36
      247.900   4.05885e-36
      248.000   3.99663e-36
      248.100   3.93549e-36
      248.200   3.87530e-36
      248.300   3.81599e-36
      248.400   3.75760e-36
      248.500   3.67604e-36
      248.600   3.55676e-36
      248.700   3.41629e-36
      248.800   3.28130e-36
      248.900   3.15163e-36
      249.000   3.02701e-36
      249.100   2.90773e-36
      249.200   2.79321e-36
      249.300   2.68314e-36
      249.400   2.57735e-36
      249.500   2.47570e-36
      249.600   2.37800e-36
      249.700   2.28412e-36
      249.800   2.19389e-36
      249.900   2.10720e-36
      250.000   2.02390e-36
      250.100   1.94410e-36
      250.200   1.86747e-36
      250.300   1.79393e-36
      250.400   1.72323e-36
      250.500   1.65530e-36
      250.600   1.59005e-36
      250.700   1.52734e-36
      250.800   1.46710e-36
      250.900   1.40921e-36
      251.000   1.35359e-36
      251.100   1.30016e-36
      251.200   1.24888e-36
      251.300   1.19970e-36
      251.400   1.15246e-36
      251.500   1.10705e-36
      251.600   1.04374e-36
      251.700   9.47160e-37
      251.800   8.54408e-37
      251.900   7.70612e-37
      252.000   6.94915e-37
      252.100   6.26588e-37
      252.200   5.64868e-37
      252.300   5.09277e-37
      252.400   4.59315e-37
      252.500   4.14215e-37
      252.600   3.75671e-37
      252.700   3.53542e-37
      252.800   3.45863e-37
      252.900   3.38355e-37
      253.000   3.31009e-37
      253.100   3.23822e-37
      253.200   3.16793e-37
      253.300   3.09982e-37
      253.400   3.03346e-37
      253.500   2.96863e-37
      253.600   2.90521e-37
      253.700   2.84176e-37
      253.800   2.77312e-37
      253.900   2.70487e-37
      254.000   2.63828e-37
      254.100   2.57331e-37
      254.200   2.50993e-37
      254.300   2.44811e-37
      254.400   2.38782e-37
      254.500   2.32901e-37
      254.600   2.27161e-37
      254.700   2.21566e-37
      254.800   2.16114e-37
      254.900   2.10795e-37
      255.000   2.05608e-37
      255.100   2.00542e-37
      255.200   1.95604e-37
      255.300   1.90786e-37
      255.400   1.86085e-37
      255.500   1.81500e-37
      255.600   1.77026e-37
      255.700   1.72662e-37
      255.800   1.68404e-37
      255.900   1.64250e-37
      256.000   1.60196e-37
      256.100   1.56246e-37
      256.200   1.52393e-37
      256.300   1.48633e-37
      256.400   1.44971e-37
      256.500   1.41394e-37
      256.600   1.37903e-37
      256.700   1.34498e-37
      256.800   1.31178e-37
      256.900   1.27146e-37
      257.000   1.21987e-37
      257.100   1.16653e-37
      257.200   1.11552e-37
      257.300   1.06672e-37
      257.400   1.02016e-37
      257.500   9.75664e-38
      257.600   9.33182e-38
      257.700   8.92556e-38
      257.800   8.53666e-38
      257.900   8.16469e-38
      258.000   7.80880e-38
      258.100   7.46818e-38
      258.200   7.14237e-38
      258.300   6.83072e-38
      258.400   6.53236e-38
      258.500   6.24694e-38
      258.600   5.97395e-38
      258.700   5.71274e-38
      258.800   5.46282e-38
      258.900   5.22386e-38
      259.000   4.99515e-38
      259.100   4.77642e-38
      259.200   4.56733e-38
      259.300   4.36765e-38
      259.400   4.17653e-38
      259.500   3.99371e-38
      259.600   3.81884e-38
      259.700   3.65161e-38
      259.800   3.49161e-38
      259.900   3.33850e-38
      260.000   3.19209e-38
      260.100   3.04149e-38
      260.200   2.88492e-38
      260.300   2.73407e-38
      260.400   2.59106e-38
      260.500   2.45550e-38
      260.600   2.32690e-38
      260.700   2.20501e-38
      260.800   2.08952e-38
      260.900   1.97997e-38
      261.000   1.87622e-38
      261.100   1.77797e-38
      261.200   1.68430e-38
      261.300   1.59549e-38
      261.400   1.51133e-38
      261.500   1.43161e-38
      261.600   1.35618e-38
      261.700   1.28472e-38
      261.800   1.21701e-38
      261.900   1.15281e-38
      262.000   1.09199e-38
      262.100   1.03435e-38
      262.200   9.79762e-39
      262.300   9.28016e-39
      262.400   8.78992e-39
      262.500   8.32528e-39
      262.600   7.88502e-39
      262.700   7.46805e-39
      262.800   7.07298e-39
      262.900   6.69849e-39
      263.000   6.34404e-39
      263.100   6.00811e-39
      263.200   5.69041e-39
      263.300   5.38945e-39
      263.400   5.10426e-39
      263.500   4.83419e-39
      263.600   4.57831e-39
      263.700   4.33588e-39
      263.800   4.10618e-39
      263.900   3.88876e-39
      264.000   3.68269e-39
      264.100   3.48743e-39
      264.200   3.30246e-39
      264.300   3.12737e-39
      264.400   2.96150e-39
      264.500   2.80433e-39
      264.600   2.65545e-39
      264.700   2.51448e-39
      264.800   2.38091e-39
      264.900   2.25447e-39
      265.000   2.13471e-39
      265.100   2.02122e-39
      265.200   1.91377e-39
      265.300   1.81201e-39
      265.400   1.71427e-39
      265.500   1.62126e-39
      265.600   1.53331e-39
      265.700   1.45003e-39
      265.800   1.37136e-39
      265.900   1.29698e-39
      266.000   1.22666e-39
      266.100   1.16013e-39
      266.200   1.09722e-39
      266.300   1.03767e-39
      266.400   9.81370e-40
      266.500   9.28091e-40
      266.600   8.77700e-40
      266.700   8.30031e-40
      266.800   7.84972e-40
      266.900   7.42327e-40
      267.000   7.01987e-40
      267.100   6.63830e-40
      267.200   6.27775e-40
      267.300   5.93649e-40
      267.400   5.61367e-40
      267.500   5.30840e-40
      267.600   5.01970e-40
      267.700   4.74666e-40
      267.800   4.48832e-40
      267.900   4.24406e-40
      268.000   4.01316e-40
      268.100   3.79466e-40
      268.200   3.58819e-40
      268.300   3.39285e-40
      268.400   3.20809e-40
      268.500   3.03329e-40
      268.600   2.86808e-40
      268.700   2.71185e-40
      268.800   2.56408e-40
      268.900   2.42437e-40
      269.000   2.29231e-40
      269.100   2.16730e-40
      269.200   2.04924e-40
      269.300   1.93749e-40
      269.400   1.83186e-40
      269.500   1.73189e-40
      269.600   1.63749e-40
      269.700   1.53416e-40
      269.800   1.43412e-40
      269.900   1.34044e-40
      270.000   1.25290e-40
      270.100   1.17105e-40
      270.200   1.09460e-40
      270.300   1.02312e-40
      270.400   9.56288e-41
      270.500   8.93790e-41
      270.600   8.35328e-41
      270.700   7.80719e-41
      270.800   7.29600e-41
      270.900   6.81928e-41
      271.000   6.37297e-41
      271.100   5.95566e-41
      271.200   5.56526e-41
      271.300   5.20078e-41
      271.400   4.86054e-41
      271.500   4.54231e-41
      271.600   4.24425e-41
      271.700   3.96553e-41
      271.800   3.70545e-41
      271.900   3.46177e-41
      272.000   3.23490e-41
      272.100   3.02246e-41
      272.200   2.82432e-41
      272.300   2.63907e-41
      272.400   2.46516e-41
      272.500   2.30289e-41
      272.600   2.15113e-41
      272.700   2.01030e-41
      272.800   1.88377e-41
      272.900   1.78273e-41
      273.000   1.69459e-41
      273.100   1.61051e-41
      273.200   1.53106e-41
      273.300   1.45497e-41
      273.400   1.38308e-41
      273.500   1.31442e-41
      273.600   1.24954e-41
      273.700   1.18760e-41
      273.800   1.12875e-41
      273.900   1.06387e-41
      274.000   9.84412e-42
      274.100   9.10283e-42
      274.200   8.41900e-42
      274.300   7.78561e-42
      274.400   7.20127e-42
      274.500   6.65897e-42
      274.600   6.16011e-42
      274.700   5.69067e-42
      274.800   5.26188e-42
      274.900   4.86251e-42
      275.000   4.49256e-42
      275.100   4.15625e-42
      275.200   3.84096e-42
      275.300   3.54949e-42
      275.400   3.28184e-42
      275.500   3.03241e-42
      275.600   2.79559e-42
      275.700   2.58540e-42
      275.800   2.38921e-42
      275.900   2.21125e-42
      276.000   2.05430e-42
      276.100   1.93659e-42
      276.200   1.83990e-42
      276.300   1.74181e-42
      276.400   1.64793e-42
      276.500   1.56245e-42
      276.600   1.48538e-42
      276.700   1.40550e-42
      276.800   1.32843e-42
      276.900   1.25837e-42
      277.000   1.19110e-42
      277.100   1.12805e-42
      277.200   1.07339e-42
      277.300   1.01594e-42
      277.400   9.65495e-43
      277.500   9.10844e-43
      277.600   8.63200e-43
      277.700   8.14154e-43
      277.800   7.73517e-43
      277.900   7.31478e-43
      278.000   6.99248e-43
      278.100   6.61413e-43
      278.200   6.13769e-43
      278.300   5.68927e-43
      278.400   5.26888e-43
      278.500   4.86251e-43
      278.600   4.49817e-43
      278.700   4.18988e-43
      278.800   3.86758e-43
      278.900   3.54529e-43
      279.000   3.32108e-43
      279.100   3.06884e-43
      279.200   2.81661e-43
      279.300   2.64845e-43
      279.400   2.49431e-43
      279.500   2.32616e-43
      279.600   2.17201e-43
      279.700   2.10195e-43
      279.800   1.94780e-43
      279.900   1.82169e-43
      280.000   1.72360e-43
      280.100   1.59748e-43
      280.200   1.49939e-43
      280.300   1.40130e-43
      280.400   1.27518e-43
      280.500   1.21913e-43
      280.600   1.12104e-43
      280.700   1.05097e-43
      280.800   9.94922e-44
      280.900   9.94922e-44
      281.000   9.24857e-44
      281.100   8.68805e-44
      281.200   7.98740e-44
      281.300   7.70714e-44
      281.400   7.00649e-44
      281.500   7.00649e-44
      281.600   6.72623e-44
      281.700   6.02558e-44
      281.800   6.02558e-44
      281.900   5.46506e-44
      282.000   5.46506e-44
      282.100   5.04467e-44
      282.200   4.76441e-44
      282.300   4.76441e-44
      282.400   4.48416e-44
      282.500   4.20390e-44
      282.600   4.20390e-44
      282.700   3.78351e-44
      282.800   3.78351e-44
      282.900   3.50325e-44
      283.000   3.50325e-44
      283.100   3.22299e-44
      283.200   3.22299e-44
      283.300   2.94273e-44
      283.400   2.94273e-44
      283.500   2.52234e-44
      283.600   2.52234e-44
      283.700   2.24208e-44
      283.800   2.24208e-44
      283.900   2.24208e-44
      284.000   1.96182e-44
      284.100   1.96182e-44
      284.200   1.54143e-44
      284.300   1.54143e-44
      284.400   1.54143e-44
      284.500   1.26117e-44
      284.600   1.26117e-44
      284.700   1.26117e-44
      284.800   1.26117e-44
      284.900   1.26117e-44
      285.000   9.80909e-45
      285.100   9.80909e-45
      285.200   9.80909e-45
      285.300   9.80909e-45
      285.400   9.80909e-45
      285.500   9.80909e-45
      285.600   7.00649e-45
      285.700   7.00649e-45
      285.800   7.00649e-45
      285.900   7.00649e-45
      286.000   7.00649e-45
      286.100   7.00649e-45
      286.200   7.00649e-45
      286.300   2.80260e-45
      286.400   2.80260e-45
      286.500   2.80260e-45
      286.600   2.80260e-45
      286.700   2.80260e-45
      286.800   2.80260e-45
      286.900   2.80260e-45
      287.000   2.80260e-45
      287.100   2.80260e-45
      287.200   2.80260e-45
      287.300   2.80260e-45
      287.400   2.80260e-45
      287.500   2.80260e-45
      287.600   2.80260e-45
      287.700   2.80260e-45
      287.800       0.00000
      287.900       0.00000
      288.000       0.00000
      288.100       0.00000
      288.200       0.00000
      288.300       0.00000
      288.400       0.00000
      288.500       0.00000
      288.600       0.00000
      288.700       0.00000
      288.800       0.00000
      288.900       0.00000
      289.000       0.00000
      289.100       0.00000
      289.200       0.00000
      289.300       0.00000
      289.400       0.00000
      289.500       0.00000
      289.600       0.00000
      289.700       0.00000
      289.800       0.00000
      289.900       0.00000
      290.000       0.00000
      290.100       0.00000
      290.200       0.00000
      290.300       0.00000
      290.400       0.00000
      290.500       0.00000
      290.600       0.00000
      290.700       0.00000
      290.800       0.00000
      290.900       0.00000
      291.000       0.00000
      291.100       0.00000
      291.200       0.00000
      291.300       0.00000
      291.400       0.00000
      291.500       0.00000
      291.600       0.00000
      291.700       0.00000
      291.800       0.00000
      291.900       0.00000
      292.000       0.00000
      292.100       0.00000
      292.200       0.00000
      292.300       0.00000
      292.400       0.00000
      292.500       0.00000
      292.600       0.00000
      292.700       0.00000
      292.800       0.00000
      292.900       0.00000
      293.000       0.00000
      293.100       0.00000
      293.200       0.00000
      293.300       0.00000
      293.400       0.00000
      293.500       0.00000
      293.600       0.00000
      293.700       0.00000
      293.800       0.00000
      293.900       0.00000
      294.000       0.00000
      294.100       0.00000
      294.200       0.00000
      294.300       0.00000
      294.400       0.00000
      294.500       0.00000
      294.600       0.00000
      294.700       0.00000
      294.800       0.00000
      294.900       0.00000
      295.000       0.00000
      295.100       0.00000
      295.200       0.00000
      295.300       0.00000
      295.400       0.00000
      295.500       0.00000
      295.600       0.00000
      295.700       0.00000
      295.800       0.00000
      295.900       0.00000
      296.000       0.00000
      296.100       0.00000
      296.200       0.00000
      296.300       0.00000
      296.400       0.00000
      296.500       0.00000
      296.600       0.00000
      296.700       0.00000
      296.800       0.00000
      296.900       0.00000
      297.000       0.00000
      297.100       0.00000
      297.200       0.00000
      297.300       0.00000
      297.400       0.00000
      297.500       0.00000
      297.600       0.00000
      297.700       0.00000
      297.800       0.00000
      297.900       0.00000
      298.000       0.00000
      298.100       0.00000
      298.200       0.00000
      298.300       0.00000
      298.400       0.00000
      298.500       0.00000
      298.600       0.00000
      298.700       0.00000
      298.800       0.00000
      298.900       0.00000
      299.000       0.00000
      299.100       0.00000
      299.200       0.00000
      299.300       0.00000
      299.400       0.00000
      299.500       0.00000
      299.600       0.00000
      299.700       0.00000
      299.800       0.00000
      299.900       0.00000
      300.000       0.00000
      300.100       0.00000
      300.192       0.00000
      300.285       0.00000
      300.377       0.00000
      300.470       0.00000
      300.562       0.00000
      300.654       0.00000
      300.747       0.00000
      300.839       0.00000
      300.932       0.00000
      301.025       0.00000
      301.117       0.00000
      301.210       0.00000
      301.303       0.00000
      301.395       0.00000
      301.488       0.00000
      301.581       0.00000
      301.674       0.00000
      301.766       0.00000
      301.859       0.00000
      301.952       0.00000
      302.045       0.00000
      302.138       0.00000
      302.231       0.00000
      302.324       0.00000
      302.417       0.00000
      302.510       0.00000
      302.603       0.00000
      302.696       0.00000
      302.789       0.00000
      302.882       0.00000
      302.976       0.00000
      303.069       0.00000
      303.162       0.00000
      303.255       0.00000
      303.349       0.00000
      303.442       0.00000
      303.535       0.00000
      303.629       0.00000
      303.722       0.00000
      303.816       0.00000
      303.909       0.00000
      304.003       0.00000
      304.096       0.00000
      304.190       0.00000
      304.283       0.00000
      304.377       0.00000
      304.471       0.00000
      304.564       0.00000
      304.658       0.00000
      304.752       0.00000
      304.846       0.00000
      304.939       0.00000
      305.033       0.00000
      305.127       0.00000
      305.221       0.00000
      305.315       0.00000
      305.409       0.00000
      305.503       0.00000
      305.597       0.00000
      305.691       0.00000
      305.785       0.00000
      305.879       0.00000
      305.973       0.00000
      306.067       0.00000
      306.161       0.00000
      306.255       0.00000
      306.350       0.00000
      306.444       0.00000
      306.538       0.00000
      306.633       0.00000
      306.727       0.00000
      306.821       0.00000
      306.916       0.00000
      307.010       0.00000
      307.105       0.00000
      307.199       0.00000
      307.294       0.00000
      307.388       0.00000
      307.483       0.00000
      307.577       0.00000
      307.672       0.00000
      307.767       0.00000
      307.861       0.00000
      307.956       0.00000
      308.051       0.00000
      308.146       0.00000
      308.240       0.00000
      308.335       0.00000
      308.430       0.00000
      308.525       0.00000
      308.620       0.00000
      308.715       0.00000
      308.810       0.00000
      308.905       0.00000
      309.000       0.00000
      309.095       0.00000
      309.190       0.00000
      309.285       0.00000
      309.380       0.00000
      309.476       0.00000
      309.571       0.00000
      309.666       0.00000
      309.761       0.00000
      309.857       0.00000
      309.952       0.00000
      310.047       0.00000
      310.143       0.00000
      310.238       0.00000
      310.334       0.00000
      310.429       0.00000
      310.525       0.00000
      310.620       0.00000
      310.716       0.00000
      310.811       0.00000
      310.907       0.00000
      311.003       0.00000
      311.098       0.00000
      311.194       0.00000
      311.290       0.00000
      311.386       0.00000
      311.481       0.00000
      311.577       0.00000
      311.673       0.00000
      311.769       0.00000
      311.865       0.00000
      311.961       0.00000
      312.057       0.00000
      312.153       0.00000
      312.249       0.00000
      312.345       0.00000
      312.441       0.00000
      312.537       0.00000
      312.633       0.00000
      312.730       0.00000
      312.826       0.00000
      312.922       0.00000
      313.018       0.00000
      313.115       0.00000
      313.211       0.00000
      313.307       0.00000
      313.404       0.00000
      313.500       0.00000
      313.597       0.00000
      313.693       0.00000
      313.790       0.00000
      313.886       0.00000
      313.983       0.00000
      314.079       0.00000
      314.176       0.00000
      314.273       0.00000
      314.369       0.00000
      314.466       0.00000
      314.563       0.00000
      314.660       0.00000
      314.756       0.00000
      314.853       0.00000
      314.950       0.00000
      315.047       0.00000
      315.144       0.00000
      315.241       0.00000
      315.338       0.00000
      315.435       0.00000
      315.532       0.00000
      315.629       0.00000
      315.726       0.00000
      315.823       0.00000
      315.921       0.00000
      316.018       0.00000
      316.115       0.00000
      316.212       0.00000
      316.310       0.00000
      316.407       0.00000
      316.504       0.00000
      316.602       0.00000
      316.699       0.00000
      316.796       0.00000
      316.894       0.00000
      316.991       0.00000
      317.089       0.00000
      317.187       0.00000
      317.284       0.00000
      317.382       0.00000
      317.479       0.00000
      317.577       0.00000
      317.675       0.00000
      317.773       0.00000
      317.870       0.00000
      317.968       0.00000
      318.066       0.00000
      318.164       0.00000
      318.262       0.00000
      318.360       0.00000
      318.458       0.00000
      318.556       0.00000
      318.654       0.00000
      318.752       0.00000
      318.850       0.00000
      318.948       0.00000
      319.046       0.00000
      319.144       0.00000
      319.242       0.00000
      319.341       0.00000
      319.439       0.00000
      319.537       0.00000
      319.635       0.00000
      319.734       0.00000
      319.832       0.00000
      319.930       0.00000
      320.029       0.00000
      320.127       0.00000
      320.226       0.00000
      320.324       0.00000
      320.423       0.00000
      320.522       0.00000
      320.620       0.00000
      320.719       0.00000
      320.818       0.00000
      320.916       0.00000
      321.015       0.00000
      321.114       0.00000
      321.213       0.00000
      321.311       0.00000
      321.410       0.00000
      321.509       0.00000
      321.608       0.00000
      321.707       0.00000
      321.806       0.00000
      321.905       0.00000
      322.004       0.00000
      322.103       0.00000
      322.202       0.00000
      322.301       0.00000
      322.401       0.00000
      322.500       0.00000
      322.599       0.00000
      322.698       0.00000
      322.798       0.00000
      322.897       0.00000
      322.996       0.00000
      323.096       0.00000
      323.195       0.00000
      323.294       0.00000
      323.394       0.00000
      323.493       0.00000
      323.593       0.00000
      323.692       0.00000
      323.792       0.00000
      323.892       0.00000
      323.991       0.00000
      324.091       0.00000
      324.191       0.00000
      324.291       0.00000
      324.390       0.00000
      324.490       0.00000
      324.590       0.00000
      324.690       0.00000
      324.790       0.00000
      324.890       0.00000
      324.990       0.00000
      325.090       0.00000
      325.190       0.00000
      325.290       0.00000
      325.390       0.00000
      325.490       0.00000
      325.590       0.00000
      325.690       0.00000
      325.790       0.00000
      325.891       0.00000
      325.991       0.00000
      326.091       0.00000
      326.192       0.00000
      326.292       0.00000
      326.392       0.00000
      326.493       0.00000
      326.593       0.00000
      326.694       0.00000
      326.794       0.00000
      326.895       0.00000
      326.995       0.00000
      327.096       0.00000
      327.197       0.00000
      327.297       0.00000
      327.398       0.00000
      327.499       0.00000
      327.599       0.00000
      327.700       0.00000
      327.801       0.00000
      327.902       0.00000
      328.003       0.00000
      328.104       0.00000
      328.205       0.00000
      328.306       0.00000
      328.407       0.00000
      328.508       0.00000
      328.609       0.00000
      328.710       0.00000
      328.811       0.00000
      328.912       0.00000
      329.013       0.00000
      329.115       0.00000
      329.216       0.00000
      329.317       0.00000
      329.419       0.00000
      329.520       0.00000
      329.621       0.00000
      329.723       0.00000
      329.824       0.00000
      329.926       0.00000
      330.027       0.00000
      330.129       0.00000
      330.230       0.00000
      330.332       0.00000
      330.434       0.00000
      330.535       0.00000
      330.637       0.00000
      330.739       0.00000
      330.840       0.00000
      330.942       0.00000
      331.044       0.00000
      331.146       0.00000
      331.248       0.00000
      331.350       0.00000
      331.452       0.00000
      331.554       0.00000
      331.656       0.00000
      331.758       0.00000
      331.860       0.00000
      331.962       0.00000
      332.064       0.00000
      332.166       0.00000
      332.268       0.00000
      332.371       0.00000
      332.473       0.00000
      332.575       0.00000
      332.677       0.00000
      332.780       0.00000
      332.882       0.00000
      332.985       0.00000
      333.087       0.00000
      333.190       0.00000
      333.292       0.00000
      333.395       0.00000
      333.497       0.00000
      333.600       0.00000
      333.702       0.00000
      333.805       0.00000
      333.908       0.00000
      334.011       0.00000
      334.113       0.00000
      334.216       0.00000
      334.319       0.00000
      334.422       0.00000
      334.525       0.00000
      334.628       0.00000
      334.731       0.00000
      334.834       0.00000
      334.937       0.00000
      335.040       0.00000
      335.143       0.00000
      335.246       0.00000
      335.349       0.00000
      335.452       0.00000
      335.555       0.00000
      335.659       0.00000
      335.762       0.00000
      335.865       0.00000
      335.969       0.00000
      336.072       0.00000
      336.175       0.00000
      336.279       0.00000
      336.382       0.00000
      336.486       0.00000
      336.589       0.00000
      336.693       0.00000
      336.796       0.00000
      336.900       0.00000
      337.004       0.00000
      337.107       0.00000
      337.211       0.00000
      337.315       0.00000
      337.419       0.00000
      337.523       0.00000
      337.626       0.00000
      337.730       0.00000
      337.834       0.00000
      337.938       0.00000
      338.042       0.00000
      338.146       0.00000
      338.250       0.00000
      338.354       0.00000
      338.458       0.00000
      338.562       0.00000
      338.667       0.00000
      338.771       0.00000
      338.875       0.00000
      338.979       0.00000
      339.084       0.00000
      339.188       0.00000
      339.292       0.00000
      339.397       0.00000
      339.501       0.00000
      339.606       0.00000
      339.710       0.00000
      339.815       0.00000
      339.919       0.00000
      340.024       0.00000
      340.128       0.00000
      340.233       0.00000
      340.338       0.00000
      340.442       0.00000
      340.547       0.00000
      340.652       0.00000
      340.757       0.00000
      340.862       0.00000
      340.966       0.00000
      341.071       0.00000
      341.176       0.00000
      341.281       0.00000
      341.386       0.00000
      341.491       0.00000
      341.596       0.00000
      341.702       0.00000
      341.807       0.00000
      341.912       0.00000
      342.017       0.00000
      342.122       0.00000
      342.228       0.00000
      342.333       0.00000
      342.438       0.00000
      342.544       0.00000
      342.649       0.00000
      342.754       0.00000
      342.860       0.00000
      342.965       0.00000
      343.071       0.00000
      343.176       0.00000
      343.282       0.00000
      343.388       0.00000
      343.493       0.00000
      343.599       0.00000
      343.705       0.00000
      343.810       0.00000
      343.916       0.00000
      344.022       0.00000
      344.128       0.00000
      344.234       0.00000
      344.340       0.00000
      344.446       0.00000
      344.552       0.00000
      344.658       0.00000
      344.764       0.00000
      344.870       0.00000
      344.976       0.00000
      345.082       0.00000
      345.188       0.00000
      345.294       0.00000
      345.401       0.00000
      345.507       0.00000
      345.613       0.00000
      345.719       0.00000
      345.826       0.00000
      345.932       0.00000
      346.039       0.00000
      346.145       0.00000
      346.252       0.00000
      346.358       0.00000
      346.465       0.00000
      346.571       0.00000
      346.678       0.00000
      346.785       0.00000
      346.891       0.00000
      346.998       0.00000
      347.105       0.00000
      347.212       0.00000
      347.319       0.00000
      347.425       0.00000
      347.532       0.00000
      347.639       0.00000
      347.746       0.00000
      347.853       0.00000
      347.960       0.00000
      348.067       0.00000
      348.174       0.00000
      348.281       0.00000
      348.389       0.00000
      348.496       0.00000
      348.603       0.00000
      348.710       0.00000
      348.818       0.00000
      348.925       0.00000
      349.032       0.00000
      349.140       0.00000
      349.247       0.00000
      349.355       0.00000
      349.462       0.00000
      349.570       0.00000
      349.677       0.00000
      349.785       0.00000
      349.892       0.00000
      350.000       0.00000
      350.100       0.00000
      350.193       0.00000
      350.287       0.00000
      350.380       0.00000
      350.473       0.00000
      350.567       0.00000
      350.660       0.00000
      350.754       0.00000
      350.847       0.00000
      350.941       0.00000
      351.034       0.00000
      351.128       0.00000
      351.221       0.00000
      351.315       0.00000
      351.409       0.00000
      351.502       0.00000
      351.596       0.00000
      351.690       0.00000
      351.783       0.00000
      351.877       0.00000
      351.971       0.00000
      352.065       0.00000
      352.159       0.00000
      352.252       0.00000
      352.346       0.00000
      352.440       0.00000
      352.534       0.00000
      352.628       0.00000
      352.722       0.00000
      352.816       0.00000
      352.910       0.00000
      353.004       0.00000
      353.098       0.00000
      353.192       0.00000
      353.287       0.00000
      353.381       0.00000
      353.475       0.00000
      353.569       0.00000
      353.663       0.00000
      353.758       0.00000
      353.852       0.00000
      353.946       0.00000
      354.041       0.00000
      354.135       0.00000
      354.229       0.00000
      354.324       0.00000
      354.418       0.00000
      354.513       0.00000
      354.607       0.00000
      354.702       0.00000
      354.796       0.00000
      354.891       0.00000
      354.985       0.00000
      355.080       0.00000
      355.175       0.00000
      355.269       0.00000
      355.364       0.00000
      355.459       0.00000
      355.553       0.00000
      355.648       0.00000
      355.743       0.00000
      355.838       0.00000
      355.933       0.00000
      356.027       0.00000
      356.122       0.00000
      356.217       0.00000
      356.312       0.00000
      356.407       0.00000
      356.502       0.00000
      356.597       0.00000
      356.692       0.00000
      356.787       0.00000
      356.882       0.00000
      356.977       0.00000
      357.073       0.00000
      357.168       0.00000
      357.263       0.00000
      357.358       0.00000
      357.453       0.00000
      357.549       0.00000
      357.644       0.00000
      357.739       0.00000
      357.835       0.00000
      357.930       0.00000
      358.025       0.00000
      358.121       0.00000
      358.216       0.00000
      358.312       0.00000
      358.407       0.00000
      358.503       0.00000
      358.598       0.00000
      358.694       0.00000
      358.790       0.00000
      358.885       0.00000
      358.981       0.00000
      359.076       0.00000
      359.172       0.00000
      359.268       0.00000
      359.364       0.00000
      359.459       0.00000
      359.555       0.00000
      359.651       0.00000
      359.747       0.00000
      359.843       0.00000
      359.939       0.00000
      360.035       0.00000
      360.131       0.00000
      360.227       0.00000
      360.323       0.00000
      360.419       0.00000
      360.515       0.00000
      360.611       0.00000
      360.707       0.00000
      360.803       0.00000
      360.899       0.00000
      360.995       0.00000
      361.092       0.00000
      361.188       0.00000
      361.284       0.00000
      361.380       0.00000
      361.477       0.00000
      361.573       0.00000
      361.669       0.00000
      361.766       0.00000
      361.862       0.00000
      361.959       0.00000
      362.055       0.00000
      362.152       0.00000
      362.248       0.00000
      362.345       0.00000
      362.441       0.00000
      362.538       0.00000
      362.635       0.00000
      362.731       0.00000
      362.828       0.00000
      362.925       0.00000
      363.021       0.00000
      363.118       0.00000
      363.215       0.00000
      363.312       0.00000
      363.409       0.00000
      363.505       0.00000
      363.602       0.00000
      363.699       0.00000
      363.796       0.00000
      363.893       0.00000
      363.990       0.00000
      364.087       0.00000
      364.184       0.00000
      364.281       0.00000
      364.378       0.00000
      364.475       0.00000
      364.573       0.00000
      364.670       0.00000
      364.767       0.00000
      364.864       0.00000
      364.961       0.00000
      365.059       0.00000
      365.156       0.00000
      365.253       0.00000
      365.351       0.00000
      365.448       0.00000
      365.545       0.00000
      365.643       0.00000
      365.740       0.00000
      365.838       0.00000
      365.935       0.00000
      366.033       0.00000
      366.130       0.00000
      366.228       0.00000
      366.326       0.00000
      366.423       0.00000
      366.521       0.00000
      366.618       0.00000
      366.716       0.00000
      366.814       0.00000
      366.912       0.00000
      367.010       0.00000
      367.107       0.00000
      367.205       0.00000
      367.303       0.00000
      367.401       0.00000
      367.499       0.00000
      367.597       0.00000
      367.695       0.00000
      367.793       0.00000
      367.891       0.00000
      367.989       0.00000
      368.087       0.00000
      368.185       0.00000
      368.283       0.00000
      368.381       0.00000
      368.480       0.00000
      368.578       0.00000
      368.676       0.00000
      368.774       0.00000
      368.873       0.00000
      368.971       0.00000
      369.069       0.00000
      369.168       0.00000
      369.266       0.00000
      369.364       0.00000
      369.463       0.00000
      369.561       0.00000
      369.660       0.00000
      369.758       0.00000
      369.857       0.00000
      369.955       0.00000
      370.054       0.00000
      370.153       0.00000
      370.251       0.00000
      370.350       0.00000
      370.449       0.00000
      370.547       0.00000
      370.646       0.00000
      370.745       0.00000
      370.844       0.00000
      370.943       0.00000
      371.041       0.00000
      371.140       0.00000
      371.239       0.00000
      371.338       0.00000
      371.437       0.00000
      371.536       0.00000
      371.635       0.00000
      371.734       0.00000
      371.833       0.00000
      371.932       0.00000
      372.032       0.00000
      372.131       0.00000
      372.230       0.00000
      372.329       0.00000
      372.428       0.00000
      372.528       0.00000
      372.627       0.00000
      372.726       0.00000
      372.826       0.00000
      372.925       0.00000
      373.024       0.00000
      373.124       0.00000
      373.223       0.00000
      373.323       0.00000
      373.422       0.00000
      373.522       0.00000
      373.621       0.00000
      373.721       0.00000
      373.820       0.00000
      373.920       0.00000
      374.020       0.00000
      374.119       0.00000
      374.219       0.00000
      374.319       0.00000
      374.419       0.00000
      374.518       0.00000
      374.618       0.00000
      374.718       0.00000
      374.818       0.00000
      374.918       0.00000
      375.018       0.00000
      375.118       0.00000
      375.218       0.00000
      375.318       0.00000
      375.418       0.00000
      375.518       0.00000
      375.618       0.00000
      375.718       0.00000
      375.818       0.00000
      375.918       0.00000
      376.019       0.00000
      376.119       0.00000
      376.219       0.00000
      376.319       0.00000
      376.420       0.00000
      376.520       0.00000
      376.620       0.00000
      376.721       0.00000
      376.821       0.00000
      376.922       0.00000
      377.022       0.00000
      377.122       0.00000
      377.223       0.00000
      377.323       0.00000
      377.424       0.00000
      377.525       0.00000
      377.625       0.00000
      377.726       0.00000
      377.827       0.00000
      377.927       0.00000
      378.028       0.00000
      378.129       0.00000
      378.230       0.00000
      378.330       0.00000
      378.431       0.00000
      378.532       0.00000
      378.633       0.00000
      378.734       0.00000
      378.835       0.00000
      378.936       0.00000
      379.037       0.00000
      379.138       0.00000
      379.239       0.00000
      379.340       0.00000
      379.441       0.00000
      379.542       0.00000
      379.643       0.00000
      379.745       0.00000
      379.846       0.00000
      379.947       0.00000
      380.048       0.00000
      380.150       0.00000
      380.251       0.00000
      380.352       0.00000
      380.454       0.00000
      380.555       0.00000
      380.656       0.00000
      380.758       0.00000
      380.859       0.00000
      380.961       0.00000
      381.062       0.00000
      381.164       0.00000
      381.266       0.00000
      381.367       0.00000
      381.469       0.00000
      381.570       0.00000
      381.672       0.00000
      381.774       0.00000
      381.876       0.00000
      381.977       0.00000
      382.079       0.00000
      382.181       0.00000
      382.283       0.00000
      382.385       0.00000
      382.487       0.00000
      382.589       0.00000
      382.691       0.00000
      382.793       0.00000
      382.895       0.00000
      382.997       0.00000
      383.099       0.00000
      383.201       0.00000
      383.303       0.00000
      383.405       0.00000
      383.507       0.00000
      383.610       0.00000
      383.712       0.00000
      383.814       0.00000
      383.916       0.00000
      384.019       0.00000
      384.121       0.00000
      384.223       0.00000
      384.326       0.00000
      384.428       0.00000
      384.531       0.00000
      384.633       0.00000
      384.736       0.00000
      384.838       0.00000
      384.941       0.00000
      385.043       0.00000
      385.146       0.00000
      385.249       0.00000
      385.351       0.00000
      385.454       0.00000
      385.557       0.00000
      385.660       0.00000
      385.762       0.00000
      385.865       0.00000
      385.968       0.00000
      386.071       0.00000
      386.174       0.00000
      386.277       0.00000
      386.380       0.00000
      386.483       0.00000
      386.586       0.00000
      386.689       0.00000
      386.792       0.00000
      386.895       0.00000
      386.998       0.00000
      387.101       0.00000
      387.204       0.00000
      387.308       0.00000
      387.411       0.00000
      387.514       0.00000
      387.617       0.00000
      387.721       0.00000
      387.824       0.00000
      387.927       0.00000
      388.031       0.00000
      388.134       0.00000
      388.238       0.00000
      388.341       0.00000
      388.445       0.00000
      388.548       0.00000
      388.652       0.00000
      388.755       0.00000
      388.859       0.00000
      388.962       0.00000
      389.066       0.00000
      389.170       0.00000
      389.274       0.00000
      389.377       0.00000
      389.481       0.00000
      389.585       0.00000
      389.689       0.00000
      389.793       0.00000
      389.897       0.00000
      390.000       0.00000
      390.104       0.00000
      390.208       0.00000
      390.312       0.00000
      390.416       0.00000
      390.520       0.00000
      390.625       0.00000
      390.729       0.00000
      390.833       0.00000
      390.937       0.00000
      391.041       0.00000
      391.145       0.00000
      391.250       0.00000
      391.354       0.00000
      391.458       0.00000
      391.563       0.00000
      391.667       0.00000
      391.771       0.00000
      391.876       0.00000
      391.980       0.00000
      392.085       0.00000
      392.189       0.00000
      392.294       0.00000
      392.398       0.00000
      392.503       0.00000
      392.607       0.00000
      392.712       0.00000
      392.817       0.00000
      392.921       0.00000
      393.026       0.00000
      393.131       0.00000
      393.236       0.00000
      393.340       0.00000
      393.445       0.00000
      393.550       0.00000
      393.655       0.00000
      393.760       0.00000
      393.865       0.00000
      393.970       0.00000
      394.075       0.00000
      394.180       0.00000
      394.285       0.00000
      394.390       0.00000
      394.495       0.00000
      394.600       0.00000
      394.706       0.00000
      394.811       0.00000
      394.916       0.00000
      395.021       0.00000
      395.126       0.00000
      395.232       0.00000
      395.337       0.00000
      395.443       0.00000
      395.548       0.00000
      395.653       0.00000
      395.759       0.00000
      395.864       0.00000
      395.970       0.00000
      396.075       0.00000
      396.181       0.00000
      396.286       0.00000
      396.392       0.00000
      396.498       0.00000
      396.603       0.00000
      396.709       0.00000
      396.815       0.00000
      396.921       0.00000
      397.026       0.00000
      397.132       0.00000
      397.238       0.00000
      397.344       0.00000
      397.450       0.00000
      397.556       0.00000
      397.662       0.00000
      397.768       0.00000
      397.874       0.00000
      397.980       0.00000
      398.086       0.00000
      398.192       0.00000
      398.298       0.00000
      398.404       0.00000
      398.510       0.00000
      398.617       0.00000
      398.723       0.00000
      398.829       0.00000
      398.935       0.00000
      399.042       0.00000
      399.148       0.00000
      399.255       0.00000
      399.361       0.00000
      399.467       0.00000
      399.574       0.00000
      399.680       0.00000
      399.787       0.00000
      399.893       0.00000
      400.000       0.00000
