Filter Be-med
observation_date 2021-09-22 22:45:45
wavelength effective area
      1.00000   2.78114e-10
      1.10000   7.93774e-10
      1.20000   2.06297e-09
      1.30000   4.93135e-09
      1.40000   1.11851e-08
      1.50000   2.38506e-08
      1.60000   4.82554e-08
      1.70000   9.36187e-08
      1.80000   1.74158e-07
      1.90000   3.12737e-07
      2.00000   5.43143e-07
      2.10000   9.16357e-07
      2.20000   1.50905e-06
      2.30000   2.42235e-06
      2.40000   3.79697e-06
      2.50000   5.79276e-06
      2.60000   8.82345e-06
      2.70000   1.31275e-05
      2.80000   1.91540e-05
      2.90000   2.76539e-05
      3.00000   3.92947e-05
      3.10000   5.51082e-05
      3.20000   7.64256e-05
      3.30000   0.000104887
      3.40000   0.000142413
      3.50000   0.000191449
      3.60000   0.000256108
      3.70000   0.000338887
      3.80000   0.000446428
      3.90000   0.000584660
      4.00000   0.000760709
      4.10000   0.000984888
      4.20000    0.00127034
      4.30000    0.00163337
      4.40000    0.00209386
      4.50000    0.00267592
      4.60000    0.00340723
      4.70000    0.00433662
      4.80000    0.00551166
      4.90000    0.00691310
      5.00000    0.00889465
      5.10000     0.0112799
      5.20000     0.0143393
      5.30000     0.0180695
      5.40000     0.0227212
      5.50000     0.0286083
      5.60000     0.0349028
      5.70000     0.0448427
      5.80000     0.0519220
      5.90000     0.0782706
      6.00000      0.103833
      6.10000      0.130898
      6.20000      0.158509
      6.30000      0.183915
      6.40000      0.204590
      6.50000      0.218426
      6.60000      0.222534
      6.70000      0.225659
      6.80000      0.222183
      6.90000      0.286430
      7.00000      0.305894
      7.10000      0.317512
      7.20000      0.324912
      7.30000      0.329266
      7.40000      0.330603
      7.50000      0.329944
      7.60000      0.327451
      7.70000      0.322383
      7.80000      0.314301
      7.90000      0.306556
      8.00000      0.432382
      8.10000      0.461612
      8.20000      0.457121
      8.30000      0.450435
      8.40000      0.441766
      8.50000      0.432241
      8.60000      0.421830
      8.70000      0.410857
      8.80000      0.399289
      8.90000      0.387348
      9.00000      0.375080
      9.10000      0.362560
      9.20000      0.349877
      9.30000      0.337099
      9.40000      0.324261
      9.50000      0.311412
      9.60000      0.298634
      9.70000      0.285933
      9.80000      0.273365
      9.90000      0.261001
      10.0000      0.248868
      10.1000      0.236961
      10.2000      0.225302
      10.3000      0.213930
      10.4000      0.202865
      10.5000      0.192095
      10.6000      0.181636
      10.7000      0.171498
      10.8000      0.161707
      10.9000      0.152292
      11.0000      0.143221
      11.1000      0.134503
      11.2000      0.126139
      11.3000      0.118129
      11.4000      0.110469
      11.5000      0.103156
      11.6000     0.0961878
      11.7000     0.0895733
      11.8000     0.0832910
      11.9000     0.0773193
      12.0000     0.0715826
      12.1000     0.0663931
      12.2000     0.0626184
      12.3000     0.0583786
      12.4000     0.0539526
      12.5000     0.0497614
      12.6000     0.0458203
      12.7000     0.0421282
      12.8000     0.0386765
      12.9000     0.0354545
      13.0000     0.0324534
      13.1000     0.0296634
      13.2000     0.0270778
      13.3000     0.0246983
      13.4000     0.0225064
      13.5000     0.0204823
      13.6000     0.0186274
      13.7000     0.0169179
      13.8000     0.0153441
      13.9000     0.0138973
      14.0000     0.0125689
      14.1000     0.0113488
      14.2000     0.0102285
      14.3000    0.00920223
      14.4000    0.00826455
      14.5000    0.00741412
      14.6000    0.00664728
      14.7000    0.00594936
      14.8000    0.00531504
      14.9000    0.00473931
      15.0000    0.00421755
      15.1000    0.00374556
      15.2000    0.00332792
      15.3000    0.00295241
      15.4000    0.00261370
      15.5000    0.00230867
      15.6000    0.00203453
      15.7000    0.00179202
      15.8000    0.00157853
      15.9000    0.00138702
      16.0000    0.00121554
      16.1000    0.00106230
      16.2000   0.000929704
      16.3000   0.000812592
      16.4000   0.000708038
      16.5000   0.000614917
      16.6000   0.000533987
      16.7000   0.000464024
      16.8000   0.000401745
      16.9000   0.000346480
      17.0000   0.000298948
      17.1000   0.000258314
      17.2000   0.000222414
      17.3000   0.000190818
      17.4000   0.000164347
      17.5000   0.000141244
      17.6000   0.000120914
      17.7000   0.000103627
      17.8000   8.96062e-05
      17.9000   7.71490e-05
      18.0000   6.60778e-05
      18.1000   5.69551e-05
      18.2000   4.87854e-05
      18.3000   4.14339e-05
      18.4000   3.51706e-05
      18.5000   2.97292e-05
      18.6000   2.48706e-05
      18.7000   2.07748e-05
      18.8000   1.73463e-05
      18.9000   1.43422e-05
      19.0000   1.19094e-05
      19.1000   9.88386e-06
      19.2000   8.11226e-06
      19.3000   6.70806e-06
      19.4000   5.53925e-06
      19.5000   4.52888e-06
      19.6000   3.77369e-06
      19.7000   3.11833e-06
      19.8000   2.55148e-06
      19.9000   2.12034e-06
      20.0000   1.73672e-06
      20.1000   1.42213e-06
      20.2000   1.17076e-06
      20.3000   9.48699e-07
      20.4000   7.78953e-07
      20.5000   6.33926e-07
      20.6000   5.10918e-07
      20.7000   4.18331e-07
      20.8000   3.35781e-07
      20.9000   2.72417e-07
      21.0000   2.19672e-07
      21.1000   1.74908e-07
      21.2000   1.41945e-07
      21.3000   1.12420e-07
      21.4000   9.05106e-08
      21.5000   7.19863e-08
      21.6000   5.68863e-08
      21.7000   4.54888e-08
      21.8000   3.53358e-08
      21.9000   2.83304e-08
      22.0000   2.20360e-08
      22.1000   1.73779e-08
      22.2000   1.35666e-08
      22.3000   1.04909e-08
      22.4000   8.11556e-09
      22.5000   5.97013e-09
      22.6000   4.29771e-09
      22.7000   2.91726e-09
      22.8000   2.81463e-09
      22.9000   2.79433e-09
      23.0000   2.84570e-09
      23.1000   2.65259e-09
      23.2000   2.23599e-09
      23.3000   1.82604e-09
      23.4000   1.42041e-09
      23.5000   1.12867e-09
      23.6000   8.65455e-10
      23.7000   6.88724e-10
      23.8000   5.21692e-10
      23.9000   4.14995e-10
      24.0000   3.13881e-10
      24.1000   2.47639e-10
      24.2000   1.86888e-10
      24.3000   1.46383e-10
      24.4000   1.10264e-10
      24.5000   8.57790e-11
      24.6000   6.44464e-11
      24.7000   4.98434e-11
      24.8000   3.73342e-11
      24.9000   2.87292e-11
      25.0000   2.14329e-11
      25.1000   1.64277e-11
      25.2000   1.21945e-11
      25.3000   9.31922e-12
      25.4000   6.87450e-12
      25.5000   5.24485e-12
      25.6000   3.84005e-12
      25.7000   2.92846e-12
      25.8000   2.12489e-12
      25.9000   1.62177e-12
      26.0000   1.16440e-12
      26.1000   8.90462e-13
      26.2000   6.31573e-13
      26.3000   4.84541e-13
      26.4000   3.38983e-13
      26.5000   2.61185e-13
      26.6000   1.83804e-13
      26.7000   1.39381e-13
      26.8000   9.90468e-14
      26.9000   7.35972e-14
      27.0000   5.28758e-14
      27.1000   3.84098e-14
      27.2000   2.79240e-14
      27.3000   1.98167e-14
      27.4000   1.46573e-14
      27.5000   1.01835e-14
      27.6000   7.61283e-15
      27.7000   5.12972e-15
      27.8000   3.88578e-15
      27.9000   2.64848e-15
      28.0000   1.95353e-15
      28.1000   1.36656e-15
      28.2000   9.67399e-16
      28.3000   6.93649e-16
      28.4000   4.71483e-16
      28.5000   3.46021e-16
      28.6000   2.25976e-16
      28.7000   1.69504e-16
      28.8000   1.13341e-16
      28.9000   8.14855e-17
      29.0000   5.66402e-17
      29.1000   3.84022e-17
      29.2000   2.76139e-17
      29.3000   1.77305e-17
      29.4000   1.31348e-17
      29.5000   8.56473e-18
      29.6000   6.09591e-18
      29.7000   4.18698e-18
      29.8000   2.76054e-18
      29.9000   1.97874e-18
      30.0000   1.21961e-18
      30.1000   9.05873e-19
      30.2000   5.93896e-19
      30.3000   4.05495e-19
      30.4000   2.87883e-19
      30.5000   1.84956e-19
      30.6000   1.34689e-19
      30.7000   8.47071e-20
      30.8000   5.86448e-20
      30.9000   3.98284e-20
      31.0000   2.47310e-20
      31.1000   1.78912e-20
      31.2000   1.10904e-20
      31.3000   7.80271e-21
      31.4000   5.27644e-21
      31.5000   3.27371e-21
      31.6000   2.35549e-21
      31.7000   1.44258e-21
      31.8000   9.99301e-22
      31.9000   6.75222e-22
      32.0000   4.07011e-22
      32.1000   2.96658e-22
      32.2000   1.86942e-22
      32.3000   1.26294e-22
      32.4000   8.73613e-23
      32.5000   5.14063e-23
      32.6000   3.78936e-23
      32.7000   2.44582e-23
      32.8000   1.55265e-23
      32.9000   1.09625e-23
      33.0000   6.42498e-24
      33.1000   4.55117e-24
      33.2000   3.04497e-24
      33.3000   1.78251e-24
      33.4000   1.29352e-24
      33.5000   8.07277e-25
      33.6000   5.09807e-25
      33.7000   3.55656e-25
      33.8000   2.02357e-25
      33.9000   1.41861e-25
      34.0000   9.44077e-26
      34.1000   5.27211e-26
      34.2000   3.83913e-26
      34.3000   2.41364e-26
      34.4000   1.42932e-26
      34.5000   1.00963e-26
      34.6000   5.92160e-27
      34.7000   3.77794e-27
      34.8000   2.57961e-27
      34.9000   1.38757e-27
      35.0000   9.72879e-28
      35.1000   6.40060e-28
      35.2000   3.34844e-28
      35.3000   2.44386e-28
      35.4000   1.54406e-28
      35.5000   8.37084e-29
      35.6000   5.99149e-29
      35.7000   3.62472e-29
      35.8000   2.04305e-29
      35.9000   1.43448e-29
      36.0000   8.29129e-30
      36.1000   4.86845e-30
      36.2000   3.35620e-30
      36.3000   1.85198e-30
      36.4000   1.13313e-30
      36.5000   7.68159e-31
      36.6000   4.05161e-31
      36.7000   2.57647e-31
      36.8000   1.72153e-31
      36.9000   8.71221e-32
      37.0000   5.72340e-32
      37.1000   3.78067e-32
      37.2000   1.84834e-32
      37.3000   1.24189e-32
      37.4000   8.13988e-33
      37.5000   3.88413e-33
      37.6000   2.63191e-33
      37.7000   1.71902e-33
      37.8000   8.11104e-34
      37.9000   5.44690e-34
      38.0000   3.56074e-34
      38.1000   1.68481e-34
      38.2000   1.09980e-34
      38.3000   7.22693e-35
      38.4000   3.47635e-35
      38.5000   2.16344e-35
      38.6000   1.43504e-35
      38.7000   7.10606e-36
      38.8000   4.14372e-36
      38.9000   2.78468e-36
      39.0000   1.43301e-36
      39.1000   7.72100e-37
      39.2000   5.27185e-37
      39.3000   2.83601e-37
      39.4000   1.39577e-37
      39.5000   9.67354e-38
      39.6000   5.41305e-38
      39.7000   2.37500e-38
      39.8000   1.67857e-38
      39.9000   9.85949e-39
      40.0000   3.89781e-39
      40.1000   2.81206e-39
      40.2000   1.73225e-39
      40.3000   6.58497e-40
      40.4000   4.54953e-40
      40.5000   2.93070e-40
      40.6000   1.32074e-40
      40.7000   7.09029e-41
      40.8000   4.75923e-41
      40.9000   2.44092e-41
      41.0000   1.06162e-41
      41.1000   7.39886e-42
      41.2000   4.19829e-42
      41.3000   1.52742e-42
      41.4000   1.09862e-42
      41.5000   6.74025e-43
      41.6000   2.55036e-43
      41.7000   1.52742e-43
      41.8000   1.02295e-43
      41.9000   4.76441e-44
      42.0000   2.24208e-44
      42.1000   1.54143e-44
      42.2000   7.00649e-45
      42.3000   2.80260e-45
      42.4000   2.80260e-45
      42.5000   2.80260e-45
      42.6000  -2.80260e-45
      42.7000       0.00000
      42.8000       0.00000
      42.9000       0.00000
      43.0000       0.00000
      43.1000       0.00000
      43.2000       0.00000
      43.3000       0.00000
      43.4000       0.00000
      43.5000       0.00000
      43.6000       0.00000
      43.7000       0.00000
      43.8000       0.00000
      43.9000       0.00000
      44.0000       0.00000
      44.1000       0.00000
      44.2000       0.00000
      44.3000       0.00000
      44.4000       0.00000
      44.5000       0.00000
      44.6000       0.00000
      44.7000       0.00000
      44.8000       0.00000
      44.9000       0.00000
      45.0000       0.00000
      45.1000       0.00000
      45.2000       0.00000
      45.3000       0.00000
      45.4000       0.00000
      45.5000       0.00000
      45.6000       0.00000
      45.7000       0.00000
      45.8000       0.00000
      45.9000       0.00000
      46.0000       0.00000
      46.1000       0.00000
      46.2000       0.00000
      46.3000       0.00000
      46.4000       0.00000
      46.5000       0.00000
      46.6000       0.00000
      46.7000       0.00000
      46.8000       0.00000
      46.9000       0.00000
      47.0000       0.00000
      47.1000       0.00000
      47.2000       0.00000
      47.3000       0.00000
      47.4000       0.00000
      47.5000       0.00000
      47.6000       0.00000
      47.7000       0.00000
      47.8000       0.00000
      47.9000       0.00000
      48.0000       0.00000
      48.1000       0.00000
      48.2000       0.00000
      48.3000       0.00000
      48.4000       0.00000
      48.5000       0.00000
      48.6000       0.00000
      48.7000       0.00000
      48.8000       0.00000
      48.9000       0.00000
      49.0000       0.00000
      49.1000       0.00000
      49.2000       0.00000
      49.3000       0.00000
      49.4000       0.00000
      49.5000       0.00000
      49.6000       0.00000
      49.7000       0.00000
      49.8000       0.00000
      49.9000       0.00000
      50.0000       0.00000
      50.1000       0.00000
      50.2000       0.00000
      50.3000       0.00000
      50.4000       0.00000
      50.5000       0.00000
      50.6000       0.00000
      50.7000       0.00000
      50.8000       0.00000
      50.9000       0.00000
      51.0000       0.00000
      51.1000       0.00000
      51.2000       0.00000
      51.3000       0.00000
      51.4000       0.00000
      51.5000       0.00000
      51.6000       0.00000
      51.7000       0.00000
      51.8000       0.00000
      51.9000       0.00000
      52.0000       0.00000
      52.1000       0.00000
      52.2000       0.00000
      52.3000       0.00000
      52.4000       0.00000
      52.5000       0.00000
      52.6000       0.00000
      52.7000       0.00000
      52.8000       0.00000
      52.9000       0.00000
      53.0000       0.00000
      53.1000       0.00000
      53.2000       0.00000
      53.3000       0.00000
      53.4000       0.00000
      53.5000       0.00000
      53.6000       0.00000
      53.7000       0.00000
      53.8000       0.00000
      53.9000       0.00000
      54.0000       0.00000
      54.1000       0.00000
      54.2000       0.00000
      54.3000       0.00000
      54.4000       0.00000
      54.5000       0.00000
      54.6000       0.00000
      54.7000       0.00000
      54.8000       0.00000
      54.9000       0.00000
      55.0000       0.00000
      55.1000       0.00000
      55.2000       0.00000
      55.3000       0.00000
      55.4000       0.00000
      55.5000       0.00000
      55.6000       0.00000
      55.7000       0.00000
      55.8000       0.00000
      55.9000       0.00000
      56.0000       0.00000
      56.1000       0.00000
      56.2000       0.00000
      56.3000       0.00000
      56.4000       0.00000
      56.5000       0.00000
      56.6000       0.00000
      56.7000       0.00000
      56.8000       0.00000
      56.9000       0.00000
      57.0000       0.00000
      57.1000       0.00000
      57.2000       0.00000
      57.3000       0.00000
      57.4000       0.00000
      57.5000       0.00000
      57.6000       0.00000
      57.7000       0.00000
      57.8000       0.00000
      57.9000       0.00000
      58.0000       0.00000
      58.1000       0.00000
      58.2000       0.00000
      58.3000       0.00000
      58.4000       0.00000
      58.5000       0.00000
      58.6000       0.00000
      58.7000       0.00000
      58.8000       0.00000
      58.9000       0.00000
      59.0000       0.00000
      59.1000       0.00000
      59.2000       0.00000
      59.3000       0.00000
      59.4000       0.00000
      59.5000       0.00000
      59.6000       0.00000
      59.7000       0.00000
      59.8000       0.00000
      59.9000       0.00000
      60.0000       0.00000
      60.1000       0.00000
      60.2000       0.00000
      60.3000       0.00000
      60.4000       0.00000
      60.5000       0.00000
      60.6000       0.00000
      60.7000       0.00000
      60.8000       0.00000
      60.9000       0.00000
      61.0000       0.00000
      61.1000       0.00000
      61.2000       0.00000
      61.3000       0.00000
      61.4000       0.00000
      61.5000       0.00000
      61.6000       0.00000
      61.7000       0.00000
      61.8000       0.00000
      61.9000       0.00000
      62.0000       0.00000
      62.1000       0.00000
      62.2000       0.00000
      62.3000       0.00000
      62.4000       0.00000
      62.5000       0.00000
      62.6000       0.00000
      62.7000       0.00000
      62.8000       0.00000
      62.9000       0.00000
      63.0000       0.00000
      63.1000       0.00000
      63.2000       0.00000
      63.3000       0.00000
      63.4000       0.00000
      63.5000       0.00000
      63.6000       0.00000
      63.7000       0.00000
      63.8000       0.00000
      63.9000       0.00000
      64.0000       0.00000
      64.1000       0.00000
      64.2000       0.00000
      64.3000       0.00000
      64.4000       0.00000
      64.5000       0.00000
      64.6000       0.00000
      64.7000       0.00000
      64.8000       0.00000
      64.9000       0.00000
      65.0000       0.00000
      65.1000       0.00000
      65.2000       0.00000
      65.3000       0.00000
      65.4000       0.00000
      65.5000       0.00000
      65.6000       0.00000
      65.7000       0.00000
      65.8000       0.00000
      65.9000       0.00000
      66.0000       0.00000
      66.1000       0.00000
      66.2000       0.00000
      66.3000       0.00000
      66.4000       0.00000
      66.5000       0.00000
      66.6000       0.00000
      66.7000       0.00000
      66.8000       0.00000
      66.9000       0.00000
      67.0000       0.00000
      67.1000       0.00000
      67.2000       0.00000
      67.3000       0.00000
      67.4000       0.00000
      67.5000       0.00000
      67.6000       0.00000
      67.7000       0.00000
      67.8000       0.00000
      67.9000       0.00000
      68.0000       0.00000
      68.1000       0.00000
      68.2000       0.00000
      68.3000       0.00000
      68.4000       0.00000
      68.5000       0.00000
      68.6000       0.00000
      68.7000       0.00000
      68.8000       0.00000
      68.9000       0.00000
      69.0000       0.00000
      69.1000       0.00000
      69.2000       0.00000
      69.3000       0.00000
      69.4000       0.00000
      69.5000       0.00000
      69.6000       0.00000
      69.7000       0.00000
      69.8000       0.00000
      69.9000       0.00000
      70.0000       0.00000
      70.1000       0.00000
      70.2000       0.00000
      70.3000       0.00000
      70.4000       0.00000
      70.5000       0.00000
      70.6000       0.00000
      70.7000       0.00000
      70.8000       0.00000
      70.9000       0.00000
      71.0000       0.00000
      71.1000       0.00000
      71.2000       0.00000
      71.3000       0.00000
      71.4000       0.00000
      71.5000       0.00000
      71.6000       0.00000
      71.7000       0.00000
      71.8000       0.00000
      71.9000       0.00000
      72.0000       0.00000
      72.1000       0.00000
      72.2000       0.00000
      72.3000       0.00000
      72.4000       0.00000
      72.5000       0.00000
      72.6000       0.00000
      72.7000       0.00000
      72.8000       0.00000
      72.9000       0.00000
      73.0000       0.00000
      73.1000       0.00000
      73.2000       0.00000
      73.3000       0.00000
      73.4000       0.00000
      73.5000       0.00000
      73.6000       0.00000
      73.7000       0.00000
      73.8000       0.00000
      73.9000       0.00000
      74.0000       0.00000
      74.1000       0.00000
      74.2000       0.00000
      74.3000       0.00000
      74.4000       0.00000
      74.5000       0.00000
      74.6000       0.00000
      74.7000       0.00000
      74.8000       0.00000
      74.9000       0.00000
      75.0000       0.00000
      75.1000       0.00000
      75.2000       0.00000
      75.3000       0.00000
      75.4000       0.00000
      75.5000       0.00000
      75.6000       0.00000
      75.7000       0.00000
      75.8000       0.00000
      75.9000       0.00000
      76.0000       0.00000
      76.1000       0.00000
      76.2000       0.00000
      76.3000       0.00000
      76.4000       0.00000
      76.5000       0.00000
      76.6000       0.00000
      76.7000       0.00000
      76.8000       0.00000
      76.9000       0.00000
      77.0000       0.00000
      77.1000       0.00000
      77.2000       0.00000
      77.3000       0.00000
      77.4000       0.00000
      77.5000       0.00000
      77.6000       0.00000
      77.7000       0.00000
      77.8000       0.00000
      77.9000       0.00000
      78.0000       0.00000
      78.1000       0.00000
      78.2000       0.00000
      78.3000       0.00000
      78.4000       0.00000
      78.5000       0.00000
      78.6000       0.00000
      78.7000       0.00000
      78.8000       0.00000
      78.9000       0.00000
      79.0000       0.00000
      79.1000       0.00000
      79.2000       0.00000
      79.3000       0.00000
      79.4000       0.00000
      79.5000       0.00000
      79.6000       0.00000
      79.7000       0.00000
      79.8000       0.00000
      79.9000       0.00000
      80.0000       0.00000
      80.1000       0.00000
      80.2000       0.00000
      80.3000       0.00000
      80.4000       0.00000
      80.5000       0.00000
      80.6000       0.00000
      80.7000       0.00000
      80.8000       0.00000
      80.9000       0.00000
      81.0000       0.00000
      81.1000       0.00000
      81.2000       0.00000
      81.3000       0.00000
      81.4000       0.00000
      81.5000       0.00000
      81.6000       0.00000
      81.7000       0.00000
      81.8000       0.00000
      81.9000       0.00000
      82.0000       0.00000
      82.1000       0.00000
      82.2000       0.00000
      82.3000       0.00000
      82.4000       0.00000
      82.5000       0.00000
      82.6000       0.00000
      82.7000       0.00000
      82.8000       0.00000
      82.9000       0.00000
      83.0000       0.00000
      83.1000       0.00000
      83.2000       0.00000
      83.3000       0.00000
      83.4000       0.00000
      83.5000       0.00000
      83.6000       0.00000
      83.7000       0.00000
      83.8000       0.00000
      83.9000       0.00000
      84.0000       0.00000
      84.1000       0.00000
      84.2000       0.00000
      84.3000       0.00000
      84.4000       0.00000
      84.5000       0.00000
      84.6000       0.00000
      84.7000       0.00000
      84.8000       0.00000
      84.9000       0.00000
      85.0000       0.00000
      85.1000       0.00000
      85.2000       0.00000
      85.3000       0.00000
      85.4000       0.00000
      85.5000       0.00000
      85.6000       0.00000
      85.7000       0.00000
      85.8000       0.00000
      85.9000       0.00000
      86.0000       0.00000
      86.1000       0.00000
      86.2000       0.00000
      86.3000       0.00000
      86.4000       0.00000
      86.5000       0.00000
      86.6000       0.00000
      86.7000       0.00000
      86.8000       0.00000
      86.9000       0.00000
      87.0000       0.00000
      87.1000       0.00000
      87.2000       0.00000
      87.3000       0.00000
      87.4000       0.00000
      87.5000       0.00000
      87.6000       0.00000
      87.7000       0.00000
      87.8000       0.00000
      87.9000       0.00000
      88.0000       0.00000
      88.1000       0.00000
      88.2000       0.00000
      88.3000       0.00000
      88.4000       0.00000
      88.5000       0.00000
      88.6000       0.00000
      88.7000       0.00000
      88.8000       0.00000
      88.9000       0.00000
      89.0000       0.00000
      89.1000       0.00000
      89.2000       0.00000
      89.3000       0.00000
      89.4000       0.00000
      89.5000       0.00000
      89.6000       0.00000
      89.7000       0.00000
      89.8000       0.00000
      89.9000       0.00000
      90.0000       0.00000
      90.1000       0.00000
      90.2000       0.00000
      90.3000       0.00000
      90.4000       0.00000
      90.5000       0.00000
      90.6000       0.00000
      90.7000       0.00000
      90.8000       0.00000
      90.9000       0.00000
      91.0000       0.00000
      91.1000       0.00000
      91.2000       0.00000
      91.3000       0.00000
      91.4000       0.00000
      91.5000       0.00000
      91.6000       0.00000
      91.7000       0.00000
      91.8000       0.00000
      91.9000       0.00000
      92.0000       0.00000
      92.1000       0.00000
      92.2000       0.00000
      92.3000       0.00000
      92.4000       0.00000
      92.5000       0.00000
      92.6000       0.00000
      92.7000       0.00000
      92.8000       0.00000
      92.9000       0.00000
      93.0000       0.00000
      93.1000       0.00000
      93.2000       0.00000
      93.3000       0.00000
      93.4000       0.00000
      93.5000       0.00000
      93.6000       0.00000
      93.7000       0.00000
      93.8000       0.00000
      93.9000       0.00000
      94.0000       0.00000
      94.1000       0.00000
      94.2000       0.00000
      94.3000       0.00000
      94.4000       0.00000
      94.5000       0.00000
      94.6000       0.00000
      94.7000       0.00000
      94.8000       0.00000
      94.9000       0.00000
      95.0000       0.00000
      95.1000       0.00000
      95.2000       0.00000
      95.3000       0.00000
      95.4000       0.00000
      95.5000       0.00000
      95.6000       0.00000
      95.7000       0.00000
      95.8000       0.00000
      95.9000       0.00000
      96.0000       0.00000
      96.1000       0.00000
      96.2000       0.00000
      96.3000       0.00000
      96.4000       0.00000
      96.5000       0.00000
      96.6000       0.00000
      96.7000       0.00000
      96.8000       0.00000
      96.9000       0.00000
      97.0000       0.00000
      97.1000       0.00000
      97.2000       0.00000
      97.3000       0.00000
      97.4000       0.00000
      97.5000       0.00000
      97.6000       0.00000
      97.7000       0.00000
      97.8000       0.00000
      97.9000       0.00000
      98.0000       0.00000
      98.1000       0.00000
      98.2000       0.00000
      98.3000       0.00000
      98.4000       0.00000
      98.5000       0.00000
      98.6000       0.00000
      98.7000       0.00000
      98.8000       0.00000
      98.9000       0.00000
      99.0000       0.00000
      99.1000       0.00000
      99.2000       0.00000
      99.3000       0.00000
      99.4000       0.00000
      99.5000       0.00000
      99.6000       0.00000
      99.7000       0.00000
      99.8000       0.00000
      99.9000       0.00000
      100.000       0.00000
      100.100       0.00000
      100.200       0.00000
      100.300       0.00000
      100.400       0.00000
      100.500       0.00000
      100.600       0.00000
      100.700       0.00000
      100.800       0.00000
      100.900       0.00000
      101.000       0.00000
      101.100       0.00000
      101.200       0.00000
      101.300       0.00000
      101.400       0.00000
      101.500       0.00000
      101.600       0.00000
      101.700       0.00000
      101.800       0.00000
      101.900       0.00000
      102.000       0.00000
      102.100       0.00000
      102.200       0.00000
      102.300       0.00000
      102.400       0.00000
      102.500       0.00000
      102.600       0.00000
      102.700       0.00000
      102.800       0.00000
      102.900       0.00000
      103.000       0.00000
      103.100       0.00000
      103.200       0.00000
      103.300       0.00000
      103.400       0.00000
      103.500       0.00000
      103.600       0.00000
      103.700       0.00000
      103.800       0.00000
      103.900       0.00000
      104.000       0.00000
      104.100       0.00000
      104.200       0.00000
      104.300       0.00000
      104.400       0.00000
      104.500       0.00000
      104.600       0.00000
      104.700       0.00000
      104.800       0.00000
      104.900       0.00000
      105.000       0.00000
      105.100       0.00000
      105.200       0.00000
      105.300       0.00000
      105.400       0.00000
      105.500       0.00000
      105.600       0.00000
      105.700       0.00000
      105.800       0.00000
      105.900       0.00000
      106.000       0.00000
      106.100       0.00000
      106.200       0.00000
      106.300       0.00000
      106.400       0.00000
      106.500       0.00000
      106.600       0.00000
      106.700       0.00000
      106.800       0.00000
      106.900       0.00000
      107.000       0.00000
      107.100       0.00000
      107.200       0.00000
      107.300       0.00000
      107.400       0.00000
      107.500       0.00000
      107.600       0.00000
      107.700       0.00000
      107.800       0.00000
      107.900       0.00000
      108.000       0.00000
      108.100       0.00000
      108.200       0.00000
      108.300       0.00000
      108.400       0.00000
      108.500       0.00000
      108.600       0.00000
      108.700       0.00000
      108.800       0.00000
      108.900       0.00000
      109.000       0.00000
      109.100       0.00000
      109.200       0.00000
      109.300       0.00000
      109.400       0.00000
      109.500       0.00000
      109.600       0.00000
      109.700       0.00000
      109.800       0.00000
      109.900       0.00000
      110.000       0.00000
      110.100       0.00000
      110.200       0.00000
      110.300       0.00000
      110.400       0.00000
      110.500       0.00000
      110.600       0.00000
      110.700       0.00000
      110.800       0.00000
      110.900   4.62776e-35
      111.000   2.48335e-28
      111.100   2.93197e-24
      111.200   4.07103e-23
      111.300   2.05264e-22
      111.400   6.78362e-22
      111.500   8.99224e-22
      111.600   1.21895e-21
      111.700   2.24964e-21
      111.800   4.08044e-21
      111.900   5.33707e-21
      112.000   8.57954e-21
      112.100   1.53703e-20
      112.200   2.34229e-20
      112.300   3.00878e-20
      112.400   3.76301e-20
      112.500   5.00219e-20
      112.600   7.10770e-20
      112.700   9.66485e-20
      112.800   1.11642e-19
      112.900   1.44742e-19
      113.000   1.85186e-19
      113.100   2.21831e-19
      113.200   2.54947e-19
      113.300   2.59516e-19
      113.400   3.24645e-19
      113.500   4.01763e-19
      113.600   4.14432e-19
      113.700   4.99125e-19
      113.800   5.68166e-19
      113.900   6.32594e-19
      114.000   6.73985e-19
      114.100   7.03411e-19
      114.200   9.05489e-19
      114.300   1.04139e-18
      114.400   1.01105e-18
      114.500   9.26532e-19
      114.600   9.24300e-19
      114.700   9.40075e-19
      114.800   9.80977e-19
      114.900   1.08395e-18
      115.000   1.19048e-18
      115.100   1.26114e-18
      115.200   1.28047e-18
      115.300   1.30126e-18
      115.400   1.32120e-18
      115.500   1.34199e-18
      115.600   1.36256e-18
      115.700   1.38261e-18
      115.800   1.40398e-18
      115.900   1.42507e-18
      116.000   1.44284e-18
      116.100   1.45033e-18
      116.200   1.45629e-18
      116.300   1.46191e-18
      116.400   1.46159e-18
      116.500   1.43004e-18
      116.600   1.39885e-18
      116.700   1.36859e-18
      116.800   1.33868e-18
      116.900   1.30820e-18
      117.000   1.27976e-18
      117.100   1.25569e-18
      117.200   1.23470e-18
      117.300   1.21153e-18
      117.400   1.18863e-18
      117.500   1.16064e-18
      117.600   1.12079e-18
      117.700   1.07875e-18
      117.800   1.03759e-18
      117.900   9.97656e-19
      118.000   9.58639e-19
      118.100   9.20604e-19
      118.200   8.84512e-19
      118.300   8.49998e-19
      118.400   8.14876e-19
      118.500   7.81343e-19
      118.600   7.49982e-19
      118.700   7.19586e-19
      118.800   6.90034e-19
      118.900   6.61922e-19
      119.000   6.34096e-19
      119.100   6.06496e-19
      119.200   5.85741e-19
      119.300   5.74666e-19
      119.400   5.66319e-19
      119.500   5.55653e-19
      119.600   5.40987e-19
      119.700   5.25031e-19
      119.800   5.08449e-19
      119.900   4.90968e-19
      120.000   4.74477e-19
      120.100   4.58846e-19
      120.200   4.45314e-19
      120.300   4.33076e-19
      120.400   4.21156e-19
      120.500   4.08336e-19
      120.600   3.94983e-19
      120.700   3.81755e-19
      120.800   3.69123e-19
      120.900   3.58341e-19
      121.000   3.50082e-19
      121.100   3.42161e-19
      121.200   3.34984e-19
      121.300   3.27274e-19
      121.400   3.19172e-19
      121.500   3.10746e-19
      121.600   2.97528e-19
      121.700   2.84572e-19
      121.800   2.71619e-19
      121.900   2.59142e-19
      122.000   2.46858e-19
      122.100   2.35343e-19
      122.200   2.24358e-19
      122.300   2.14907e-19
      122.400   2.06954e-19
      122.500   1.99520e-19
      122.600   1.92214e-19
      122.700   1.85161e-19
      122.800   1.78139e-19
      122.900   1.71499e-19
      123.000   1.66187e-19
      123.100   1.62930e-19
      123.200   1.60668e-19
      123.300   1.61905e-19
      123.400   1.63854e-19
      123.500   1.66815e-19
      123.600   1.68891e-19
      123.700   1.67607e-19
      123.800   1.63532e-19
      123.900   1.60006e-19
      124.000   1.57263e-19
      124.100   1.57014e-19
      124.200   1.62581e-19
      124.300   1.72705e-19
      124.400   1.81835e-19
      124.500   1.81500e-19
      124.600   1.76581e-19
      124.700   1.69710e-19
      124.800   1.63148e-19
      124.900   1.56834e-19
      125.000   1.50754e-19
      125.100   1.44857e-19
      125.200   1.39184e-19
      125.300   1.33727e-19
      125.400   1.28483e-19
      125.500   1.23446e-19
      125.600   1.17230e-19
      125.700   1.11016e-19
      125.800   1.05877e-19
      125.900   1.03957e-19
      126.000   1.02285e-19
      126.100   1.00640e-19
      126.200   9.90216e-20
      126.300   9.74300e-20
      126.400   9.58634e-20
      126.500   9.43218e-20
      126.600   9.28060e-20
      126.700   9.13148e-20
      126.800   8.98482e-20
      126.900   8.84045e-20
      127.000   8.69820e-20
      127.100   8.51078e-20
      127.200   8.27265e-20
      127.300   8.02304e-20
      127.400   7.78088e-20
      127.500   7.54595e-20
      127.600   7.31809e-20
      127.700   7.09705e-20
      127.800   6.88263e-20
      127.900   6.67460e-20
      128.000   6.47283e-20
      128.100   6.27704e-20
      128.200   6.08712e-20
      128.300   5.90289e-20
      128.400   5.72423e-20
      128.500   5.55089e-20
      128.600   5.38281e-20
      128.700   5.21979e-20
      128.800   5.06163e-20
      128.900   4.90832e-20
      129.000   4.75973e-20
      129.100   4.61554e-20
      129.200   4.47537e-20
      129.300   4.33940e-20
      129.400   4.20754e-20
      129.500   4.07968e-20
      129.600   3.95568e-20
      129.700   3.83542e-20
      129.800   3.71878e-20
      129.900   3.60569e-20
      130.000   3.49604e-20
      130.100   3.38970e-20
      130.200   3.28655e-20
      130.300   3.18657e-20
      130.400   3.08961e-20
      130.500   2.99551e-20
      130.600   2.90396e-20
      130.700   2.81506e-20
      130.800   2.72885e-20
      130.900   2.64538e-20
      131.000   2.56445e-20
      131.100   2.48602e-20
      131.200   2.40994e-20
      131.300   2.33611e-20
      131.400   2.26453e-20
      131.500   2.19511e-20
      131.600   2.12780e-20
      131.700   2.06255e-20
      131.800   1.99925e-20
      131.900   1.93786e-20
      132.000   1.87835e-20
      132.100   1.82062e-20
      132.200   1.76466e-20
      132.300   1.71039e-20
      132.400   1.65776e-20
      132.500   1.60681e-20
      132.600   1.55743e-20
      132.700   1.50670e-20
      132.800   1.45662e-20
      132.900   1.40805e-20
      133.000   1.36107e-20
      133.100   1.31564e-20
      133.200   1.27170e-20
      133.300   1.22920e-20
      133.400   1.18810e-20
      133.500   1.14835e-20
      133.600   1.10992e-20
      133.700   1.07276e-20
      133.800   1.03683e-20
      133.900   1.00219e-20
      134.000   9.68696e-21
      134.100   9.36302e-21
      134.200   9.04990e-21
      134.300   8.74704e-21
      134.400   8.45421e-21
      134.500   8.17117e-21
      134.600   7.89741e-21
      134.700   7.63272e-21
      134.800   7.37686e-21
      134.900   7.12962e-21
      135.000   6.89050e-21
      135.100   6.65992e-21
      135.200   6.43707e-21
      135.300   6.22160e-21
      135.400   6.01323e-21
      135.500   5.81155e-21
      135.600   5.61639e-21
      135.700   5.42770e-21
      135.800   5.24522e-21
      135.900   5.06880e-21
      136.000   4.89818e-21
      136.100   4.73319e-21
      136.200   4.57413e-21
      136.300   4.42039e-21
      136.400   4.27178e-21
      136.500   4.12809e-21
      136.600   3.98909e-21
      136.700   3.85471e-21
      136.800   3.72477e-21
      136.900   3.59918e-21
      137.000   3.47782e-21
      137.100   3.36069e-21
      137.200   3.24760e-21
      137.300   3.13854e-21
      137.400   3.03309e-21
      137.500   2.93109e-21
      137.600   2.83243e-21
      137.700   2.73700e-21
      137.800   2.64470e-21
      137.900   2.55545e-21
      138.000   2.46917e-21
      138.100   2.38575e-21
      138.200   2.30539e-21
      138.300   2.22773e-21
      138.400   2.15267e-21
      138.500   2.08009e-21
      138.600   2.00991e-21
      138.700   1.94206e-21
      138.800   1.87647e-21
      138.900   1.81304e-21
      139.000   1.75172e-21
      139.100   1.69262e-21
      139.200   1.63584e-21
      139.300   1.58124e-21
      139.400   1.52852e-21
      139.500   1.47752e-21
      139.600   1.42817e-21
      139.700   1.38044e-21
      139.800   1.33428e-21
      139.900   1.28963e-21
      140.000   1.24662e-21
      140.100   1.20502e-21
      140.200   1.16479e-21
      140.300   1.12587e-21
      140.400   1.08821e-21
      140.500   1.05178e-21
      140.600   1.01654e-21
      140.700   9.82448e-22
      140.800   9.49605e-22
      140.900   9.17869e-22
      141.000   8.87159e-22
      141.100   8.57454e-22
      141.200   8.28723e-22
      141.300   8.00923e-22
      141.400   7.74118e-22
      141.500   7.48609e-22
      141.600   7.24272e-22
      141.700   7.00736e-22
      141.800   6.77948e-22
      141.900   6.55880e-22
      142.000   6.34511e-22
      142.100   6.14056e-22
      142.200   5.94936e-22
      142.300   5.76984e-22
      142.400   5.59640e-22
      142.500   5.42797e-22
      142.600   5.26442e-22
      142.700   5.10563e-22
      142.800   4.95151e-22
      142.900   4.80191e-22
      143.000   4.65667e-22
      143.100   4.51617e-22
      143.200   4.38002e-22
      143.300   4.24782e-22
      143.400   4.11952e-22
      143.500   3.99497e-22
      143.600   3.87404e-22
      143.700   3.75749e-22
      143.800   3.65578e-22
      143.900   3.55891e-22
      144.000   3.46469e-22
      144.100   3.37288e-22
      144.200   3.28345e-22
      144.300   3.19628e-22
      144.400   3.11167e-22
      144.500   3.03401e-22
      144.600   2.95976e-22
      144.700   2.88740e-22
      144.800   2.81671e-22
      144.900   2.74767e-22
      145.000   2.68022e-22
      145.100   2.61436e-22
      145.200   2.55024e-22
      145.300   2.48770e-22
      145.400   2.42659e-22
      145.500   2.36689e-22
      145.600   2.30858e-22
      145.700   2.25161e-22
      145.800   2.19605e-22
      145.900   2.14200e-22
      146.000   2.08914e-22
      146.100   2.03693e-22
      146.200   1.98554e-22
      146.300   1.93537e-22
      146.400   1.88638e-22
      146.500   1.83879e-22
      146.600   1.79237e-22
      146.700   1.74705e-22
      146.800   1.70270e-22
      146.900   1.65927e-22
      147.000   1.61689e-22
      147.100   1.57564e-22
      147.200   1.53550e-22
      147.300   1.49632e-22
      147.400   1.45810e-22
      147.500   1.42079e-22
      147.600   1.38438e-22
      147.700   1.34894e-22
      147.800   1.31447e-22
      147.900   1.28083e-22
      148.000   1.24800e-22
      148.100   1.21598e-22
      148.200   1.18474e-22
      148.300   1.15432e-22
      148.400   1.12935e-22
      148.500   1.10845e-22
      148.600   1.08915e-22
      148.700   1.07015e-22
      148.800   1.05146e-22
      148.900   1.03313e-22
      149.000   1.01512e-22
      149.100   9.97412e-23
      149.200   9.79987e-23
      149.300   9.62843e-23
      149.400   9.45979e-23
      149.500   9.29439e-23
      149.600   9.13179e-23
      149.700   8.97185e-23
      149.800   8.81451e-23
      149.900   8.65981e-23
      150.000   8.50765e-23
      150.100   8.35835e-23
      150.200   8.21146e-23
      150.300   8.06721e-23
      150.400   7.92533e-23
      150.500   7.78584e-23
      150.600   7.64868e-23
      150.700   7.51380e-23
      150.800   7.38129e-23
      150.900   7.25118e-23
      151.000   7.12309e-23
      151.100   6.99726e-23
      151.200   6.87351e-23
      151.300   6.75184e-23
      151.400   6.63221e-23
      151.500   6.51485e-23
      151.600   6.39947e-23
      151.700   6.28620e-23
      151.800   6.17481e-23
      151.900   6.06526e-23
      152.000   5.96372e-23
      152.100   5.92652e-23
      152.200   5.89755e-23
      152.300   5.86850e-23
      152.400   5.83951e-23
      152.500   5.81070e-23
      152.600   5.78197e-23
      152.700   5.69204e-23
      152.800   5.58163e-23
      152.900   5.47320e-23
      153.000   5.36679e-23
      153.100   5.26242e-23
      153.200   5.15995e-23
      153.300   5.07742e-23
      153.400   5.01344e-23
      153.500   4.95212e-23
      153.600   4.89162e-23
      153.700   4.83189e-23
      153.800   4.77279e-23
      153.900   4.71437e-23
      154.000   4.65724e-23
      154.100   4.60197e-23
      154.200   4.54769e-23
      154.300   4.49400e-23
      154.400   4.44103e-23
      154.500   4.38859e-23
      154.600   4.33674e-23
      154.700   4.28554e-23
      154.800   4.23491e-23
      154.900   4.18481e-23
      155.000   4.13525e-23
      155.100   4.08629e-23
      155.200   4.03784e-23
      155.300   3.98996e-23
      155.400   3.94263e-23
      155.500   3.89584e-23
      155.600   3.84950e-23
      155.700   3.80368e-23
      155.800   3.75840e-23
      155.900   3.71357e-23
      156.000   3.66930e-23
      156.100   3.62549e-23
      156.200   3.58219e-23
      156.300   3.53936e-23
      156.400   3.49698e-23
      156.500   3.45492e-23
      156.600   3.41258e-23
      156.700   3.37068e-23
      156.800   3.32924e-23
      156.900   3.28828e-23
      157.000   3.24787e-23
      157.100   3.20501e-23
      157.200   3.14297e-23
      157.300   3.06111e-23
      157.400   2.98136e-23
      157.500   2.90358e-23
      157.600   2.82781e-23
      157.700   2.75393e-23
      157.800   2.68195e-23
      157.900   2.65114e-23
      158.000   2.62420e-23
      158.100   2.59754e-23
      158.200   2.57110e-23
      158.300   2.54490e-23
      158.400   2.51898e-23
      158.500   2.49329e-23
      158.600   2.46782e-23
      158.700   2.44256e-23
      158.800   2.41760e-23
      158.900   2.39285e-23
      159.000   2.36834e-23
      159.100   2.34300e-23
      159.200   2.30521e-23
      159.300   2.24732e-23
      159.400   2.19086e-23
      159.500   2.13581e-23
      159.600   2.08208e-23
      159.700   2.02971e-23
      159.800   1.97859e-23
      159.900   1.95136e-23
      160.000   1.94000e-23
      160.100   1.92918e-23
      160.200   1.91840e-23
      160.300   1.90768e-23
      160.400   1.89702e-23
      160.500   1.88386e-23
      160.600   1.85638e-23
      160.700   1.81871e-23
      160.800   1.78179e-23
      160.900   1.74557e-23
      161.000   1.71009e-23
      161.100   1.67530e-23
      161.200   1.64123e-23
      161.300   1.60785e-23
      161.400   1.57512e-23
      161.500   1.54306e-23
      161.600   1.51162e-23
      161.700   1.48077e-23
      161.800   1.45055e-23
      161.900   1.42145e-23
      162.000   1.39739e-23
      162.100   1.37640e-23
      162.200   1.35572e-23
      162.300   1.33533e-23
      162.400   1.31524e-23
      162.500   1.29543e-23
      162.600   1.27592e-23
      162.700   1.25668e-23
      162.800   1.23772e-23
      162.900   1.21904e-23
      163.000   1.20064e-23
      163.100   1.18250e-23
      163.200   1.16460e-23
      163.300   1.14697e-23
      163.400   1.12959e-23
      163.500   1.11247e-23
      163.600   1.09560e-23
      163.700   1.07896e-23
      163.800   1.06258e-23
      163.900   1.04644e-23
      164.000   1.03052e-23
      164.100   1.01159e-23
      164.200   9.84314e-24
      164.300   9.57804e-24
      164.400   9.32000e-24
      164.500   9.06885e-24
      164.600   8.82440e-24
      164.700   8.58632e-24
      164.800   8.38127e-24
      164.900   8.23923e-24
      165.000   8.12296e-24
      165.100   8.00824e-24
      165.200   7.89509e-24
      165.300   7.78348e-24
      165.400   7.67351e-24
      165.500   7.56500e-24
      165.600   7.38872e-24
      165.700   7.18684e-24
      165.800   6.98819e-24
      165.900   6.79498e-24
      166.000   6.60735e-24
      166.100   6.42480e-24
      166.200   6.24725e-24
      166.300   6.07459e-24
      166.400   5.90663e-24
      166.500   5.74320e-24
      166.600   5.58424e-24
      166.700   5.42967e-24
      166.800   5.27924e-24
      166.900   5.13296e-24
      167.000   4.99077e-24
      167.100   4.85236e-24
      167.200   4.71774e-24
      167.300   4.58681e-24
      167.400   4.45949e-24
      167.500   4.33562e-24
      167.600   4.21515e-24
      167.700   4.09800e-24
      167.800   3.98407e-24
      167.900   3.87325e-24
      168.000   3.76546e-24
      168.100   3.66061e-24
      168.200   3.55865e-24
      168.300   3.45948e-24
      168.400   3.36306e-24
      168.500   3.27010e-24
      168.600   3.19871e-24
      168.700   3.13885e-24
      168.800   3.08009e-24
      168.900   3.02241e-24
      169.000   2.96581e-24
      169.100   2.91019e-24
      169.200   2.85564e-24
      169.300   2.80207e-24
      169.400   2.74949e-24
      169.500   2.69770e-24
      169.600   2.64624e-24
      169.700   2.59505e-24
      169.800   2.54462e-24
      169.900   2.49511e-24
      170.000   2.44652e-24
      170.100   2.37683e-24
      170.200   2.27728e-24
      170.300   2.87304e-24
      170.400   5.98052e-24
      170.500   1.10317e-23
      170.600   1.57923e-23
      170.700   1.92751e-23
      170.800   2.04934e-23
      170.900   2.01117e-23
      171.000   1.94688e-23
      171.100   1.88671e-23
      171.200   1.82829e-23
      171.300   1.77155e-23
      171.400   1.71648e-23
      171.500   1.66302e-23
      171.600   1.61111e-23
      171.700   1.56077e-23
      171.800   1.51192e-23
      171.900   1.46456e-23
      172.000   1.41866e-23
      172.100   1.37417e-23
      172.200   1.33108e-23
      172.300   1.28930e-23
      172.400   1.24857e-23
      172.500   1.20909e-23
      172.600   1.17087e-23
      172.700   1.13388e-23
      172.800   1.09806e-23
      172.900   1.06338e-23
      173.000   1.02983e-23
      173.100   9.97352e-24
      173.200   9.65906e-24
      173.300   9.35475e-24
      173.400   9.06002e-24
      173.500   8.77484e-24
      173.600   8.49885e-24
      173.700   8.23156e-24
      173.800   7.97293e-24
      173.900   7.72258e-24
      174.000   7.48009e-24
      174.100   7.24538e-24
      174.200   7.01813e-24
      174.300   6.79800e-24
      174.400   6.58488e-24
      174.500   6.37841e-24
      174.600   6.17840e-24
      174.700   5.98475e-24
      174.800   5.79721e-24
      174.900   5.61546e-24
      175.000   5.43934e-24
      175.100   5.26871e-24
      175.200   5.10363e-24
      175.300   4.94363e-24
      175.400   4.78860e-24
      175.500   4.63849e-24
      175.600   4.49298e-24
      175.700   4.35205e-24
      175.800   4.21545e-24
      175.900   4.08313e-24
      176.000   3.95493e-24
      176.100   3.83077e-24
      176.200   3.71048e-24
      176.300   3.59391e-24
      176.400   3.48102e-24
      176.500   3.37135e-24
      176.600   3.21503e-24
      176.700   3.04258e-24
      176.800   2.87928e-24
      176.900   2.72469e-24
      177.000   2.57829e-24
      177.100   2.43968e-24
      177.200   2.30849e-24
      177.300   2.18429e-24
      177.400   2.06665e-24
      177.500   1.95526e-24
      177.600   1.84985e-24
      177.700   1.75007e-24
      177.800   1.65561e-24
      177.900   1.56616e-24
      178.000   1.48161e-24
      178.100   1.40158e-24
      178.200   1.32580e-24
      178.300   1.25407e-24
      178.400   1.18621e-24
      178.500   1.12197e-24
      178.600   1.06243e-24
      178.700   1.01282e-24
      178.800   9.76042e-25
      178.900   9.40589e-25
      179.000   9.06404e-25
      179.100   8.73439e-25
      179.200   8.41673e-25
      179.300   8.11051e-25
      179.400   7.81525e-25
      179.500   7.53087e-25
      179.600   7.25695e-25
      179.700   6.99295e-25
      179.800   6.73847e-25
      179.900   6.49323e-25
      180.000   6.25680e-25
      180.100   6.02902e-25
      180.200   5.80960e-25
      180.300   5.59811e-25
      180.400   5.39431e-25
      180.500   5.19800e-25
      180.600   5.00878e-25
      180.700   4.82647e-25
      180.800   4.65083e-25
      180.900   4.48158e-25
      181.000   4.31844e-25
      181.100   4.16128e-25
      181.200   4.00988e-25
      181.300   3.86398e-25
      181.400   3.72344e-25
      181.500   3.58799e-25
      181.600   3.45748e-25
      181.700   3.33171e-25
      181.800   3.21054e-25
      181.900   3.09377e-25
      182.000   2.98131e-25
      182.100   2.87289e-25
      182.200   2.76944e-25
      182.300   2.67786e-25
      182.400   2.58988e-25
      182.500   2.50477e-25
      182.600   2.42246e-25
      182.700   2.34285e-25
      182.800   2.26585e-25
      182.900   2.19136e-25
      183.000   2.11933e-25
      183.100   2.04967e-25
      183.200   1.98228e-25
      183.300   1.91708e-25
      183.400   1.85402e-25
      183.500   1.79303e-25
      183.600   1.73404e-25
      183.700   1.67697e-25
      183.800   1.62180e-25
      183.900   1.56844e-25
      184.000   1.51683e-25
      184.100   1.46695e-25
      184.200   1.41874e-25
      184.300   1.37211e-25
      184.400   1.32703e-25
      184.500   1.28342e-25
      184.600   1.24122e-25
      184.700   1.20041e-25
      184.800   1.16094e-25
      184.900   1.12276e-25
      185.000   1.08582e-25
      185.100   1.05053e-25
      185.200   1.01851e-25
      185.300   9.90239e-26
      185.400   9.62748e-26
      185.500   9.36008e-26
      185.600   9.10006e-26
      185.700   8.84725e-26
      185.800   8.60178e-26
      185.900   8.36315e-26
      186.000   8.13114e-26
      186.100   7.90548e-26
      186.200   7.68597e-26
      186.300   7.47242e-26
      186.400   7.26487e-26
      186.500   7.06302e-26
      186.600   6.86662e-26
      186.700   6.67553e-26
      186.800   6.48969e-26
      186.900   6.30901e-26
      187.000   6.13326e-26
      187.100   5.96219e-26
      187.200   5.79596e-26
      187.300   5.63453e-26
      187.400   5.47750e-26
      187.500   5.32480e-26
      187.600   5.17628e-26
      187.700   5.03184e-26
      187.800   4.89138e-26
      187.900   4.75476e-26
      188.000   4.62192e-26
      188.100   4.48564e-26
      188.200   4.32880e-26
      188.300   4.14686e-26
      188.400   3.97249e-26
      188.500   3.80537e-26
      188.600   3.64544e-26
      188.700   3.49241e-26
      188.800   3.34580e-26
      188.900   3.20527e-26
      189.000   3.07056e-26
      189.100   2.94141e-26
      189.200   2.81764e-26
      189.300   2.69903e-26
      189.400   2.58538e-26
      189.500   2.47706e-26
      189.600   2.38169e-26
      189.700   2.32260e-26
      189.800   2.26522e-26
      189.900   2.20931e-26
      190.000   2.15484e-26
      190.100   2.10172e-26
      190.200   2.04991e-26
      190.300   1.99939e-26
      190.400   1.95010e-26
      190.500   1.90203e-26
      190.600   1.85517e-26
      190.700   1.80945e-26
      190.800   1.76487e-26
      190.900   1.72139e-26
      191.000   1.67906e-26
      191.100   1.63781e-26
      191.200   1.59754e-26
      191.300   1.55829e-26
      191.400   1.52001e-26
      191.500   1.48266e-26
      191.600   1.44624e-26
      191.700   1.41070e-26
      191.800   1.37603e-26
      191.900   1.34221e-26
      192.000   1.30924e-26
      192.100   1.27711e-26
      192.200   1.24582e-26
      192.300   1.21528e-26
      192.400   1.18549e-26
      192.500   1.15426e-26
      192.600   1.11694e-26
      192.700   1.07530e-26
      192.800   1.03520e-26
      192.900   9.96556e-27
      193.000   9.59350e-27
      193.100   9.23579e-27
      193.200   8.89200e-27
      193.300   8.56096e-27
      193.400   8.24220e-27
      193.500   7.93513e-27
      193.600   7.63929e-27
      193.700   7.35434e-27
      193.800   7.07998e-27
      193.900   6.81581e-27
      194.000   6.56648e-27
      194.100   6.42754e-27
      194.200   6.32567e-27
      194.300   6.22787e-27
      194.400   6.13162e-27
      194.500   6.03695e-27
      194.600   5.94374e-27
      194.700   5.85199e-27
      194.800   5.76169e-27
      194.900   5.67275e-27
      195.000   5.58524e-27
      195.100   5.49927e-27
      195.200   5.41459e-27
      195.300   5.33120e-27
      195.400   5.24907e-27
      195.500   5.16655e-27
      195.600   5.04266e-27
      195.700   4.85050e-27
      195.800   4.66552e-27
      195.900   4.48753e-27
      196.000   4.31606e-27
      196.100   4.15100e-27
      196.200   3.99215e-27
      196.300   3.83923e-27
      196.400   3.69204e-27
      196.500   3.55031e-27
      196.600   3.41394e-27
      196.700   3.28267e-27
      196.800   3.15657e-27
      196.900   3.03558e-27
      197.000   2.91914e-27
      197.100   2.80703e-27
      197.200   2.69914e-27
      197.300   2.59526e-27
      197.400   2.49524e-27
      197.500   2.39900e-27
      197.600   2.30637e-27
      197.700   2.21767e-27
      197.800   2.13236e-27
      197.900   2.05021e-27
      198.000   1.97114e-27
      198.100   1.89505e-27
      198.200   1.82182e-27
      198.300   1.75132e-27
      198.400   1.68351e-27
      198.500   1.61852e-27
      198.600   1.55607e-27
      198.700   1.50206e-27
      198.800   1.45843e-27
      198.900   1.42020e-27
      199.000   1.38293e-27
      199.100   1.34662e-27
      199.200   1.31125e-27
      199.300   1.27690e-27
      199.400   1.24346e-27
      199.500   1.21087e-27
      199.600   1.17911e-27
      199.700   1.14818e-27
      199.800   1.11804e-27
      199.900   1.08867e-27
      200.000   1.06005e-27
      200.100   1.03230e-27
      200.200   1.00524e-27
      200.300   9.78908e-28
      200.400   9.53244e-28
      200.500   9.28239e-28
      200.600   9.03903e-28
      200.700   8.80195e-28
      200.800   8.57090e-28
      200.900   8.34607e-28
      201.000   8.12717e-28
      201.100   7.91429e-28
      201.200   7.70694e-28
      201.300   7.50494e-28
      201.400   7.30829e-28
      201.500   7.11675e-28
      201.600   6.93011e-28
      201.700   6.74841e-28
      201.800   6.57143e-28
      201.900   6.39405e-28
      202.000   6.13889e-28
      202.100   5.85562e-28
      202.200   5.58538e-28
      202.300   5.32793e-28
      202.400   5.08299e-28
      202.500   4.84942e-28
      202.600   4.62639e-28
      202.700   4.41360e-28
      202.800   4.21071e-28
      202.900   4.01746e-28
      203.000   3.83302e-28
      203.100   3.65708e-28
      203.200   3.48901e-28
      203.300   3.32855e-28
      203.400   3.17541e-28
      203.500   3.02928e-28
      203.600   2.89504e-28
      203.700   2.78114e-28
      203.800   2.67370e-28
      203.900   2.57054e-28
      204.000   2.47131e-28
      204.100   2.37589e-28
      204.200   2.28417e-28
      204.300   2.19594e-28
      204.400   2.11112e-28
      204.500   2.02955e-28
      204.600   1.95111e-28
      204.700   1.87568e-28
      204.800   1.80327e-28
      204.900   1.73374e-28
      205.000   1.66688e-28
      205.100   1.60260e-28
      205.200   1.54077e-28
      205.300   1.48133e-28
      205.400   1.42418e-28
      205.500   1.36921e-28
      205.600   1.31624e-28
      205.700   1.26466e-28
      205.800   1.21493e-28
      205.900   1.16720e-28
      206.000   1.12142e-28
      206.100   1.07741e-28
      206.200   1.03510e-28
      206.300   9.94455e-29
      206.400   9.55407e-29
      206.500   9.17861e-29
      206.600   8.81783e-29
      206.700   8.47118e-29
      206.800   8.13793e-29
      206.900   7.81766e-29
      207.000   7.50994e-29
      207.100   7.21476e-29
      207.200   6.93134e-29
      207.300   6.65880e-29
      207.400   6.39685e-29
      207.500   6.14510e-29
      207.600   5.90322e-29
      207.700   5.67065e-29
      207.800   5.44715e-29
      207.900   5.23237e-29
      208.000   5.02595e-29
      208.100   4.82762e-29
      208.200   4.63698e-29
      208.300   4.45385e-29
      208.400   4.27819e-29
      208.500   4.10941e-29
      208.600   3.94716e-29
      208.700   3.79119e-29
      208.800   3.64133e-29
      208.900   3.49195e-29
      209.000   3.32594e-29
      209.100   3.15251e-29
      209.200   2.98802e-29
      209.300   2.83193e-29
      209.400   2.68399e-29
      209.500   2.54364e-29
      209.600   2.41050e-29
      209.700   2.28443e-29
      209.800   2.16515e-29
      209.900   2.05193e-29
      210.000   1.94462e-29
      210.100   1.84284e-29
      210.200   1.74632e-29
      210.300   1.65481e-29
      210.400   1.56805e-29
      210.500   1.48577e-29
      210.600   1.40776e-29
      210.700   1.33382e-29
      210.800   1.26371e-29
      210.900   1.19724e-29
      211.000   1.13423e-29
      211.100   1.07452e-29
      211.200   1.01791e-29
      211.300   9.64389e-30
      211.400   9.13687e-30
      211.500   8.65601e-30
      211.600   8.20027e-30
      211.700   7.76838e-30
      211.800   7.35876e-30
      211.900   6.97056e-30
      212.000   6.60290e-30
      212.100   6.25431e-30
      212.200   5.92388e-30
      212.300   5.59684e-30
      212.400   5.24822e-30
      212.500   4.90581e-30
      212.600   4.58555e-30
      212.700   4.28597e-30
      212.800   4.00575e-30
      212.900   3.74376e-30
      213.000   3.49889e-30
      213.100   3.27036e-30
      213.200   3.05659e-30
      213.300   2.85669e-30
      213.400   2.66970e-30
      213.500   2.49484e-30
      213.600   2.33131e-30
      213.700   2.17843e-30
      213.800   2.03545e-30
      213.900   1.90184e-30
      214.000   1.77688e-30
      214.100   1.66211e-30
      214.200   1.57864e-30
      214.300   1.51515e-30
      214.400   1.45419e-30
      214.500   1.39568e-30
      214.600   1.33952e-30
      214.700   1.28562e-30
      214.800   1.23388e-30
      214.900   1.18423e-30
      215.000   1.13656e-30
      215.100   1.09081e-30
      215.200   1.04696e-30
      215.300   1.00488e-30
      215.400   9.64489e-31
      215.500   9.25712e-31
      215.600   8.88521e-31
      215.700   8.52800e-31
      215.800   8.18509e-31
      215.900   7.85617e-31
      216.000   7.50917e-31
      216.100   7.10348e-31
      216.200   6.69259e-31
      216.300   6.30542e-31
      216.400   5.94055e-31
      216.500   5.59654e-31
      216.600   5.27246e-31
      216.700   4.96712e-31
      216.800   4.67932e-31
      216.900   4.40819e-31
      217.000   4.15270e-31
      217.100   3.91186e-31
      217.200   3.68500e-31
      217.300   3.47125e-31
      217.400   3.26980e-31
      217.500   3.08008e-31
      217.600   2.90121e-31
      217.700   2.73266e-31
      217.800   2.57393e-31
      217.900   2.42379e-31
      218.000   2.26718e-31
      218.100   2.12062e-31
      218.200   1.98349e-31
      218.300   1.85524e-31
      218.400   1.73536e-31
      218.500   1.62312e-31
      218.600   1.51813e-31
      218.700   1.41988e-31
      218.800   1.32793e-31
      218.900   1.24194e-31
      219.000   1.16144e-31
      219.100   1.08611e-31
      219.200   1.01566e-31
      219.300   9.49751e-32
      219.400   8.88073e-32
      219.500   8.30379e-32
      219.600   7.76407e-32
      219.700   7.25913e-32
      219.800   6.78698e-32
      219.900   6.34521e-32
      220.000   5.93187e-32
      220.100   5.54529e-32
      220.200   5.18373e-32
      220.300   4.84565e-32
      220.400   4.52935e-32
      220.500   4.23366e-32
      220.600   3.95716e-32
      220.700   3.69845e-32
      220.800   3.45651e-32
      220.900   3.23043e-32
      221.000   3.01894e-32
      221.100   2.82114e-32
      221.200   2.63630e-32
      221.300   2.46346e-32
      221.400   2.30183e-32
      221.500   2.15078e-32
      221.600   2.00954e-32
      221.700   1.87749e-32
      221.800   1.76282e-32
      221.900   1.67764e-32
      222.000   1.60286e-32
      222.100   1.53137e-32
      222.200   1.46306e-32
      222.300   1.39777e-32
      222.400   1.33539e-32
      222.500   1.27576e-32
      222.600   1.21879e-32
      222.700   1.16434e-32
      222.800   1.11231e-32
      222.900   1.06260e-32
      223.000   1.01509e-32
      223.100   9.69685e-33
      223.200   9.26310e-33
      223.300   8.84854e-33
      223.400   8.45252e-33
      223.500   8.07396e-33
      223.600   7.71241e-33
      223.700   7.36691e-33
      223.800   7.02981e-33
      223.900   6.66135e-33
      224.000   6.30531e-33
      224.100   5.96823e-33
      224.200   5.64905e-33
      224.300   5.34686e-33
      224.400   5.06060e-33
      224.500   4.78972e-33
      224.600   4.53313e-33
      224.700   4.29034e-33
      224.800   4.06037e-33
      224.900   3.84260e-33
      225.000   3.63648e-33
      225.100   3.44132e-33
      225.200   3.25653e-33
      225.300   3.08172e-33
      225.400   2.91611e-33
      225.500   2.75935e-33
      225.600   2.61096e-33
      225.700   2.47056e-33
      225.800   2.33758e-33
      225.900   2.24557e-33
      226.000   2.17093e-33
      226.100   2.10018e-33
      226.200   2.03170e-33
      226.300   1.96561e-33
      226.400   1.90175e-33
      226.500   1.83989e-33
      226.600   1.77999e-33
      226.700   1.72202e-33
      226.800   1.66591e-33
      226.900   1.61162e-33
      227.000   1.55907e-33
      227.100   1.50823e-33
      227.200   1.45906e-33
      227.300   1.41148e-33
      227.400   1.36545e-33
      227.500   1.32091e-33
      227.600   1.27782e-33
      227.700   1.23614e-33
      227.800   1.19582e-33
      227.900   1.15294e-33
      228.000   1.10178e-33
      228.100   1.04735e-33
      228.200   9.95589e-34
      228.300   9.46386e-34
      228.400   8.99616e-34
      228.500   8.55131e-34
      228.600   8.12853e-34
      228.700   7.72657e-34
      228.800   7.34429e-34
      228.900   6.98105e-34
      229.000   6.63567e-34
      229.100   6.30731e-34
      229.200   5.99514e-34
      229.300   5.69840e-34
      229.400   5.41632e-34
      229.500   5.14816e-34
      229.600   4.89322e-34
      229.700   4.65088e-34
      229.800   4.42053e-34
      229.900   4.20157e-34
      230.000   3.99091e-34
      230.100   3.77161e-34
      230.200   3.55304e-34
      230.300   3.34721e-34
      230.400   3.15317e-34
      230.500   2.97046e-34
      230.600   2.79847e-34
      230.700   2.63636e-34
      230.800   2.48363e-34
      230.900   2.33973e-34
      231.000   2.20410e-34
      231.100   2.07629e-34
      231.200   1.95589e-34
      231.300   1.84247e-34
      231.400   1.73561e-34
      231.500   1.63488e-34
      231.600   1.53995e-34
      231.700   1.45054e-34
      231.800   1.36631e-34
      231.900   1.28693e-34
      232.000   1.21214e-34
      232.100   1.14167e-34
      232.200   1.08489e-34
      232.300   1.04446e-34
      232.400   1.00907e-34
      232.500   9.74892e-35
      232.600   9.41874e-35
      232.700   9.09975e-35
      232.800   8.79161e-35
      232.900   8.49369e-35
      233.000   8.20554e-35
      233.100   7.92721e-35
      233.200   7.65841e-35
      233.300   7.39872e-35
      233.400   7.14787e-35
      233.500   6.90564e-35
      233.600   6.67176e-35
      233.700   6.44580e-35
      233.800   6.22506e-35
      233.900   6.01149e-35
      234.000   5.80523e-35
      234.100   5.60601e-35
      234.200   5.41372e-35
      234.300   5.22795e-35
      234.400   5.04854e-35
      234.500   4.87529e-35
      234.600   4.70794e-35
      234.700   4.54639e-35
      234.800   4.39039e-35
      234.900   4.23970e-35
      235.000   4.09414e-35
      235.100   3.95358e-35
      235.200   3.81786e-35
      235.300   3.68679e-35
      235.400   3.56015e-35
      235.500   3.43792e-35
      235.600   3.31989e-35
      235.700   3.20586e-35
      235.800   3.09591e-35
      235.900   2.98972e-35
      236.000   2.88721e-35
      236.100   2.78815e-35
      236.200   2.69249e-35
      236.300   2.60009e-35
      236.400   2.51089e-35
      236.500   2.42471e-35
      236.600   2.34593e-35
      236.700   2.27937e-35
      236.800   2.22078e-35
      236.900   2.16368e-35
      237.000   2.10804e-35
      237.100   2.05383e-35
      237.200   2.00101e-35
      237.300   1.94954e-35
      237.400   1.89938e-35
      237.500   1.85052e-35
      237.600   1.80287e-35
      237.700   1.75651e-35
      237.800   1.71136e-35
      237.900   1.66733e-35
      238.000   1.62443e-35
      238.100   1.58263e-35
      238.200   1.54190e-35
      238.300   1.50220e-35
      238.400   1.46351e-35
      238.500   1.42580e-35
      238.600   1.38907e-35
      238.700   1.35327e-35
      238.800   1.31839e-35
      238.900   1.28709e-35
      239.000   1.26601e-35
      239.100   1.24635e-35
      239.200   1.22700e-35
      239.300   1.20795e-35
      239.400   1.18918e-35
      239.500   1.17071e-35
      239.600   1.15249e-35
      239.700   1.13456e-35
      239.800   1.11692e-35
      239.900   1.09953e-35
      240.000   1.08240e-35
      240.100   1.06553e-35
      240.200   1.04892e-35
      240.300   1.03255e-35
      240.400   1.01644e-35
      240.500   1.00057e-35
      240.600   9.84943e-36
      240.700   9.69537e-36
      240.800   9.54365e-36
      240.900   9.39443e-36
      241.000   9.24740e-36
      241.100   9.10262e-36
      241.200   8.96010e-36
      241.300   8.81962e-36
      241.400   8.68135e-36
      241.500   8.54521e-36
      241.600   8.41116e-36
      241.700   8.27914e-36
      241.800   8.14904e-36
      241.900   8.02099e-36
      242.000   7.89493e-36
      242.100   7.77082e-36
      242.200   7.64867e-36
      242.300   7.52855e-36
      242.400   7.41020e-36
      242.500   7.29371e-36
      242.600   7.17896e-36
      242.700   7.06600e-36
      242.800   6.95487e-36
      242.900   6.84545e-36
      243.000   6.73768e-36
      243.100   6.63159e-36
      243.200   6.52717e-36
      243.300   6.42435e-36
      243.400   6.32320e-36
      243.500   6.22367e-36
      243.600   6.12575e-36
      243.700   6.02936e-36
      243.800   5.93450e-36
      243.900   5.84111e-36
      244.000   5.74918e-36
      244.100   5.65874e-36
      244.200   5.56973e-36
      244.300   5.48208e-36
      244.400   5.39581e-36
      244.500   5.31097e-36
      244.600   5.22740e-36
      244.700   5.14520e-36
      244.800   5.06444e-36
      244.900   4.98488e-36
      245.000   4.90659e-36
      245.100   4.82955e-36
      245.200   4.75374e-36
      245.300   4.67913e-36
      245.400   4.60568e-36
      245.500   4.53341e-36
      245.600   4.46231e-36
      245.700   4.39231e-36
      245.800   4.32345e-36
      245.900   4.25571e-36
      246.000   4.18912e-36
      246.100   4.12357e-36
      246.200   4.05903e-36
      246.300   3.99555e-36
      246.400   3.93311e-36
      246.500   3.87163e-36
      246.600   3.81110e-36
      246.700   3.75156e-36
      246.800   3.69296e-36
      246.900   3.63532e-36
      247.000   3.57861e-36
      247.100   3.52278e-36
      247.200   3.46792e-36
      247.300   3.41391e-36
      247.400   3.36076e-36
      247.500   3.30844e-36
      247.600   3.25693e-36
      247.700   3.20626e-36
      247.800   3.15641e-36
      247.900   3.10731e-36
      248.000   3.05904e-36
      248.100   3.01160e-36
      248.200   2.96492e-36
      248.300   2.91894e-36
      248.400   2.87367e-36
      248.500   2.81070e-36
      248.600   2.71894e-36
      248.700   2.61102e-36
      248.800   2.50732e-36
      248.900   2.40773e-36
      249.000   2.31205e-36
      249.100   2.22048e-36
      249.200   2.13259e-36
      249.300   2.04813e-36
      249.400   1.96698e-36
      249.500   1.88900e-36
      249.600   1.81408e-36
      249.700   1.74211e-36
      249.800   1.67295e-36
      249.900   1.60651e-36
      250.000   1.54269e-36
      250.100   1.48157e-36
      250.200   1.42288e-36
      250.300   1.36657e-36
      250.400   1.31245e-36
      250.500   1.26046e-36
      250.600   1.21053e-36
      250.700   1.16255e-36
      250.800   1.11647e-36
      250.900   1.07220e-36
      251.000   1.02968e-36
      251.100   9.88829e-37
      251.200   9.49640e-37
      251.300   9.12063e-37
      251.400   8.75971e-37
      251.500   8.41291e-37
      251.600   7.93020e-37
      251.700   7.19496e-37
      251.800   6.48909e-37
      251.900   5.85151e-37
      252.000   5.27567e-37
      252.100   4.75601e-37
      252.200   4.28668e-37
      252.300   3.86404e-37
      252.400   3.48428e-37
      252.500   3.14154e-37
      252.600   2.84865e-37
      252.700   2.68032e-37
      252.800   2.62159e-37
      252.900   2.56418e-37
      253.000   2.50802e-37
      253.100   2.45308e-37
      253.200   2.39937e-37
      253.300   2.34734e-37
      253.400   2.29666e-37
      253.500   2.24716e-37
      253.600   2.19875e-37
      253.700   2.15034e-37
      253.800   2.09801e-37
      253.900   2.04599e-37
      254.000   1.99526e-37
      254.100   1.94577e-37
      254.200   1.89749e-37
      254.300   1.85042e-37
      254.400   1.80452e-37
      254.500   1.75976e-37
      254.600   1.71607e-37
      254.700   1.67350e-37
      254.800   1.63202e-37
      254.900   1.59157e-37
      255.000   1.55211e-37
      255.100   1.51360e-37
      255.200   1.47606e-37
      255.300   1.43944e-37
      255.400   1.40372e-37
      255.500   1.36888e-37
      255.600   1.33490e-37
      255.700   1.30176e-37
      255.800   1.26942e-37
      255.900   1.23788e-37
      256.000   1.20711e-37
      256.100   1.17713e-37
      256.200   1.14790e-37
      256.300   1.11938e-37
      256.400   1.09160e-37
      256.500   1.06447e-37
      256.600   1.03800e-37
      256.700   1.01219e-37
      256.800   9.87023e-38
      256.900   9.56514e-38
      257.000   9.17536e-38
      257.100   8.77260e-38
      257.200   8.38749e-38
      257.300   8.01907e-38
      257.400   7.66773e-38
      257.500   7.33200e-38
      257.600   7.01152e-38
      257.700   6.70509e-38
      257.800   6.41181e-38
      257.900   6.13135e-38
      258.000   5.86306e-38
      258.100   5.60633e-38
      258.200   5.36079e-38
      258.300   5.12598e-38
      258.400   4.90122e-38
      258.500   4.68624e-38
      258.600   4.48066e-38
      258.700   4.28399e-38
      258.800   4.09585e-38
      258.900   3.91600e-38
      259.000   3.74388e-38
      259.100   3.57932e-38
      259.200   3.42202e-38
      259.300   3.27183e-38
      259.400   3.12811e-38
      259.500   2.99065e-38
      259.600   2.85920e-38
      259.700   2.73351e-38
      259.800   2.61327e-38
      259.900   2.49823e-38
      260.000   2.38825e-38
      260.100   2.27517e-38
      260.200   2.15766e-38
      260.300   2.04447e-38
      260.400   1.93719e-38
      260.500   1.83551e-38
      260.600   1.73907e-38
      260.700   1.64768e-38
      260.800   1.56110e-38
      260.900   1.47899e-38
      261.000   1.40124e-38
      261.100   1.32762e-38
      261.200   1.25745e-38
      261.300   1.19093e-38
      261.400   1.12791e-38
      261.500   1.06823e-38
      261.600   1.01175e-38
      261.700   9.58270e-39
      261.800   9.07598e-39
      261.900   8.59567e-39
      262.000   8.14068e-39
      262.100   7.70958e-39
      262.200   7.30139e-39
      262.300   6.91449e-39
      262.400   6.54803e-39
      262.500   6.20076e-39
      262.600   5.87178e-39
      262.700   5.56024e-39
      262.800   5.26513e-39
      262.900   4.98544e-39
      263.000   4.72076e-39
      263.100   4.46996e-39
      263.200   4.23281e-39
      263.300   4.00820e-39
      263.400   3.79539e-39
      263.500   3.59390e-39
      263.600   3.40304e-39
      263.700   3.22224e-39
      263.800   3.05096e-39
      263.900   2.88888e-39
      264.000   2.73528e-39
      264.100   2.58976e-39
      264.200   2.45193e-39
      264.300   2.32151e-39
      264.400   2.19796e-39
      264.500   2.08092e-39
      264.600   1.97007e-39
      264.700   1.86513e-39
      264.800   1.76571e-39
      264.900   1.67162e-39
      265.000   1.58252e-39
      265.100   1.49810e-39
      265.200   1.41818e-39
      265.300   1.34251e-39
      265.400   1.26986e-39
      265.500   1.20072e-39
      265.600   1.13536e-39
      265.700   1.07349e-39
      265.800   1.01505e-39
      265.900   9.59808e-40
      266.000   9.07593e-40
      266.100   8.58201e-40
      266.200   8.11498e-40
      266.300   7.67305e-40
      266.400   7.25531e-40
      266.500   6.86006e-40
      266.600   6.48632e-40
      266.700   6.13280e-40
      266.800   5.79873e-40
      266.900   5.48258e-40
      267.000   5.18363e-40
      267.100   4.90087e-40
      267.200   4.63374e-40
      267.300   4.38096e-40
      267.400   4.14189e-40
      267.500   3.91587e-40
      267.600   3.70216e-40
      267.700   3.50005e-40
      267.800   3.30889e-40
      267.900   3.12819e-40
      268.000   2.95738e-40
      268.100   2.79579e-40
      268.200   2.64310e-40
      268.300   2.49871e-40
      268.400   2.36217e-40
      268.500   2.23298e-40
      268.600   2.11092e-40
      268.700   1.99551e-40
      268.800   1.88640e-40
      268.900   1.78321e-40
      269.000   1.68572e-40
      269.100   1.59349e-40
      269.200   1.50633e-40
      269.300   1.42390e-40
      269.400   1.34598e-40
      269.500   1.27224e-40
      269.600   1.20265e-40
      269.700   1.12652e-40
      269.800   1.05284e-40
      269.900   9.83852e-41
      270.000   9.19420e-41
      270.100   8.59150e-41
      270.200   8.02888e-41
      270.300   7.50269e-41
      270.400   7.01140e-41
      270.500   6.55163e-41
      270.600   6.12185e-41
      270.700   5.72024e-41
      270.800   5.34483e-41
      270.900   4.99437e-41
      271.000   4.66618e-41
      271.100   4.35986e-41
      271.200   4.07329e-41
      271.300   3.80551e-41
      271.400   3.55565e-41
      271.500   3.32206e-41
      271.600   3.10360e-41
      271.700   2.89915e-41
      271.800   2.70843e-41
      271.900   2.52976e-41
      272.000   2.36329e-41
      272.100   2.20747e-41
      272.200   2.06271e-41
      272.300   1.92651e-41
      272.400   1.79941e-41
      272.500   1.68058e-41
      272.600   1.56973e-41
      272.700   1.46646e-41
      272.800   1.37383e-41
      272.900   1.29970e-41
      273.000   1.23510e-41
      273.100   1.17387e-41
      273.200   1.11529e-41
      273.300   1.05980e-41
      273.400   1.00711e-41
      273.500   9.56947e-42
      273.600   9.09303e-42
      273.700   8.64181e-42
      273.800   8.21161e-42
      273.900   7.73797e-42
      274.000   7.15923e-42
      274.100   6.61693e-42
      274.200   6.11807e-42
      274.300   5.65844e-42
      274.400   5.23385e-42
      274.500   4.83728e-42
      274.600   4.47294e-42
      274.700   4.13103e-42
      274.800   3.81854e-42
      274.900   3.52707e-42
      275.000   3.25942e-42
      275.100   3.01279e-42
      275.200   2.78298e-42
      275.300   2.57138e-42
      275.400   2.37660e-42
      275.500   2.19864e-42
      275.600   2.02628e-42
      275.700   1.87213e-42
      275.800   1.73200e-42
      275.900   1.60028e-42
      276.000   1.48538e-42
      276.100   1.39990e-42
      276.200   1.32843e-42
      276.300   1.25837e-42
      276.400   1.19110e-42
      276.500   1.12805e-42
      276.600   1.07339e-42
      276.700   1.01314e-42
      276.800   9.61291e-43
      276.900   9.08041e-43
      277.000   8.58996e-43
      277.100   8.14154e-43
      277.200   7.73517e-43
      277.300   7.31478e-43
      277.400   6.93643e-43
      277.500   6.54406e-43
      277.600   6.19374e-43
      277.700   5.84341e-43
      277.800   5.56315e-43
      277.900   5.24086e-43
      278.000   5.01665e-43
      278.100   4.76441e-43
      278.200   4.41409e-43
      278.300   4.09179e-43
      278.400   3.76949e-43
      278.500   3.48923e-43
      278.600   3.22299e-43
      278.700   2.99878e-43
      278.800   2.77457e-43
      278.900   2.52234e-43
      279.000   2.39622e-43
      279.100   2.20004e-43
      279.200   2.01787e-43
      279.300   1.91978e-43
      279.400   1.79366e-43
      279.500   1.66755e-43
      279.600   1.52742e-43
      279.700   1.49939e-43
      279.800   1.40130e-43
      279.900   1.30321e-43
      280.000   1.21913e-43
      280.100   1.14906e-43
      280.200   1.05097e-43
      280.300   9.94922e-44
      280.400   9.24857e-44
      280.500   8.68805e-44
      280.600   7.98740e-44
      280.700   7.70714e-44
      280.800   7.00649e-44
      280.900   7.00649e-44
      281.000   6.72623e-44
      281.100   6.02558e-44
      281.200   5.74532e-44
      281.300   5.46506e-44
      281.400   5.04467e-44
      281.500   5.04467e-44
      281.600   4.76441e-44
      281.700   4.48416e-44
      281.800   4.20390e-44
      281.900   3.78351e-44
      282.000   3.78351e-44
      282.100   3.50325e-44
      282.200   3.50325e-44
      282.300   3.22299e-44
      282.400   3.22299e-44
      282.500   2.94273e-44
      282.600   2.94273e-44
      282.700   2.52234e-44
      282.800   2.52234e-44
      282.900   2.52234e-44
      283.000   2.52234e-44
      283.100   2.24208e-44
      283.200   2.24208e-44
      283.300   2.24208e-44
      283.400   1.96182e-44
      283.500   1.96182e-44
      283.600   1.96182e-44
      283.700   1.54143e-44
      283.800   1.54143e-44
      283.900   1.54143e-44
      284.000   1.26117e-44
      284.100   1.26117e-44
      284.200   1.26117e-44
      284.300   1.26117e-44
      284.400   9.80909e-45
      284.500   9.80909e-45
      284.600   9.80909e-45
      284.700   9.80909e-45
      284.800   9.80909e-45
      284.900   9.80909e-45
      285.000   7.00649e-45
      285.100   7.00649e-45
      285.200   7.00649e-45
      285.300   7.00649e-45
      285.400   7.00649e-45
      285.500   7.00649e-45
      285.600   7.00649e-45
      285.700   7.00649e-45
      285.800   7.00649e-45
      285.900   2.80260e-45
      286.000   2.80260e-45
      286.100   2.80260e-45
      286.200   2.80260e-45
      286.300   2.80260e-45
      286.400   2.80260e-45
      286.500   2.80260e-45
      286.600   2.80260e-45
      286.700   2.80260e-45
      286.800   2.80260e-45
      286.900   2.80260e-45
      287.000   2.80260e-45
      287.100   2.80260e-45
      287.200   2.80260e-45
      287.300   2.80260e-45
      287.400   2.80260e-45
      287.500   2.80260e-45
      287.600   2.80260e-45
      287.700   2.80260e-45
      287.800       0.00000
      287.900       0.00000
      288.000       0.00000
      288.100       0.00000
      288.200       0.00000
      288.300       0.00000
      288.400       0.00000
      288.500       0.00000
      288.600       0.00000
      288.700       0.00000
      288.800       0.00000
      288.900       0.00000
      289.000       0.00000
      289.100       0.00000
      289.200       0.00000
      289.300       0.00000
      289.400       0.00000
      289.500       0.00000
      289.600       0.00000
      289.700       0.00000
      289.800       0.00000
      289.900       0.00000
      290.000       0.00000
      290.100       0.00000
      290.200       0.00000
      290.300       0.00000
      290.400       0.00000
      290.500       0.00000
      290.600       0.00000
      290.700       0.00000
      290.800       0.00000
      290.900       0.00000
      291.000       0.00000
      291.100       0.00000
      291.200       0.00000
      291.300       0.00000
      291.400       0.00000
      291.500       0.00000
      291.600       0.00000
      291.700       0.00000
      291.800       0.00000
      291.900       0.00000
      292.000       0.00000
      292.100       0.00000
      292.200       0.00000
      292.300       0.00000
      292.400       0.00000
      292.500       0.00000
      292.600       0.00000
      292.700       0.00000
      292.800       0.00000
      292.900       0.00000
      293.000       0.00000
      293.100       0.00000
      293.200       0.00000
      293.300       0.00000
      293.400       0.00000
      293.500       0.00000
      293.600       0.00000
      293.700       0.00000
      293.800       0.00000
      293.900       0.00000
      294.000       0.00000
      294.100       0.00000
      294.200       0.00000
      294.300       0.00000
      294.400       0.00000
      294.500       0.00000
      294.600       0.00000
      294.700       0.00000
      294.800       0.00000
      294.900       0.00000
      295.000       0.00000
      295.100       0.00000
      295.200       0.00000
      295.300       0.00000
      295.400       0.00000
      295.500       0.00000
      295.600       0.00000
      295.700       0.00000
      295.800       0.00000
      295.900       0.00000
      296.000       0.00000
      296.100       0.00000
      296.200       0.00000
      296.300       0.00000
      296.400       0.00000
      296.500       0.00000
      296.600       0.00000
      296.700       0.00000
      296.800       0.00000
      296.900       0.00000
      297.000       0.00000
      297.100       0.00000
      297.200       0.00000
      297.300       0.00000
      297.400       0.00000
      297.500       0.00000
      297.600       0.00000
      297.700       0.00000
      297.800       0.00000
      297.900       0.00000
      298.000       0.00000
      298.100       0.00000
      298.200       0.00000
      298.300       0.00000
      298.400       0.00000
      298.500       0.00000
      298.600       0.00000
      298.700       0.00000
      298.800       0.00000
      298.900       0.00000
      299.000       0.00000
      299.100       0.00000
      299.200       0.00000
      299.300       0.00000
      299.400       0.00000
      299.500       0.00000
      299.600       0.00000
      299.700       0.00000
      299.800       0.00000
      299.900       0.00000
      300.000       0.00000
      300.100       0.00000
      300.192       0.00000
      300.285       0.00000
      300.377       0.00000
      300.470       0.00000
      300.562       0.00000
      300.654       0.00000
      300.747       0.00000
      300.839       0.00000
      300.932       0.00000
      301.025       0.00000
      301.117       0.00000
      301.210       0.00000
      301.303       0.00000
      301.395       0.00000
      301.488       0.00000
      301.581       0.00000
      301.674       0.00000
      301.766       0.00000
      301.859       0.00000
      301.952       0.00000
      302.045       0.00000
      302.138       0.00000
      302.231       0.00000
      302.324       0.00000
      302.417       0.00000
      302.510       0.00000
      302.603       0.00000
      302.696       0.00000
      302.789       0.00000
      302.882       0.00000
      302.976       0.00000
      303.069       0.00000
      303.162       0.00000
      303.255       0.00000
      303.349       0.00000
      303.442       0.00000
      303.535       0.00000
      303.629       0.00000
      303.722       0.00000
      303.816       0.00000
      303.909       0.00000
      304.003       0.00000
      304.096       0.00000
      304.190       0.00000
      304.283       0.00000
      304.377       0.00000
      304.471       0.00000
      304.564       0.00000
      304.658       0.00000
      304.752       0.00000
      304.846       0.00000
      304.939       0.00000
      305.033       0.00000
      305.127       0.00000
      305.221       0.00000
      305.315       0.00000
      305.409       0.00000
      305.503       0.00000
      305.597       0.00000
      305.691       0.00000
      305.785       0.00000
      305.879       0.00000
      305.973       0.00000
      306.067       0.00000
      306.161       0.00000
      306.255       0.00000
      306.350       0.00000
      306.444       0.00000
      306.538       0.00000
      306.633       0.00000
      306.727       0.00000
      306.821       0.00000
      306.916       0.00000
      307.010       0.00000
      307.105       0.00000
      307.199       0.00000
      307.294       0.00000
      307.388       0.00000
      307.483       0.00000
      307.577       0.00000
      307.672       0.00000
      307.767       0.00000
      307.861       0.00000
      307.956       0.00000
      308.051       0.00000
      308.146       0.00000
      308.240       0.00000
      308.335       0.00000
      308.430       0.00000
      308.525       0.00000
      308.620       0.00000
      308.715       0.00000
      308.810       0.00000
      308.905       0.00000
      309.000       0.00000
      309.095       0.00000
      309.190       0.00000
      309.285       0.00000
      309.380       0.00000
      309.476       0.00000
      309.571       0.00000
      309.666       0.00000
      309.761       0.00000
      309.857       0.00000
      309.952       0.00000
      310.047       0.00000
      310.143       0.00000
      310.238       0.00000
      310.334       0.00000
      310.429       0.00000
      310.525       0.00000
      310.620       0.00000
      310.716       0.00000
      310.811       0.00000
      310.907       0.00000
      311.003       0.00000
      311.098       0.00000
      311.194       0.00000
      311.290       0.00000
      311.386       0.00000
      311.481       0.00000
      311.577       0.00000
      311.673       0.00000
      311.769       0.00000
      311.865       0.00000
      311.961       0.00000
      312.057       0.00000
      312.153       0.00000
      312.249       0.00000
      312.345       0.00000
      312.441       0.00000
      312.537       0.00000
      312.633       0.00000
      312.730       0.00000
      312.826       0.00000
      312.922       0.00000
      313.018       0.00000
      313.115       0.00000
      313.211       0.00000
      313.307       0.00000
      313.404       0.00000
      313.500       0.00000
      313.597       0.00000
      313.693       0.00000
      313.790       0.00000
      313.886       0.00000
      313.983       0.00000
      314.079       0.00000
      314.176       0.00000
      314.273       0.00000
      314.369       0.00000
      314.466       0.00000
      314.563       0.00000
      314.660       0.00000
      314.756       0.00000
      314.853       0.00000
      314.950       0.00000
      315.047       0.00000
      315.144       0.00000
      315.241       0.00000
      315.338       0.00000
      315.435       0.00000
      315.532       0.00000
      315.629       0.00000
      315.726       0.00000
      315.823       0.00000
      315.921       0.00000
      316.018       0.00000
      316.115       0.00000
      316.212       0.00000
      316.310       0.00000
      316.407       0.00000
      316.504       0.00000
      316.602       0.00000
      316.699       0.00000
      316.796       0.00000
      316.894       0.00000
      316.991       0.00000
      317.089       0.00000
      317.187       0.00000
      317.284       0.00000
      317.382       0.00000
      317.479       0.00000
      317.577       0.00000
      317.675       0.00000
      317.773       0.00000
      317.870       0.00000
      317.968       0.00000
      318.066       0.00000
      318.164       0.00000
      318.262       0.00000
      318.360       0.00000
      318.458       0.00000
      318.556       0.00000
      318.654       0.00000
      318.752       0.00000
      318.850       0.00000
      318.948       0.00000
      319.046       0.00000
      319.144       0.00000
      319.242       0.00000
      319.341       0.00000
      319.439       0.00000
      319.537       0.00000
      319.635       0.00000
      319.734       0.00000
      319.832       0.00000
      319.930       0.00000
      320.029       0.00000
      320.127       0.00000
      320.226       0.00000
      320.324       0.00000
      320.423       0.00000
      320.522       0.00000
      320.620       0.00000
      320.719       0.00000
      320.818       0.00000
      320.916       0.00000
      321.015       0.00000
      321.114       0.00000
      321.213       0.00000
      321.311       0.00000
      321.410       0.00000
      321.509       0.00000
      321.608       0.00000
      321.707       0.00000
      321.806       0.00000
      321.905       0.00000
      322.004       0.00000
      322.103       0.00000
      322.202       0.00000
      322.301       0.00000
      322.401       0.00000
      322.500       0.00000
      322.599       0.00000
      322.698       0.00000
      322.798       0.00000
      322.897       0.00000
      322.996       0.00000
      323.096       0.00000
      323.195       0.00000
      323.294       0.00000
      323.394       0.00000
      323.493       0.00000
      323.593       0.00000
      323.692       0.00000
      323.792       0.00000
      323.892       0.00000
      323.991       0.00000
      324.091       0.00000
      324.191       0.00000
      324.291       0.00000
      324.390       0.00000
      324.490       0.00000
      324.590       0.00000
      324.690       0.00000
      324.790       0.00000
      324.890       0.00000
      324.990       0.00000
      325.090       0.00000
      325.190       0.00000
      325.290       0.00000
      325.390       0.00000
      325.490       0.00000
      325.590       0.00000
      325.690       0.00000
      325.790       0.00000
      325.891       0.00000
      325.991       0.00000
      326.091       0.00000
      326.192       0.00000
      326.292       0.00000
      326.392       0.00000
      326.493       0.00000
      326.593       0.00000
      326.694       0.00000
      326.794       0.00000
      326.895       0.00000
      326.995       0.00000
      327.096       0.00000
      327.197       0.00000
      327.297       0.00000
      327.398       0.00000
      327.499       0.00000
      327.599       0.00000
      327.700       0.00000
      327.801       0.00000
      327.902       0.00000
      328.003       0.00000
      328.104       0.00000
      328.205       0.00000
      328.306       0.00000
      328.407       0.00000
      328.508       0.00000
      328.609       0.00000
      328.710       0.00000
      328.811       0.00000
      328.912       0.00000
      329.013       0.00000
      329.115       0.00000
      329.216       0.00000
      329.317       0.00000
      329.419       0.00000
      329.520       0.00000
      329.621       0.00000
      329.723       0.00000
      329.824       0.00000
      329.926       0.00000
      330.027       0.00000
      330.129       0.00000
      330.230       0.00000
      330.332       0.00000
      330.434       0.00000
      330.535       0.00000
      330.637       0.00000
      330.739       0.00000
      330.840       0.00000
      330.942       0.00000
      331.044       0.00000
      331.146       0.00000
      331.248       0.00000
      331.350       0.00000
      331.452       0.00000
      331.554       0.00000
      331.656       0.00000
      331.758       0.00000
      331.860       0.00000
      331.962       0.00000
      332.064       0.00000
      332.166       0.00000
      332.268       0.00000
      332.371       0.00000
      332.473       0.00000
      332.575       0.00000
      332.677       0.00000
      332.780       0.00000
      332.882       0.00000
      332.985       0.00000
      333.087       0.00000
      333.190       0.00000
      333.292       0.00000
      333.395       0.00000
      333.497       0.00000
      333.600       0.00000
      333.702       0.00000
      333.805       0.00000
      333.908       0.00000
      334.011       0.00000
      334.113       0.00000
      334.216       0.00000
      334.319       0.00000
      334.422       0.00000
      334.525       0.00000
      334.628       0.00000
      334.731       0.00000
      334.834       0.00000
      334.937       0.00000
      335.040       0.00000
      335.143       0.00000
      335.246       0.00000
      335.349       0.00000
      335.452       0.00000
      335.555       0.00000
      335.659       0.00000
      335.762       0.00000
      335.865       0.00000
      335.969       0.00000
      336.072       0.00000
      336.175       0.00000
      336.279       0.00000
      336.382       0.00000
      336.486       0.00000
      336.589       0.00000
      336.693       0.00000
      336.796       0.00000
      336.900       0.00000
      337.004       0.00000
      337.107       0.00000
      337.211       0.00000
      337.315       0.00000
      337.419       0.00000
      337.523       0.00000
      337.626       0.00000
      337.730       0.00000
      337.834       0.00000
      337.938       0.00000
      338.042       0.00000
      338.146       0.00000
      338.250       0.00000
      338.354       0.00000
      338.458       0.00000
      338.562       0.00000
      338.667       0.00000
      338.771       0.00000
      338.875       0.00000
      338.979       0.00000
      339.084       0.00000
      339.188       0.00000
      339.292       0.00000
      339.397       0.00000
      339.501       0.00000
      339.606       0.00000
      339.710       0.00000
      339.815       0.00000
      339.919       0.00000
      340.024       0.00000
      340.128       0.00000
      340.233       0.00000
      340.338       0.00000
      340.442       0.00000
      340.547       0.00000
      340.652       0.00000
      340.757       0.00000
      340.862       0.00000
      340.966       0.00000
      341.071       0.00000
      341.176       0.00000
      341.281       0.00000
      341.386       0.00000
      341.491       0.00000
      341.596       0.00000
      341.702       0.00000
      341.807       0.00000
      341.912       0.00000
      342.017       0.00000
      342.122       0.00000
      342.228       0.00000
      342.333       0.00000
      342.438       0.00000
      342.544       0.00000
      342.649       0.00000
      342.754       0.00000
      342.860       0.00000
      342.965       0.00000
      343.071       0.00000
      343.176       0.00000
      343.282       0.00000
      343.388       0.00000
      343.493       0.00000
      343.599       0.00000
      343.705       0.00000
      343.810       0.00000
      343.916       0.00000
      344.022       0.00000
      344.128       0.00000
      344.234       0.00000
      344.340       0.00000
      344.446       0.00000
      344.552       0.00000
      344.658       0.00000
      344.764       0.00000
      344.870       0.00000
      344.976       0.00000
      345.082       0.00000
      345.188       0.00000
      345.294       0.00000
      345.401       0.00000
      345.507       0.00000
      345.613       0.00000
      345.719       0.00000
      345.826       0.00000
      345.932       0.00000
      346.039       0.00000
      346.145       0.00000
      346.252       0.00000
      346.358       0.00000
      346.465       0.00000
      346.571       0.00000
      346.678       0.00000
      346.785       0.00000
      346.891       0.00000
      346.998       0.00000
      347.105       0.00000
      347.212       0.00000
      347.319       0.00000
      347.425       0.00000
      347.532       0.00000
      347.639       0.00000
      347.746       0.00000
      347.853       0.00000
      347.960       0.00000
      348.067       0.00000
      348.174       0.00000
      348.281       0.00000
      348.389       0.00000
      348.496       0.00000
      348.603       0.00000
      348.710       0.00000
      348.818       0.00000
      348.925       0.00000
      349.032       0.00000
      349.140       0.00000
      349.247       0.00000
      349.355       0.00000
      349.462       0.00000
      349.570       0.00000
      349.677       0.00000
      349.785       0.00000
      349.892       0.00000
      350.000       0.00000
      350.100       0.00000
      350.193       0.00000
      350.287       0.00000
      350.380       0.00000
      350.473       0.00000
      350.567       0.00000
      350.660       0.00000
      350.754       0.00000
      350.847       0.00000
      350.941       0.00000
      351.034       0.00000
      351.128       0.00000
      351.221       0.00000
      351.315       0.00000
      351.409       0.00000
      351.502       0.00000
      351.596       0.00000
      351.690       0.00000
      351.783       0.00000
      351.877       0.00000
      351.971       0.00000
      352.065       0.00000
      352.159       0.00000
      352.252       0.00000
      352.346       0.00000
      352.440       0.00000
      352.534       0.00000
      352.628       0.00000
      352.722       0.00000
      352.816       0.00000
      352.910       0.00000
      353.004       0.00000
      353.098       0.00000
      353.192       0.00000
      353.287       0.00000
      353.381       0.00000
      353.475       0.00000
      353.569       0.00000
      353.663       0.00000
      353.758       0.00000
      353.852       0.00000
      353.946       0.00000
      354.041       0.00000
      354.135       0.00000
      354.229       0.00000
      354.324       0.00000
      354.418       0.00000
      354.513       0.00000
      354.607       0.00000
      354.702       0.00000
      354.796       0.00000
      354.891       0.00000
      354.985       0.00000
      355.080       0.00000
      355.175       0.00000
      355.269       0.00000
      355.364       0.00000
      355.459       0.00000
      355.553       0.00000
      355.648       0.00000
      355.743       0.00000
      355.838       0.00000
      355.933       0.00000
      356.027       0.00000
      356.122       0.00000
      356.217       0.00000
      356.312       0.00000
      356.407       0.00000
      356.502       0.00000
      356.597       0.00000
      356.692       0.00000
      356.787       0.00000
      356.882       0.00000
      356.977       0.00000
      357.073       0.00000
      357.168       0.00000
      357.263       0.00000
      357.358       0.00000
      357.453       0.00000
      357.549       0.00000
      357.644       0.00000
      357.739       0.00000
      357.835       0.00000
      357.930       0.00000
      358.025       0.00000
      358.121       0.00000
      358.216       0.00000
      358.312       0.00000
      358.407       0.00000
      358.503       0.00000
      358.598       0.00000
      358.694       0.00000
      358.790       0.00000
      358.885       0.00000
      358.981       0.00000
      359.076       0.00000
      359.172       0.00000
      359.268       0.00000
      359.364       0.00000
      359.459       0.00000
      359.555       0.00000
      359.651       0.00000
      359.747       0.00000
      359.843       0.00000
      359.939       0.00000
      360.035       0.00000
      360.131       0.00000
      360.227       0.00000
      360.323       0.00000
      360.419       0.00000
      360.515       0.00000
      360.611       0.00000
      360.707       0.00000
      360.803       0.00000
      360.899       0.00000
      360.995       0.00000
      361.092       0.00000
      361.188       0.00000
      361.284       0.00000
      361.380       0.00000
      361.477       0.00000
      361.573       0.00000
      361.669       0.00000
      361.766       0.00000
      361.862       0.00000
      361.959       0.00000
      362.055       0.00000
      362.152       0.00000
      362.248       0.00000
      362.345       0.00000
      362.441       0.00000
      362.538       0.00000
      362.635       0.00000
      362.731       0.00000
      362.828       0.00000
      362.925       0.00000
      363.021       0.00000
      363.118       0.00000
      363.215       0.00000
      363.312       0.00000
      363.409       0.00000
      363.505       0.00000
      363.602       0.00000
      363.699       0.00000
      363.796       0.00000
      363.893       0.00000
      363.990       0.00000
      364.087       0.00000
      364.184       0.00000
      364.281       0.00000
      364.378       0.00000
      364.475       0.00000
      364.573       0.00000
      364.670       0.00000
      364.767       0.00000
      364.864       0.00000
      364.961       0.00000
      365.059       0.00000
      365.156       0.00000
      365.253       0.00000
      365.351       0.00000
      365.448       0.00000
      365.545       0.00000
      365.643       0.00000
      365.740       0.00000
      365.838       0.00000
      365.935       0.00000
      366.033       0.00000
      366.130       0.00000
      366.228       0.00000
      366.326       0.00000
      366.423       0.00000
      366.521       0.00000
      366.618       0.00000
      366.716       0.00000
      366.814       0.00000
      366.912       0.00000
      367.010       0.00000
      367.107       0.00000
      367.205       0.00000
      367.303       0.00000
      367.401       0.00000
      367.499       0.00000
      367.597       0.00000
      367.695       0.00000
      367.793       0.00000
      367.891       0.00000
      367.989       0.00000
      368.087       0.00000
      368.185       0.00000
      368.283       0.00000
      368.381       0.00000
      368.480       0.00000
      368.578       0.00000
      368.676       0.00000
      368.774       0.00000
      368.873       0.00000
      368.971       0.00000
      369.069       0.00000
      369.168       0.00000
      369.266       0.00000
      369.364       0.00000
      369.463       0.00000
      369.561       0.00000
      369.660       0.00000
      369.758       0.00000
      369.857       0.00000
      369.955       0.00000
      370.054       0.00000
      370.153       0.00000
      370.251       0.00000
      370.350       0.00000
      370.449       0.00000
      370.547       0.00000
      370.646       0.00000
      370.745       0.00000
      370.844       0.00000
      370.943       0.00000
      371.041       0.00000
      371.140       0.00000
      371.239       0.00000
      371.338       0.00000
      371.437       0.00000
      371.536       0.00000
      371.635       0.00000
      371.734       0.00000
      371.833       0.00000
      371.932       0.00000
      372.032       0.00000
      372.131       0.00000
      372.230       0.00000
      372.329       0.00000
      372.428       0.00000
      372.528       0.00000
      372.627       0.00000
      372.726       0.00000
      372.826       0.00000
      372.925       0.00000
      373.024       0.00000
      373.124       0.00000
      373.223       0.00000
      373.323       0.00000
      373.422       0.00000
      373.522       0.00000
      373.621       0.00000
      373.721       0.00000
      373.820       0.00000
      373.920       0.00000
      374.020       0.00000
      374.119       0.00000
      374.219       0.00000
      374.319       0.00000
      374.419       0.00000
      374.518       0.00000
      374.618       0.00000
      374.718       0.00000
      374.818       0.00000
      374.918       0.00000
      375.018       0.00000
      375.118       0.00000
      375.218       0.00000
      375.318       0.00000
      375.418       0.00000
      375.518       0.00000
      375.618       0.00000
      375.718       0.00000
      375.818       0.00000
      375.918       0.00000
      376.019       0.00000
      376.119       0.00000
      376.219       0.00000
      376.319       0.00000
      376.420       0.00000
      376.520       0.00000
      376.620       0.00000
      376.721       0.00000
      376.821       0.00000
      376.922       0.00000
      377.022       0.00000
      377.122       0.00000
      377.223       0.00000
      377.323       0.00000
      377.424       0.00000
      377.525       0.00000
      377.625       0.00000
      377.726       0.00000
      377.827       0.00000
      377.927       0.00000
      378.028       0.00000
      378.129       0.00000
      378.230       0.00000
      378.330       0.00000
      378.431       0.00000
      378.532       0.00000
      378.633       0.00000
      378.734       0.00000
      378.835       0.00000
      378.936       0.00000
      379.037       0.00000
      379.138       0.00000
      379.239       0.00000
      379.340       0.00000
      379.441       0.00000
      379.542       0.00000
      379.643       0.00000
      379.745       0.00000
      379.846       0.00000
      379.947       0.00000
      380.048       0.00000
      380.150       0.00000
      380.251       0.00000
      380.352       0.00000
      380.454       0.00000
      380.555       0.00000
      380.656       0.00000
      380.758       0.00000
      380.859       0.00000
      380.961       0.00000
      381.062       0.00000
      381.164       0.00000
      381.266       0.00000
      381.367       0.00000
      381.469       0.00000
      381.570       0.00000
      381.672       0.00000
      381.774       0.00000
      381.876       0.00000
      381.977       0.00000
      382.079       0.00000
      382.181       0.00000
      382.283       0.00000
      382.385       0.00000
      382.487       0.00000
      382.589       0.00000
      382.691       0.00000
      382.793       0.00000
      382.895       0.00000
      382.997       0.00000
      383.099       0.00000
      383.201       0.00000
      383.303       0.00000
      383.405       0.00000
      383.507       0.00000
      383.610       0.00000
      383.712       0.00000
      383.814       0.00000
      383.916       0.00000
      384.019       0.00000
      384.121       0.00000
      384.223       0.00000
      384.326       0.00000
      384.428       0.00000
      384.531       0.00000
      384.633       0.00000
      384.736       0.00000
      384.838       0.00000
      384.941       0.00000
      385.043       0.00000
      385.146       0.00000
      385.249       0.00000
      385.351       0.00000
      385.454       0.00000
      385.557       0.00000
      385.660       0.00000
      385.762       0.00000
      385.865       0.00000
      385.968       0.00000
      386.071       0.00000
      386.174       0.00000
      386.277       0.00000
      386.380       0.00000
      386.483       0.00000
      386.586       0.00000
      386.689       0.00000
      386.792       0.00000
      386.895       0.00000
      386.998       0.00000
      387.101       0.00000
      387.204       0.00000
      387.308       0.00000
      387.411       0.00000
      387.514       0.00000
      387.617       0.00000
      387.721       0.00000
      387.824       0.00000
      387.927       0.00000
      388.031       0.00000
      388.134       0.00000
      388.238       0.00000
      388.341       0.00000
      388.445       0.00000
      388.548       0.00000
      388.652       0.00000
      388.755       0.00000
      388.859       0.00000
      388.962       0.00000
      389.066       0.00000
      389.170       0.00000
      389.274       0.00000
      389.377       0.00000
      389.481       0.00000
      389.585       0.00000
      389.689       0.00000
      389.793       0.00000
      389.897       0.00000
      390.000       0.00000
      390.104       0.00000
      390.208       0.00000
      390.312       0.00000
      390.416       0.00000
      390.520       0.00000
      390.625       0.00000
      390.729       0.00000
      390.833       0.00000
      390.937       0.00000
      391.041       0.00000
      391.145       0.00000
      391.250       0.00000
      391.354       0.00000
      391.458       0.00000
      391.563       0.00000
      391.667       0.00000
      391.771       0.00000
      391.876       0.00000
      391.980       0.00000
      392.085       0.00000
      392.189       0.00000
      392.294       0.00000
      392.398       0.00000
      392.503       0.00000
      392.607       0.00000
      392.712       0.00000
      392.817       0.00000
      392.921       0.00000
      393.026       0.00000
      393.131       0.00000
      393.236       0.00000
      393.340       0.00000
      393.445       0.00000
      393.550       0.00000
      393.655       0.00000
      393.760       0.00000
      393.865       0.00000
      393.970       0.00000
      394.075       0.00000
      394.180       0.00000
      394.285       0.00000
      394.390       0.00000
      394.495       0.00000
      394.600       0.00000
      394.706       0.00000
      394.811       0.00000
      394.916       0.00000
      395.021       0.00000
      395.126       0.00000
      395.232       0.00000
      395.337       0.00000
      395.443       0.00000
      395.548       0.00000
      395.653       0.00000
      395.759       0.00000
      395.864       0.00000
      395.970       0.00000
      396.075       0.00000
      396.181       0.00000
      396.286       0.00000
      396.392       0.00000
      396.498       0.00000
      396.603       0.00000
      396.709       0.00000
      396.815       0.00000
      396.921       0.00000
      397.026       0.00000
      397.132       0.00000
      397.238       0.00000
      397.344       0.00000
      397.450       0.00000
      397.556       0.00000
      397.662       0.00000
      397.768       0.00000
      397.874       0.00000
      397.980       0.00000
      398.086       0.00000
      398.192       0.00000
      398.298       0.00000
      398.404       0.00000
      398.510       0.00000
      398.617       0.00000
      398.723       0.00000
      398.829       0.00000
      398.935       0.00000
      399.042       0.00000
      399.148       0.00000
      399.255       0.00000
      399.361       0.00000
      399.467       0.00000
      399.574       0.00000
      399.680       0.00000
      399.787       0.00000
      399.893       0.00000
      400.000       0.00000
