Filter Be-med
observation_date 2020-09-22 22:45:45
wavelength effective area
      1.00000   2.78114e-10
      1.10000   7.93775e-10
      1.20000   2.06298e-09
      1.30000   4.93137e-09
      1.40000   1.11851e-08
      1.50000   2.38506e-08
      1.60000   4.82556e-08
      1.70000   9.36192e-08
      1.80000   1.74159e-07
      1.90000   3.12739e-07
      2.00000   5.43148e-07
      2.10000   9.16367e-07
      2.20000   1.50907e-06
      2.30000   2.42239e-06
      2.40000   3.79703e-06
      2.50000   5.79286e-06
      2.60000   8.82363e-06
      2.70000   1.31278e-05
      2.80000   1.91545e-05
      2.90000   2.76547e-05
      3.00000   3.92959e-05
      3.10000   5.51101e-05
      3.20000   7.64286e-05
      3.30000   0.000104891
      3.40000   0.000142420
      3.50000   0.000191458
      3.60000   0.000256122
      3.70000   0.000338908
      3.80000   0.000446457
      3.90000   0.000584701
      4.00000   0.000760766
      4.10000   0.000984968
      4.20000    0.00127045
      4.30000    0.00163353
      4.40000    0.00209407
      4.50000    0.00267620
      4.60000    0.00340762
      4.70000    0.00433715
      4.80000    0.00551238
      4.90000    0.00691405
      5.00000    0.00889594
      5.10000     0.0112816
      5.20000     0.0143417
      5.30000     0.0180727
      5.40000     0.0227253
      5.50000     0.0286138
      5.60000     0.0349099
      5.70000     0.0448523
      5.80000     0.0519337
      5.90000     0.0782891
      6.00000      0.103859
      6.10000      0.130932
      6.20000      0.158553
      6.30000      0.183968
      6.40000      0.204651
      6.50000      0.218494
      6.60000      0.222607
      6.70000      0.225736
      6.80000      0.222262
      6.90000      0.286537
      7.00000      0.306013
      7.10000      0.317641
      7.20000      0.325049
      7.30000      0.329410
      7.40000      0.330754
      7.50000      0.330100
      7.60000      0.327612
      7.70000      0.322548
      7.80000      0.314467
      7.90000      0.306724
      8.00000      0.432628
      8.10000      0.461884
      8.20000      0.457400
      8.30000      0.450720
      8.40000      0.442055
      8.50000      0.432533
      8.60000      0.422125
      8.70000      0.411153
      8.80000      0.399587
      8.90000      0.387646
      9.00000      0.375378
      9.10000      0.362857
      9.20000      0.350173
      9.30000      0.337392
      9.40000      0.324552
      9.50000      0.311700
      9.60000      0.298918
      9.70000      0.286213
      9.80000      0.273641
      9.90000      0.261272
      10.0000      0.249134
      10.1000      0.237222
      10.2000      0.225556
      10.3000      0.214178
      10.4000      0.203107
      10.5000      0.192330
      10.6000      0.181864
      10.7000      0.171719
      10.8000      0.161921
      10.9000      0.152499
      11.0000      0.143421
      11.1000      0.134695
      11.2000      0.126323
      11.3000      0.118306
      11.4000      0.110639
      11.5000      0.103318
      11.6000     0.0963430
      11.7000     0.0897213
      11.8000     0.0834319
      11.9000     0.0774532
      12.0000     0.0717094
      12.1000     0.0665134
      12.2000     0.0627344
      12.3000     0.0584893
      12.4000     0.0540572
      12.5000     0.0498600
      12.6000     0.0459131
      12.7000     0.0422154
      12.8000     0.0387583
      12.9000     0.0355310
      13.0000     0.0325250
      13.1000     0.0297302
      13.2000     0.0271400
      13.3000     0.0247562
      13.4000     0.0225603
      13.5000     0.0205323
      13.6000     0.0186739
      13.7000     0.0169609
      13.8000     0.0153838
      13.9000     0.0139340
      14.0000     0.0126028
      14.1000     0.0113799
      14.2000     0.0102571
      14.3000    0.00922845
      14.4000    0.00828854
      14.5000    0.00743605
      14.6000    0.00666730
      14.7000    0.00596762
      14.8000    0.00533165
      14.9000    0.00475439
      15.0000    0.00423122
      15.1000    0.00375792
      15.2000    0.00333909
      15.3000    0.00296250
      15.4000    0.00262280
      15.5000    0.00231685
      15.6000    0.00204186
      15.7000    0.00179859
      15.8000    0.00158441
      15.9000    0.00139228
      16.0000    0.00122022
      16.1000    0.00106647
      16.2000   0.000933410
      16.3000   0.000815885
      16.4000   0.000710955
      16.5000   0.000617492
      16.6000   0.000536259
      16.7000   0.000466030
      16.8000   0.000403510
      16.9000   0.000348026
      17.0000   0.000300303
      17.1000   0.000259504
      17.2000   0.000223455
      17.3000   0.000191724
      17.4000   0.000165140
      17.5000   0.000141935
      17.6000   0.000121515
      17.7000   0.000104149
      17.8000   9.00634e-05
      17.9000   7.75478e-05
      18.0000   6.64240e-05
      18.1000   5.72575e-05
      18.2000   4.90478e-05
      18.3000   4.16597e-05
      18.4000   3.53649e-05
      18.5000   2.98957e-05
      18.6000   2.50118e-05
      18.7000   2.08944e-05
      18.8000   1.74475e-05
      18.9000   1.44270e-05
      19.0000   1.19808e-05
      19.1000   9.94391e-06
      19.2000   8.16221e-06
      19.3000   6.74992e-06
      19.4000   5.57427e-06
      19.5000   4.55789e-06
      19.6000   3.79817e-06
      19.7000   3.13883e-06
      19.8000   2.56846e-06
      19.9000   2.13463e-06
      20.0000   1.74858e-06
      20.1000   1.43196e-06
      20.2000   1.17895e-06
      20.3000   9.55419e-07
      20.4000   7.84539e-07
      20.5000   6.38528e-07
      20.6000   5.14673e-07
      20.7000   4.21442e-07
      20.8000   3.38309e-07
      20.9000   2.74492e-07
      21.0000   2.21366e-07
      21.1000   1.76272e-07
      21.2000   1.43065e-07
      21.3000   1.13318e-07
      21.4000   9.12422e-08
      21.5000   7.25750e-08
      21.6000   5.73570e-08
      21.7000   4.58696e-08
      21.8000   3.56350e-08
      21.9000   2.85730e-08
      22.0000   2.22269e-08
      22.1000   1.75302e-08
      22.2000   1.36868e-08
      22.3000   1.05849e-08
      22.4000   8.18914e-09
      22.5000   6.02487e-09
      22.6000   4.33755e-09
      22.7000   2.94278e-09
      22.8000   2.83598e-09
      22.9000   2.81424e-09
      23.0000   2.86549e-09
      23.1000   2.67118e-09
      23.2000   2.25184e-09
      23.3000   1.83912e-09
      23.4000   1.43070e-09
      23.5000   1.13694e-09
      23.6000   8.71861e-10
      23.7000   6.93877e-10
      23.8000   5.25637e-10
      23.9000   4.18168e-10
      24.0000   3.16306e-10
      24.1000   2.49572e-10
      24.2000   1.88362e-10
      24.3000   1.47550e-10
      24.4000   1.11153e-10
      24.5000   8.64772e-11
      24.6000   6.49764e-11
      24.7000   5.02577e-11
      24.8000   3.76476e-11
      24.9000   2.89729e-11
      25.0000   2.16165e-11
      25.1000   1.65698e-11
      25.2000   1.23011e-11
      25.3000   9.40154e-12
      25.4000   6.93583e-12
      25.5000   5.29210e-12
      25.6000   3.87499e-12
      25.7000   2.95537e-12
      25.8000   2.14461e-12
      25.9000   1.63696e-12
      26.0000   1.17542e-12
      26.1000   8.98966e-13
      26.2000   6.37662e-13
      26.3000   4.89257e-13
      26.4000   3.42314e-13
      26.5000   2.63776e-13
      26.6000   1.85644e-13
      26.7000   1.40790e-13
      26.8000   1.00057e-13
      26.9000   7.43549e-14
      27.0000   5.34252e-14
      27.1000   3.88126e-14
      27.2000   2.82195e-14
      27.3000   2.00284e-14
      27.4000   1.48153e-14
      27.5000   1.02943e-14
      27.6000   7.69639e-15
      27.7000   5.18654e-15
      27.8000   3.92921e-15
      27.9000   2.67835e-15
      28.0000   1.97576e-15
      28.1000   1.38224e-15
      28.2000   9.78601e-16
      28.3000   7.01753e-16
      28.4000   4.77040e-16
      28.5000   3.50135e-16
      28.6000   2.28687e-16
      28.7000   1.71555e-16
      28.8000   1.14724e-16
      28.9000   8.24887e-17
      29.0000   5.73436e-17
      29.1000   3.88833e-17
      29.2000   2.79627e-17
      29.3000   1.79564e-17
      29.4000   1.33035e-17
      29.5000   8.67572e-18
      29.6000   6.17558e-18
      29.7000   4.24216e-18
      29.8000   2.79723e-18
      29.9000   2.00526e-18
      30.0000   1.23609e-18
      30.1000   9.18217e-19
      30.2000   6.02057e-19
      30.3000   4.11113e-19
      30.4000   2.91905e-19
      30.5000   1.87560e-19
      30.6000   1.36602e-19
      30.7000   8.59197e-20
      30.8000   5.94911e-20
      30.9000   4.04079e-20
      31.0000   2.50938e-20
      31.1000   1.81558e-20
      31.2000   1.12558e-20
      31.3000   7.91994e-21
      31.4000   5.35635e-21
      31.5000   3.32369e-21
      31.6000   2.39174e-21
      31.7000   1.46495e-21
      31.8000   1.01492e-21
      31.9000   6.85860e-22
      32.0000   4.13473e-22
      32.1000   3.01405e-22
      32.2000   1.89957e-22
      32.3000   1.28347e-22
      32.4000   8.87923e-23
      32.5000   5.22547e-23
      32.6000   3.85237e-23
      32.7000   2.48679e-23
      32.8000   1.57884e-23
      32.9000   1.11488e-23
      33.0000   6.53498e-24
      33.1000   4.62963e-24
      33.2000   3.09781e-24
      33.3000   1.81365e-24
      33.4000   1.31627e-24
      33.5000   8.21574e-25
      33.6000   5.18896e-25
      33.7000   3.62039e-25
      33.8000   2.06013e-25
      33.9000   1.44441e-25
      34.0000   9.61362e-26
      34.1000   5.36928e-26
      34.2000   3.91036e-26
      34.3000   2.45872e-26
      34.4000   1.45619e-26
      34.5000   1.02873e-26
      34.6000   6.03436e-27
      34.7000   3.85035e-27
      34.8000   2.62937e-27
      34.9000   1.41451e-27
      35.0000   9.91892e-28
      35.1000   6.52649e-28
      35.2000   3.41472e-28
      35.3000   2.49255e-28
      35.4000   1.57501e-28
      35.5000   8.53972e-29
      35.6000   6.11313e-29
      35.7000   3.69878e-29
      35.8000   2.08506e-29
      35.9000   1.46416e-29
      36.0000   8.46393e-30
      36.1000   4.97046e-30
      36.2000   3.42695e-30
      36.3000   1.89126e-30
      36.4000   1.15731e-30
      36.5000   7.84654e-31
      36.6000   4.13916e-31
      36.7000   2.63249e-31
      36.8000   1.75919e-31
      36.9000   8.90398e-32
      37.0000   5.85015e-32
      37.1000   3.86491e-32
      37.2000   1.88977e-32
      37.3000   1.26989e-32
      37.4000   8.32453e-33
      37.5000   3.97278e-33
      37.6000   2.69234e-33
      37.7000   1.75872e-33
      37.8000   8.29953e-34
      37.9000   5.57424e-34
      38.0000   3.64448e-34
      38.1000   1.72466e-34
      38.2000   1.12597e-34
      38.3000   7.39990e-35
      38.4000   3.56004e-35
      38.5000   2.21583e-35
      38.6000   1.46999e-35
      38.7000   7.28018e-36
      38.8000   4.24585e-36
      38.9000   2.85371e-36
      39.0000   1.46874e-36
      39.1000   7.91463e-37
      39.2000   5.40482e-37
      39.3000   2.90795e-37
      39.4000   1.43138e-37
      39.5000   9.92176e-38
      39.6000   5.55274e-38
      39.7000   2.43664e-38
      39.8000   1.72238e-38
      39.9000   1.01183e-38
      40.0000   4.00071e-39
      40.1000   2.88671e-39
      40.2000   1.77849e-39
      40.3000   6.76176e-40
      40.4000   4.67234e-40
      40.5000   3.01026e-40
      40.6000   1.35681e-40
      40.7000   7.28479e-41
      40.8000   4.89053e-41
      40.9000   2.50874e-41
      41.0000   1.09133e-41
      41.1000   7.60765e-42
      41.2000   4.31600e-42
      41.3000   1.57226e-42
      41.4000   1.13085e-42
      41.5000   6.93643e-43
      41.6000   2.62043e-43
      41.7000   1.59748e-43
      41.8000   1.02295e-43
      41.9000   4.76441e-44
      42.0000   2.24208e-44
      42.1000   1.96182e-44
      42.2000   7.00649e-45
      42.3000   2.80260e-45
      42.4000   2.80260e-45
      42.5000   2.80260e-45
      42.6000  -2.80260e-45
      42.7000       0.00000
      42.8000       0.00000
      42.9000       0.00000
      43.0000       0.00000
      43.1000       0.00000
      43.2000       0.00000
      43.3000       0.00000
      43.4000       0.00000
      43.5000       0.00000
      43.6000       0.00000
      43.7000       0.00000
      43.8000       0.00000
      43.9000       0.00000
      44.0000       0.00000
      44.1000       0.00000
      44.2000       0.00000
      44.3000       0.00000
      44.4000       0.00000
      44.5000       0.00000
      44.6000       0.00000
      44.7000       0.00000
      44.8000       0.00000
      44.9000       0.00000
      45.0000       0.00000
      45.1000       0.00000
      45.2000       0.00000
      45.3000       0.00000
      45.4000       0.00000
      45.5000       0.00000
      45.6000       0.00000
      45.7000       0.00000
      45.8000       0.00000
      45.9000       0.00000
      46.0000       0.00000
      46.1000       0.00000
      46.2000       0.00000
      46.3000       0.00000
      46.4000       0.00000
      46.5000       0.00000
      46.6000       0.00000
      46.7000       0.00000
      46.8000       0.00000
      46.9000       0.00000
      47.0000       0.00000
      47.1000       0.00000
      47.2000       0.00000
      47.3000       0.00000
      47.4000       0.00000
      47.5000       0.00000
      47.6000       0.00000
      47.7000       0.00000
      47.8000       0.00000
      47.9000       0.00000
      48.0000       0.00000
      48.1000       0.00000
      48.2000       0.00000
      48.3000       0.00000
      48.4000       0.00000
      48.5000       0.00000
      48.6000       0.00000
      48.7000       0.00000
      48.8000       0.00000
      48.9000       0.00000
      49.0000       0.00000
      49.1000       0.00000
      49.2000       0.00000
      49.3000       0.00000
      49.4000       0.00000
      49.5000       0.00000
      49.6000       0.00000
      49.7000       0.00000
      49.8000       0.00000
      49.9000       0.00000
      50.0000       0.00000
      50.1000       0.00000
      50.2000       0.00000
      50.3000       0.00000
      50.4000       0.00000
      50.5000       0.00000
      50.6000       0.00000
      50.7000       0.00000
      50.8000       0.00000
      50.9000       0.00000
      51.0000       0.00000
      51.1000       0.00000
      51.2000       0.00000
      51.3000       0.00000
      51.4000       0.00000
      51.5000       0.00000
      51.6000       0.00000
      51.7000       0.00000
      51.8000       0.00000
      51.9000       0.00000
      52.0000       0.00000
      52.1000       0.00000
      52.2000       0.00000
      52.3000       0.00000
      52.4000       0.00000
      52.5000       0.00000
      52.6000       0.00000
      52.7000       0.00000
      52.8000       0.00000
      52.9000       0.00000
      53.0000       0.00000
      53.1000       0.00000
      53.2000       0.00000
      53.3000       0.00000
      53.4000       0.00000
      53.5000       0.00000
      53.6000       0.00000
      53.7000       0.00000
      53.8000       0.00000
      53.9000       0.00000
      54.0000       0.00000
      54.1000       0.00000
      54.2000       0.00000
      54.3000       0.00000
      54.4000       0.00000
      54.5000       0.00000
      54.6000       0.00000
      54.7000       0.00000
      54.8000       0.00000
      54.9000       0.00000
      55.0000       0.00000
      55.1000       0.00000
      55.2000       0.00000
      55.3000       0.00000
      55.4000       0.00000
      55.5000       0.00000
      55.6000       0.00000
      55.7000       0.00000
      55.8000       0.00000
      55.9000       0.00000
      56.0000       0.00000
      56.1000       0.00000
      56.2000       0.00000
      56.3000       0.00000
      56.4000       0.00000
      56.5000       0.00000
      56.6000       0.00000
      56.7000       0.00000
      56.8000       0.00000
      56.9000       0.00000
      57.0000       0.00000
      57.1000       0.00000
      57.2000       0.00000
      57.3000       0.00000
      57.4000       0.00000
      57.5000       0.00000
      57.6000       0.00000
      57.7000       0.00000
      57.8000       0.00000
      57.9000       0.00000
      58.0000       0.00000
      58.1000       0.00000
      58.2000       0.00000
      58.3000       0.00000
      58.4000       0.00000
      58.5000       0.00000
      58.6000       0.00000
      58.7000       0.00000
      58.8000       0.00000
      58.9000       0.00000
      59.0000       0.00000
      59.1000       0.00000
      59.2000       0.00000
      59.3000       0.00000
      59.4000       0.00000
      59.5000       0.00000
      59.6000       0.00000
      59.7000       0.00000
      59.8000       0.00000
      59.9000       0.00000
      60.0000       0.00000
      60.1000       0.00000
      60.2000       0.00000
      60.3000       0.00000
      60.4000       0.00000
      60.5000       0.00000
      60.6000       0.00000
      60.7000       0.00000
      60.8000       0.00000
      60.9000       0.00000
      61.0000       0.00000
      61.1000       0.00000
      61.2000       0.00000
      61.3000       0.00000
      61.4000       0.00000
      61.5000       0.00000
      61.6000       0.00000
      61.7000       0.00000
      61.8000       0.00000
      61.9000       0.00000
      62.0000       0.00000
      62.1000       0.00000
      62.2000       0.00000
      62.3000       0.00000
      62.4000       0.00000
      62.5000       0.00000
      62.6000       0.00000
      62.7000       0.00000
      62.8000       0.00000
      62.9000       0.00000
      63.0000       0.00000
      63.1000       0.00000
      63.2000       0.00000
      63.3000       0.00000
      63.4000       0.00000
      63.5000       0.00000
      63.6000       0.00000
      63.7000       0.00000
      63.8000       0.00000
      63.9000       0.00000
      64.0000       0.00000
      64.1000       0.00000
      64.2000       0.00000
      64.3000       0.00000
      64.4000       0.00000
      64.5000       0.00000
      64.6000       0.00000
      64.7000       0.00000
      64.8000       0.00000
      64.9000       0.00000
      65.0000       0.00000
      65.1000       0.00000
      65.2000       0.00000
      65.3000       0.00000
      65.4000       0.00000
      65.5000       0.00000
      65.6000       0.00000
      65.7000       0.00000
      65.8000       0.00000
      65.9000       0.00000
      66.0000       0.00000
      66.1000       0.00000
      66.2000       0.00000
      66.3000       0.00000
      66.4000       0.00000
      66.5000       0.00000
      66.6000       0.00000
      66.7000       0.00000
      66.8000       0.00000
      66.9000       0.00000
      67.0000       0.00000
      67.1000       0.00000
      67.2000       0.00000
      67.3000       0.00000
      67.4000       0.00000
      67.5000       0.00000
      67.6000       0.00000
      67.7000       0.00000
      67.8000       0.00000
      67.9000       0.00000
      68.0000       0.00000
      68.1000       0.00000
      68.2000       0.00000
      68.3000       0.00000
      68.4000       0.00000
      68.5000       0.00000
      68.6000       0.00000
      68.7000       0.00000
      68.8000       0.00000
      68.9000       0.00000
      69.0000       0.00000
      69.1000       0.00000
      69.2000       0.00000
      69.3000       0.00000
      69.4000       0.00000
      69.5000       0.00000
      69.6000       0.00000
      69.7000       0.00000
      69.8000       0.00000
      69.9000       0.00000
      70.0000       0.00000
      70.1000       0.00000
      70.2000       0.00000
      70.3000       0.00000
      70.4000       0.00000
      70.5000       0.00000
      70.6000       0.00000
      70.7000       0.00000
      70.8000       0.00000
      70.9000       0.00000
      71.0000       0.00000
      71.1000       0.00000
      71.2000       0.00000
      71.3000       0.00000
      71.4000       0.00000
      71.5000       0.00000
      71.6000       0.00000
      71.7000       0.00000
      71.8000       0.00000
      71.9000       0.00000
      72.0000       0.00000
      72.1000       0.00000
      72.2000       0.00000
      72.3000       0.00000
      72.4000       0.00000
      72.5000       0.00000
      72.6000       0.00000
      72.7000       0.00000
      72.8000       0.00000
      72.9000       0.00000
      73.0000       0.00000
      73.1000       0.00000
      73.2000       0.00000
      73.3000       0.00000
      73.4000       0.00000
      73.5000       0.00000
      73.6000       0.00000
      73.7000       0.00000
      73.8000       0.00000
      73.9000       0.00000
      74.0000       0.00000
      74.1000       0.00000
      74.2000       0.00000
      74.3000       0.00000
      74.4000       0.00000
      74.5000       0.00000
      74.6000       0.00000
      74.7000       0.00000
      74.8000       0.00000
      74.9000       0.00000
      75.0000       0.00000
      75.1000       0.00000
      75.2000       0.00000
      75.3000       0.00000
      75.4000       0.00000
      75.5000       0.00000
      75.6000       0.00000
      75.7000       0.00000
      75.8000       0.00000
      75.9000       0.00000
      76.0000       0.00000
      76.1000       0.00000
      76.2000       0.00000
      76.3000       0.00000
      76.4000       0.00000
      76.5000       0.00000
      76.6000       0.00000
      76.7000       0.00000
      76.8000       0.00000
      76.9000       0.00000
      77.0000       0.00000
      77.1000       0.00000
      77.2000       0.00000
      77.3000       0.00000
      77.4000       0.00000
      77.5000       0.00000
      77.6000       0.00000
      77.7000       0.00000
      77.8000       0.00000
      77.9000       0.00000
      78.0000       0.00000
      78.1000       0.00000
      78.2000       0.00000
      78.3000       0.00000
      78.4000       0.00000
      78.5000       0.00000
      78.6000       0.00000
      78.7000       0.00000
      78.8000       0.00000
      78.9000       0.00000
      79.0000       0.00000
      79.1000       0.00000
      79.2000       0.00000
      79.3000       0.00000
      79.4000       0.00000
      79.5000       0.00000
      79.6000       0.00000
      79.7000       0.00000
      79.8000       0.00000
      79.9000       0.00000
      80.0000       0.00000
      80.1000       0.00000
      80.2000       0.00000
      80.3000       0.00000
      80.4000       0.00000
      80.5000       0.00000
      80.6000       0.00000
      80.7000       0.00000
      80.8000       0.00000
      80.9000       0.00000
      81.0000       0.00000
      81.1000       0.00000
      81.2000       0.00000
      81.3000       0.00000
      81.4000       0.00000
      81.5000       0.00000
      81.6000       0.00000
      81.7000       0.00000
      81.8000       0.00000
      81.9000       0.00000
      82.0000       0.00000
      82.1000       0.00000
      82.2000       0.00000
      82.3000       0.00000
      82.4000       0.00000
      82.5000       0.00000
      82.6000       0.00000
      82.7000       0.00000
      82.8000       0.00000
      82.9000       0.00000
      83.0000       0.00000
      83.1000       0.00000
      83.2000       0.00000
      83.3000       0.00000
      83.4000       0.00000
      83.5000       0.00000
      83.6000       0.00000
      83.7000       0.00000
      83.8000       0.00000
      83.9000       0.00000
      84.0000       0.00000
      84.1000       0.00000
      84.2000       0.00000
      84.3000       0.00000
      84.4000       0.00000
      84.5000       0.00000
      84.6000       0.00000
      84.7000       0.00000
      84.8000       0.00000
      84.9000       0.00000
      85.0000       0.00000
      85.1000       0.00000
      85.2000       0.00000
      85.3000       0.00000
      85.4000       0.00000
      85.5000       0.00000
      85.6000       0.00000
      85.7000       0.00000
      85.8000       0.00000
      85.9000       0.00000
      86.0000       0.00000
      86.1000       0.00000
      86.2000       0.00000
      86.3000       0.00000
      86.4000       0.00000
      86.5000       0.00000
      86.6000       0.00000
      86.7000       0.00000
      86.8000       0.00000
      86.9000       0.00000
      87.0000       0.00000
      87.1000       0.00000
      87.2000       0.00000
      87.3000       0.00000
      87.4000       0.00000
      87.5000       0.00000
      87.6000       0.00000
      87.7000       0.00000
      87.8000       0.00000
      87.9000       0.00000
      88.0000       0.00000
      88.1000       0.00000
      88.2000       0.00000
      88.3000       0.00000
      88.4000       0.00000
      88.5000       0.00000
      88.6000       0.00000
      88.7000       0.00000
      88.8000       0.00000
      88.9000       0.00000
      89.0000       0.00000
      89.1000       0.00000
      89.2000       0.00000
      89.3000       0.00000
      89.4000       0.00000
      89.5000       0.00000
      89.6000       0.00000
      89.7000       0.00000
      89.8000       0.00000
      89.9000       0.00000
      90.0000       0.00000
      90.1000       0.00000
      90.2000       0.00000
      90.3000       0.00000
      90.4000       0.00000
      90.5000       0.00000
      90.6000       0.00000
      90.7000       0.00000
      90.8000       0.00000
      90.9000       0.00000
      91.0000       0.00000
      91.1000       0.00000
      91.2000       0.00000
      91.3000       0.00000
      91.4000       0.00000
      91.5000       0.00000
      91.6000       0.00000
      91.7000       0.00000
      91.8000       0.00000
      91.9000       0.00000
      92.0000       0.00000
      92.1000       0.00000
      92.2000       0.00000
      92.3000       0.00000
      92.4000       0.00000
      92.5000       0.00000
      92.6000       0.00000
      92.7000       0.00000
      92.8000       0.00000
      92.9000       0.00000
      93.0000       0.00000
      93.1000       0.00000
      93.2000       0.00000
      93.3000       0.00000
      93.4000       0.00000
      93.5000       0.00000
      93.6000       0.00000
      93.7000       0.00000
      93.8000       0.00000
      93.9000       0.00000
      94.0000       0.00000
      94.1000       0.00000
      94.2000       0.00000
      94.3000       0.00000
      94.4000       0.00000
      94.5000       0.00000
      94.6000       0.00000
      94.7000       0.00000
      94.8000       0.00000
      94.9000       0.00000
      95.0000       0.00000
      95.1000       0.00000
      95.2000       0.00000
      95.3000       0.00000
      95.4000       0.00000
      95.5000       0.00000
      95.6000       0.00000
      95.7000       0.00000
      95.8000       0.00000
      95.9000       0.00000
      96.0000       0.00000
      96.1000       0.00000
      96.2000       0.00000
      96.3000       0.00000
      96.4000       0.00000
      96.5000       0.00000
      96.6000       0.00000
      96.7000       0.00000
      96.8000       0.00000
      96.9000       0.00000
      97.0000       0.00000
      97.1000       0.00000
      97.2000       0.00000
      97.3000       0.00000
      97.4000       0.00000
      97.5000       0.00000
      97.6000       0.00000
      97.7000       0.00000
      97.8000       0.00000
      97.9000       0.00000
      98.0000       0.00000
      98.1000       0.00000
      98.2000       0.00000
      98.3000       0.00000
      98.4000       0.00000
      98.5000       0.00000
      98.6000       0.00000
      98.7000       0.00000
      98.8000       0.00000
      98.9000       0.00000
      99.0000       0.00000
      99.1000       0.00000
      99.2000       0.00000
      99.3000       0.00000
      99.4000       0.00000
      99.5000       0.00000
      99.6000       0.00000
      99.7000       0.00000
      99.8000       0.00000
      99.9000       0.00000
      100.000       0.00000
      100.100       0.00000
      100.200       0.00000
      100.300       0.00000
      100.400       0.00000
      100.500       0.00000
      100.600       0.00000
      100.700       0.00000
      100.800       0.00000
      100.900       0.00000
      101.000       0.00000
      101.100       0.00000
      101.200       0.00000
      101.300       0.00000
      101.400       0.00000
      101.500       0.00000
      101.600       0.00000
      101.700       0.00000
      101.800       0.00000
      101.900       0.00000
      102.000       0.00000
      102.100       0.00000
      102.200       0.00000
      102.300       0.00000
      102.400       0.00000
      102.500       0.00000
      102.600       0.00000
      102.700       0.00000
      102.800       0.00000
      102.900       0.00000
      103.000       0.00000
      103.100       0.00000
      103.200       0.00000
      103.300       0.00000
      103.400       0.00000
      103.500       0.00000
      103.600       0.00000
      103.700       0.00000
      103.800       0.00000
      103.900       0.00000
      104.000       0.00000
      104.100       0.00000
      104.200       0.00000
      104.300       0.00000
      104.400       0.00000
      104.500       0.00000
      104.600       0.00000
      104.700       0.00000
      104.800       0.00000
      104.900       0.00000
      105.000       0.00000
      105.100       0.00000
      105.200       0.00000
      105.300       0.00000
      105.400       0.00000
      105.500       0.00000
      105.600       0.00000
      105.700       0.00000
      105.800       0.00000
      105.900       0.00000
      106.000       0.00000
      106.100       0.00000
      106.200       0.00000
      106.300       0.00000
      106.400       0.00000
      106.500       0.00000
      106.600       0.00000
      106.700       0.00000
      106.800       0.00000
      106.900       0.00000
      107.000       0.00000
      107.100       0.00000
      107.200       0.00000
      107.300       0.00000
      107.400       0.00000
      107.500       0.00000
      107.600       0.00000
      107.700       0.00000
      107.800       0.00000
      107.900       0.00000
      108.000       0.00000
      108.100       0.00000
      108.200       0.00000
      108.300       0.00000
      108.400       0.00000
      108.500       0.00000
      108.600       0.00000
      108.700       0.00000
      108.800       0.00000
      108.900       0.00000
      109.000       0.00000
      109.100       0.00000
      109.200       0.00000
      109.300       0.00000
      109.400       0.00000
      109.500       0.00000
      109.600       0.00000
      109.700       0.00000
      109.800       0.00000
      109.900       0.00000
      110.000       0.00000
      110.100       0.00000
      110.200       0.00000
      110.300       0.00000
      110.400       0.00000
      110.500       0.00000
      110.600       0.00000
      110.700       0.00000
      110.800       0.00000
      110.900   4.71786e-35
      111.000   2.53177e-28
      111.100   2.98922e-24
      111.200   4.15063e-23
      111.300   2.09284e-22
      111.400   6.91662e-22
      111.500   9.16878e-22
      111.600   1.24291e-21
      111.700   2.29392e-21
      111.800   4.16087e-21
      111.900   5.44240e-21
      112.000   8.74909e-21
      112.100   1.56745e-20
      112.200   2.38871e-20
      112.300   3.06848e-20
      112.400   3.83778e-20
      112.500   5.10172e-20
      112.600   7.24932e-20
      112.700   9.85770e-20
      112.800   1.13873e-19
      112.900   1.47639e-19
      113.000   1.88898e-19
      113.100   2.26284e-19
      113.200   2.60074e-19
      113.300   2.64743e-19
      113.400   3.31194e-19
      113.500   4.09882e-19
      113.600   4.22822e-19
      113.700   5.09248e-19
      113.800   5.79711e-19
      113.900   6.45472e-19
      114.000   6.87732e-19
      114.100   7.17787e-19
      114.200   9.24033e-19
      114.300   1.06276e-18
      114.400   1.03184e-18
      114.500   9.45626e-19
      114.600   9.43391e-19
      114.700   9.59534e-19
      114.800   1.00133e-18
      114.900   1.10649e-18
      115.000   1.21530e-18
      115.100   1.28749e-18
      115.200   1.30728e-18
      115.300   1.32858e-18
      115.400   1.34900e-18
      115.500   1.37030e-18
      115.600   1.39137e-18
      115.700   1.41192e-18
      115.800   1.43381e-18
      115.900   1.45543e-18
      116.000   1.47366e-18
      116.100   1.48139e-18
      116.200   1.48755e-18
      116.300   1.49337e-18
      116.400   1.49312e-18
      116.500   1.46097e-18
      116.600   1.42918e-18
      116.700   1.39834e-18
      116.800   1.36784e-18
      116.900   1.33678e-18
      117.000   1.30777e-18
      117.100   1.28325e-18
      117.200   1.26186e-18
      117.300   1.23825e-18
      117.400   1.21490e-18
      117.500   1.18635e-18
      117.600   1.14567e-18
      117.700   1.10275e-18
      117.800   1.06072e-18
      117.900   1.01995e-18
      118.000   9.80103e-19
      118.100   9.41260e-19
      118.200   9.04399e-19
      118.300   8.69146e-19
      118.400   8.33269e-19
      118.500   7.99012e-19
      118.600   7.66974e-19
      118.700   7.35919e-19
      118.800   7.05724e-19
      118.900   6.77000e-19
      119.000   6.48565e-19
      119.100   6.20358e-19
      119.200   5.99150e-19
      119.300   5.87844e-19
      119.400   5.79325e-19
      119.500   5.68434e-19
      119.600   5.53449e-19
      119.700   5.37144e-19
      119.800   5.20197e-19
      119.900   5.02327e-19
      120.000   4.85470e-19
      120.100   4.69492e-19
      120.200   4.55660e-19
      120.300   4.43151e-19
      120.400   4.30967e-19
      120.500   4.17861e-19
      120.600   4.04208e-19
      120.700   3.90683e-19
      120.800   3.77766e-19
      120.900   3.66743e-19
      121.000   3.58300e-19
      121.100   3.50203e-19
      121.200   3.42868e-19
      121.300   3.34986e-19
      121.400   3.26703e-19
      121.500   3.18088e-19
      121.600   3.04567e-19
      121.700   2.91313e-19
      121.800   2.78062e-19
      121.900   2.65297e-19
      122.000   2.52729e-19
      122.100   2.40948e-19
      122.200   2.29708e-19
      122.300   2.20040e-19
      122.400   2.11904e-19
      122.500   2.04299e-19
      122.600   1.96825e-19
      122.700   1.89610e-19
      122.800   1.82425e-19
      122.900   1.75632e-19
      123.000   1.70199e-19
      123.100   1.66869e-19
      123.200   1.64559e-19
      123.300   1.65832e-19
      123.400   1.67836e-19
      123.500   1.70875e-19
      123.600   1.73009e-19
      123.700   1.71701e-19
      123.800   1.67534e-19
      123.900   1.63928e-19
      124.000   1.61125e-19
      124.100   1.60878e-19
      124.200   1.66590e-19
      124.300   1.76972e-19
      124.400   1.86337e-19
      124.500   1.86002e-19
      124.600   1.80970e-19
      124.700   1.73937e-19
      124.800   1.67220e-19
      124.900   1.60756e-19
      125.000   1.54532e-19
      125.100   1.48496e-19
      125.200   1.42687e-19
      125.300   1.37100e-19
      125.400   1.31731e-19
      125.500   1.26572e-19
      125.600   1.20205e-19
      125.700   1.13840e-19
      125.800   1.08576e-19
      125.900   1.06612e-19
      126.000   1.04903e-19
      126.100   1.03221e-19
      126.200   1.01567e-19
      126.300   9.99399e-20
      126.400   9.83382e-20
      126.500   9.67619e-20
      126.600   9.52121e-20
      126.700   9.36872e-20
      126.800   9.21874e-20
      126.900   9.07110e-20
      127.000   8.92560e-20
      127.100   8.73373e-20
      127.200   8.48980e-20
      127.300   8.23406e-20
      127.400   7.98594e-20
      127.500   7.74521e-20
      127.600   7.51170e-20
      127.700   7.28519e-20
      127.800   7.06543e-20
      127.900   6.85221e-20
      128.000   6.64538e-20
      128.100   6.44468e-20
      128.200   6.24999e-20
      128.300   6.06111e-20
      128.400   5.87794e-20
      128.500   5.70020e-20
      128.600   5.52785e-20
      128.700   5.36068e-20
      128.800   5.19847e-20
      128.900   5.04124e-20
      129.000   4.88883e-20
      129.100   4.74092e-20
      129.200   4.59714e-20
      129.300   4.45765e-20
      129.400   4.32238e-20
      129.500   4.19119e-20
      129.600   4.06396e-20
      129.700   3.94056e-20
      129.800   3.82087e-20
      129.900   3.70482e-20
      130.000   3.59228e-20
      130.100   3.48314e-20
      130.200   3.37727e-20
      130.300   3.27465e-20
      130.400   3.17512e-20
      130.500   3.07852e-20
      130.600   2.98454e-20
      130.700   2.89327e-20
      130.800   2.80476e-20
      130.900   2.71905e-20
      131.000   2.63597e-20
      131.100   2.55543e-20
      131.200   2.47731e-20
      131.300   2.40149e-20
      131.400   2.32798e-20
      131.500   2.25669e-20
      131.600   2.18757e-20
      131.700   2.12055e-20
      131.800   2.05553e-20
      131.900   1.99248e-20
      132.000   1.93135e-20
      132.100   1.87206e-20
      132.200   1.81457e-20
      132.300   1.75882e-20
      132.400   1.70476e-20
      132.500   1.65241e-20
      132.600   1.60169e-20
      132.700   1.54956e-20
      132.800   1.49811e-20
      132.900   1.44821e-20
      133.000   1.39993e-20
      133.100   1.35325e-20
      133.200   1.30811e-20
      133.300   1.26443e-20
      133.400   1.22220e-20
      133.500   1.18135e-20
      133.600   1.14186e-20
      133.700   1.10367e-20
      133.800   1.06674e-20
      133.900   1.03114e-20
      134.000   9.96714e-21
      134.100   9.63420e-21
      134.200   9.31237e-21
      134.300   9.00108e-21
      134.400   8.70010e-21
      134.500   8.40916e-21
      134.600   8.12776e-21
      134.700   7.85568e-21
      134.800   7.59266e-21
      134.900   7.33850e-21
      135.000   7.09268e-21
      135.100   6.85563e-21
      135.200   6.62652e-21
      135.300   6.40500e-21
      135.400   6.19077e-21
      135.500   5.98340e-21
      135.600   5.78274e-21
      135.700   5.58872e-21
      135.800   5.40108e-21
      135.900   5.21967e-21
      136.000   5.04421e-21
      136.100   4.87454e-21
      136.200   4.71096e-21
      136.300   4.55284e-21
      136.400   4.40001e-21
      136.500   4.25221e-21
      136.600   4.10924e-21
      136.700   3.97101e-21
      136.800   3.83735e-21
      136.900   3.70815e-21
      137.000   3.58331e-21
      137.100   3.46280e-21
      137.200   3.34645e-21
      137.300   3.23425e-21
      137.400   3.12574e-21
      137.500   3.02078e-21
      137.600   2.91926e-21
      137.700   2.82105e-21
      137.800   2.72606e-21
      137.900   2.63421e-21
      138.000   2.54541e-21
      138.100   2.45954e-21
      138.200   2.37682e-21
      138.300   2.29688e-21
      138.400   2.21961e-21
      138.500   2.14489e-21
      138.600   2.07263e-21
      138.700   2.00277e-21
      138.800   1.93523e-21
      138.900   1.86992e-21
      139.000   1.80677e-21
      139.100   1.74591e-21
      139.200   1.68743e-21
      139.300   1.63119e-21
      139.400   1.57688e-21
      139.500   1.52435e-21
      139.600   1.47351e-21
      139.700   1.42434e-21
      139.800   1.37679e-21
      139.900   1.33078e-21
      140.000   1.28647e-21
      140.100   1.24360e-21
      140.200   1.20214e-21
      140.300   1.16203e-21
      140.400   1.12322e-21
      140.500   1.08567e-21
      140.600   1.04934e-21
      140.700   1.01420e-21
      140.800   9.80347e-22
      140.900   9.47629e-22
      141.000   9.15967e-22
      141.100   8.85339e-22
      141.200   8.55715e-22
      141.300   8.27048e-22
      141.400   7.99406e-22
      141.500   7.73100e-22
      141.600   7.48001e-22
      141.700   7.23727e-22
      141.800   7.00222e-22
      141.900   6.77460e-22
      142.000   6.55417e-22
      142.100   6.34316e-22
      142.200   6.14593e-22
      142.300   5.96074e-22
      142.400   5.78181e-22
      142.500   5.60804e-22
      142.600   5.43930e-22
      142.700   5.27546e-22
      142.800   5.11643e-22
      142.900   4.96207e-22
      143.000   4.81219e-22
      143.100   4.66718e-22
      143.200   4.52668e-22
      143.300   4.39023e-22
      143.400   4.25781e-22
      143.500   4.12924e-22
      143.600   4.00442e-22
      143.700   3.88411e-22
      143.800   3.77913e-22
      143.900   3.67914e-22
      144.000   3.58188e-22
      144.100   3.48711e-22
      144.200   3.39478e-22
      144.300   3.30479e-22
      144.400   3.21744e-22
      144.500   3.13727e-22
      144.600   3.06061e-22
      144.700   2.98591e-22
      144.800   2.91293e-22
      144.900   2.84165e-22
      145.000   2.77200e-22
      145.100   2.70399e-22
      145.200   2.63779e-22
      145.300   2.57320e-22
      145.400   2.51010e-22
      145.500   2.44845e-22
      145.600   2.38822e-22
      145.700   2.32939e-22
      145.800   2.27201e-22
      145.900   2.21617e-22
      146.000   2.16158e-22
      146.100   2.10764e-22
      146.200   2.05456e-22
      146.300   2.00273e-22
      146.400   1.95212e-22
      146.500   1.90296e-22
      146.600   1.85499e-22
      146.700   1.80817e-22
      146.800   1.76234e-22
      146.900   1.71747e-22
      147.000   1.67368e-22
      147.100   1.63105e-22
      147.200   1.58957e-22
      147.300   1.54908e-22
      147.400   1.50957e-22
      147.500   1.47102e-22
      147.600   1.43339e-22
      147.700   1.39676e-22
      147.800   1.36113e-22
      147.900   1.32636e-22
      148.000   1.29242e-22
      148.100   1.25932e-22
      148.200   1.22702e-22
      148.300   1.19557e-22
      148.400   1.16977e-22
      148.500   1.14818e-22
      148.600   1.12824e-22
      148.700   1.10861e-22
      148.800   1.08930e-22
      148.900   1.07036e-22
      149.000   1.05176e-22
      149.100   1.03346e-22
      149.200   1.01546e-22
      149.300   9.97742e-23
      149.400   9.80316e-23
      149.500   9.63223e-23
      149.600   9.46420e-23
      149.700   9.29891e-23
      149.800   9.13630e-23
      149.900   8.97641e-23
      150.000   8.81914e-23
      150.100   8.66482e-23
      150.200   8.51298e-23
      150.300   8.36387e-23
      150.400   8.21720e-23
      150.500   8.07299e-23
      150.600   7.93118e-23
      150.700   7.79173e-23
      150.800   7.65472e-23
      150.900   7.52018e-23
      151.000   7.38773e-23
      151.100   7.25760e-23
      151.200   7.12962e-23
      151.300   7.00378e-23
      151.400   6.88006e-23
      151.500   6.75866e-23
      151.600   6.63932e-23
      151.700   6.52214e-23
      151.800   6.40691e-23
      151.900   6.29357e-23
      152.000   6.18854e-23
      152.100   6.15027e-23
      152.200   6.12052e-23
      152.300   6.09070e-23
      152.400   6.06093e-23
      152.500   6.03135e-23
      152.600   6.00184e-23
      152.700   5.90881e-23
      152.800   5.79449e-23
      152.900   5.68223e-23
      153.000   5.57205e-23
      153.100   5.46398e-23
      153.200   5.35786e-23
      153.300   5.27245e-23
      153.400   5.20628e-23
      153.500   5.14287e-23
      153.600   5.08031e-23
      153.700   5.01854e-23
      153.800   4.95741e-23
      153.900   4.89699e-23
      154.000   4.83789e-23
      154.100   4.78073e-23
      154.200   4.72459e-23
      154.300   4.66906e-23
      154.400   4.61426e-23
      154.500   4.56001e-23
      154.600   4.50637e-23
      154.700   4.45339e-23
      154.800   4.40100e-23
      154.900   4.34916e-23
      155.000   4.29788e-23
      155.100   4.24721e-23
      155.200   4.19707e-23
      155.300   4.14751e-23
      155.400   4.09852e-23
      155.500   4.05008e-23
      155.600   4.00211e-23
      155.700   3.95468e-23
      155.800   3.90780e-23
      155.900   3.86139e-23
      156.000   3.81554e-23
      156.100   3.77018e-23
      156.200   3.72534e-23
      156.300   3.68098e-23
      156.400   3.63709e-23
      156.500   3.59353e-23
      156.600   3.54967e-23
      156.700   3.50626e-23
      156.800   3.46333e-23
      156.900   3.42089e-23
      157.000   3.37902e-23
      157.100   3.33460e-23
      157.200   3.27022e-23
      157.300   3.18520e-23
      157.400   3.10238e-23
      157.500   3.02160e-23
      157.600   2.94290e-23
      157.700   2.86615e-23
      157.800   2.79138e-23
      157.900   2.75946e-23
      158.000   2.73155e-23
      158.100   2.70394e-23
      158.200   2.67655e-23
      158.300   2.64941e-23
      158.400   2.62256e-23
      158.500   2.59594e-23
      158.600   2.56955e-23
      158.700   2.54338e-23
      158.800   2.51752e-23
      158.900   2.49188e-23
      159.000   2.46648e-23
      159.100   2.44021e-23
      159.200   2.40098e-23
      159.300   2.34080e-23
      159.400   2.28212e-23
      159.500   2.22489e-23
      159.600   2.16903e-23
      159.700   2.11458e-23
      159.800   2.06143e-23
      159.900   2.03317e-23
      160.000   2.02144e-23
      160.100   2.01027e-23
      160.200   1.99914e-23
      160.300   1.98807e-23
      160.400   1.97707e-23
      160.500   1.96346e-23
      160.600   1.93492e-23
      160.700   1.89576e-23
      160.800   1.85737e-23
      160.900   1.81972e-23
      161.000   1.78282e-23
      161.100   1.74665e-23
      161.200   1.71122e-23
      161.300   1.67650e-23
      161.400   1.64246e-23
      161.500   1.60912e-23
      161.600   1.57641e-23
      161.700   1.54434e-23
      161.800   1.51290e-23
      161.900   1.48263e-23
      162.000   1.45761e-23
      162.100   1.43579e-23
      162.200   1.41430e-23
      162.300   1.39311e-23
      162.400   1.37222e-23
      162.500   1.35162e-23
      162.600   1.33134e-23
      162.700   1.31134e-23
      162.800   1.29163e-23
      162.900   1.27221e-23
      163.000   1.25307e-23
      163.100   1.23420e-23
      163.200   1.21559e-23
      163.300   1.19725e-23
      163.400   1.17918e-23
      163.500   1.16137e-23
      163.600   1.14382e-23
      163.700   1.12651e-23
      163.800   1.10948e-23
      163.900   1.09268e-23
      164.000   1.07612e-23
      164.100   1.05641e-23
      164.200   1.02798e-23
      164.300   1.00035e-23
      164.400   9.73457e-24
      164.500   9.47277e-24
      164.600   9.21795e-24
      164.700   8.96976e-24
      164.800   8.75603e-24
      164.900   8.60812e-24
      165.000   8.48712e-24
      165.100   8.36772e-24
      165.200   8.24995e-24
      165.300   8.13378e-24
      165.400   8.01930e-24
      165.500   7.90633e-24
      165.600   7.72253e-24
      165.700   7.51194e-24
      165.800   7.30471e-24
      165.900   7.10315e-24
      166.000   6.90739e-24
      166.100   6.71691e-24
      166.200   6.53165e-24
      166.300   6.35148e-24
      166.400   6.17620e-24
      166.500   6.00564e-24
      166.600   5.83974e-24
      166.700   5.67840e-24
      166.800   5.52138e-24
      166.900   5.36868e-24
      167.000   5.22025e-24
      167.100   5.07575e-24
      167.200   4.93520e-24
      167.300   4.79849e-24
      167.400   4.66554e-24
      167.500   4.53619e-24
      167.600   4.41039e-24
      167.700   4.28804e-24
      167.800   4.16905e-24
      167.900   4.05329e-24
      168.000   3.94070e-24
      168.100   3.83118e-24
      168.200   3.72466e-24
      168.300   3.62106e-24
      168.400   3.52032e-24
      168.500   3.42319e-24
      168.600   3.34864e-24
      168.700   3.28614e-24
      168.800   3.22479e-24
      168.900   3.16456e-24
      169.000   3.10546e-24
      169.100   3.04738e-24
      169.200   2.99042e-24
      169.300   2.93447e-24
      169.400   2.87955e-24
      169.500   2.82546e-24
      169.600   2.77170e-24
      169.700   2.71822e-24
      169.800   2.66553e-24
      169.900   2.61380e-24
      170.000   2.56303e-24
      170.100   2.49015e-24
      170.200   2.38598e-24
      170.300   3.01032e-24
      170.400   6.26662e-24
      170.500   1.15600e-23
      170.600   1.65495e-23
      170.700   2.02003e-23
      170.800   2.14781e-23
      170.900   2.10791e-23
      171.000   2.04064e-23
      171.100   1.97766e-23
      171.200   1.91652e-23
      171.300   1.85714e-23
      171.400   1.79951e-23
      171.500   1.74354e-23
      171.600   1.68921e-23
      171.700   1.63651e-23
      171.800   1.58537e-23
      171.900   1.53579e-23
      172.000   1.48773e-23
      172.100   1.44115e-23
      172.200   1.39603e-23
      172.300   1.35228e-23
      172.400   1.30962e-23
      172.500   1.26827e-23
      172.600   1.22825e-23
      172.700   1.18951e-23
      172.800   1.15199e-23
      172.900   1.11566e-23
      173.000   1.08052e-23
      173.100   1.04650e-23
      173.200   1.01356e-23
      173.300   9.81675e-24
      173.400   9.50795e-24
      173.500   9.20916e-24
      173.600   8.91998e-24
      173.700   8.63989e-24
      173.800   8.36888e-24
      173.900   8.10653e-24
      174.000   7.85239e-24
      174.100   7.60640e-24
      174.200   7.36823e-24
      174.300   7.13751e-24
      174.400   6.91411e-24
      174.500   6.69768e-24
      174.600   6.48802e-24
      174.700   6.28501e-24
      174.800   6.08838e-24
      174.900   5.89784e-24
      175.000   5.71317e-24
      175.100   5.53426e-24
      175.200   5.36117e-24
      175.300   5.19338e-24
      175.400   5.03080e-24
      175.500   4.87338e-24
      175.600   4.72076e-24
      175.700   4.57295e-24
      175.800   4.42968e-24
      175.900   4.29088e-24
      176.000   4.15639e-24
      176.100   4.02615e-24
      176.200   3.89995e-24
      176.300   3.77766e-24
      176.400   3.65921e-24
      176.500   3.54414e-24
      176.600   3.38001e-24
      176.700   3.19890e-24
      176.800   3.02739e-24
      176.900   2.86502e-24
      177.000   2.71125e-24
      177.100   2.56565e-24
      177.200   2.42784e-24
      177.300   2.29735e-24
      177.400   2.17376e-24
      177.500   2.05673e-24
      177.600   1.94597e-24
      177.700   1.84112e-24
      177.800   1.74186e-24
      177.900   1.64785e-24
      178.000   1.55899e-24
      178.100   1.47487e-24
      178.200   1.39522e-24
      178.300   1.31982e-24
      178.400   1.24848e-24
      178.500   1.18095e-24
      178.600   1.11835e-24
      178.700   1.06620e-24
      178.800   1.02756e-24
      178.900   9.90298e-25
      179.000   9.54370e-25
      179.100   9.19722e-25
      179.200   8.86332e-25
      179.300   8.54143e-25
      179.400   8.23105e-25
      179.500   7.93208e-25
      179.600   7.64409e-25
      179.700   7.36650e-25
      179.800   7.09891e-25
      179.900   6.84103e-25
      180.000   6.59239e-25
      180.100   6.35283e-25
      180.200   6.12205e-25
      180.300   5.89959e-25
      180.400   5.68522e-25
      180.500   5.47870e-25
      180.600   5.27963e-25
      180.700   5.08782e-25
      180.800   4.90302e-25
      180.900   4.72491e-25
      181.000   4.55324e-25
      181.100   4.38785e-25
      181.200   4.22850e-25
      181.300   4.07493e-25
      181.400   3.92700e-25
      181.500   3.78441e-25
      181.600   3.64701e-25
      181.700   3.51461e-25
      181.800   3.38702e-25
      181.900   3.26406e-25
      182.000   3.14564e-25
      182.100   3.03145e-25
      182.200   2.92251e-25
      182.300   2.82607e-25
      182.400   2.73341e-25
      182.500   2.64377e-25
      182.600   2.55708e-25
      182.700   2.47321e-25
      182.800   2.39210e-25
      182.900   2.31362e-25
      183.000   2.23773e-25
      183.100   2.16433e-25
      183.200   2.09332e-25
      183.300   2.02461e-25
      183.400   1.95815e-25
      183.500   1.89387e-25
      183.600   1.83169e-25
      183.700   1.77153e-25
      183.800   1.71337e-25
      183.900   1.65712e-25
      184.000   1.60269e-25
      184.100   1.55010e-25
      184.200   1.49926e-25
      184.300   1.45009e-25
      184.400   1.40254e-25
      184.500   1.35654e-25
      184.600   1.31202e-25
      184.700   1.26897e-25
      184.800   1.22733e-25
      184.900   1.18705e-25
      185.000   1.14807e-25
      185.100   1.11083e-25
      185.200   1.07704e-25
      185.300   1.04722e-25
      185.400   1.01822e-25
      185.500   9.90003e-26
      185.600   9.62565e-26
      185.700   9.35885e-26
      185.800   9.09978e-26
      185.900   8.84791e-26
      186.000   8.60301e-26
      186.100   8.36479e-26
      186.200   8.13306e-26
      186.300   7.90759e-26
      186.400   7.68844e-26
      186.500   7.47529e-26
      186.600   7.26789e-26
      186.700   7.06608e-26
      186.800   6.86979e-26
      186.900   6.67894e-26
      187.000   6.49329e-26
      187.100   6.31256e-26
      187.200   6.13694e-26
      187.300   5.96638e-26
      187.400   5.80046e-26
      187.500   5.63909e-26
      187.600   5.48213e-26
      187.700   5.32947e-26
      187.800   5.18101e-26
      187.900   5.03659e-26
      188.000   4.89617e-26
      188.100   4.75209e-26
      188.200   4.58619e-26
      188.300   4.39369e-26
      188.400   4.20918e-26
      188.500   4.03234e-26
      188.600   3.86308e-26
      188.700   3.70112e-26
      188.800   3.54595e-26
      188.900   3.39721e-26
      189.000   3.25461e-26
      189.100   3.11789e-26
      189.200   2.98686e-26
      189.300   2.86128e-26
      189.400   2.74095e-26
      189.500   2.62625e-26
      189.600   2.52527e-26
      189.700   2.46275e-26
      189.800   2.40203e-26
      189.900   2.34287e-26
      190.000   2.28523e-26
      190.100   2.22902e-26
      190.200   2.17418e-26
      190.300   2.12071e-26
      190.400   2.06853e-26
      190.500   2.01765e-26
      190.600   1.96804e-26
      190.700   1.91964e-26
      190.800   1.87244e-26
      190.900   1.82640e-26
      191.000   1.78157e-26
      191.100   1.73789e-26
      191.200   1.69525e-26
      191.300   1.65368e-26
      191.400   1.61314e-26
      191.500   1.57358e-26
      191.600   1.53499e-26
      191.700   1.49736e-26
      191.800   1.46063e-26
      191.900   1.42479e-26
      192.000   1.38986e-26
      192.100   1.35582e-26
      192.200   1.32267e-26
      192.300   1.29031e-26
      192.400   1.25874e-26
      192.500   1.22565e-26
      192.600   1.18607e-26
      192.700   1.14191e-26
      192.800   1.09938e-26
      192.900   1.05839e-26
      193.000   1.01893e-26
      193.100   9.80981e-27
      193.200   9.44511e-27
      193.300   9.09392e-27
      193.400   8.75575e-27
      193.500   8.42996e-27
      193.600   8.11607e-27
      193.700   7.81371e-27
      193.800   7.52258e-27
      193.900   7.24226e-27
      194.000   6.97767e-27
      194.100   6.83037e-27
      194.200   6.72245e-27
      194.300   6.61884e-27
      194.400   6.51688e-27
      194.500   6.41658e-27
      194.600   6.31782e-27
      194.700   6.22061e-27
      194.800   6.12492e-27
      194.900   6.03068e-27
      195.000   5.93795e-27
      195.100   5.84686e-27
      195.200   5.75712e-27
      195.300   5.66875e-27
      195.400   5.58171e-27
      195.500   5.49424e-27
      195.600   5.36277e-27
      195.700   5.15868e-27
      195.800   4.96222e-27
      195.900   4.77316e-27
      196.000   4.59102e-27
      196.100   4.41568e-27
      196.200   4.24693e-27
      196.300   4.08448e-27
      196.400   3.92810e-27
      196.500   3.77751e-27
      196.600   3.63262e-27
      196.700   3.49314e-27
      196.800   3.35914e-27
      196.900   3.23056e-27
      197.000   3.10682e-27
      197.100   2.98768e-27
      197.200   2.87301e-27
      197.300   2.76260e-27
      197.400   2.65629e-27
      197.500   2.55398e-27
      197.600   2.45551e-27
      197.700   2.36122e-27
      197.800   2.27052e-27
      197.900   2.18318e-27
      198.000   2.09911e-27
      198.100   2.01821e-27
      198.200   1.94034e-27
      198.300   1.86536e-27
      198.400   1.79325e-27
      198.500   1.72413e-27
      198.600   1.65771e-27
      198.700   1.60028e-27
      198.800   1.55389e-27
      198.900   1.51327e-27
      199.000   1.47365e-27
      199.100   1.43505e-27
      199.200   1.39745e-27
      199.300   1.36093e-27
      199.400   1.32538e-27
      199.500   1.29074e-27
      199.600   1.25697e-27
      199.700   1.22407e-27
      199.800   1.19203e-27
      199.900   1.16080e-27
      200.000   1.13036e-27
      200.100   1.10085e-27
      200.200   1.07207e-27
      200.300   1.04406e-27
      200.400   1.01676e-27
      200.500   9.90158e-28
      200.600   9.64270e-28
      200.700   9.39047e-28
      200.800   9.14466e-28
      200.900   8.90544e-28
      201.000   8.67251e-28
      201.100   8.44599e-28
      201.200   8.22533e-28
      201.300   8.01036e-28
      201.400   7.80106e-28
      201.500   7.59719e-28
      201.600   7.39852e-28
      201.700   7.20511e-28
      201.800   7.01670e-28
      201.900   6.82784e-28
      202.000   6.55589e-28
      202.100   6.25388e-28
      202.200   5.96574e-28
      202.300   5.69120e-28
      202.400   5.42996e-28
      202.500   5.18084e-28
      202.600   4.94294e-28
      202.700   4.71594e-28
      202.800   4.49950e-28
      202.900   4.29331e-28
      203.000   4.09652e-28
      203.100   3.90878e-28
      203.200   3.72944e-28
      203.300   3.55820e-28
      203.400   3.39476e-28
      203.500   3.23878e-28
      203.600   3.09550e-28
      203.700   2.97395e-28
      203.800   2.85928e-28
      203.900   2.74918e-28
      204.000   2.64327e-28
      204.100   2.54141e-28
      204.200   2.44349e-28
      204.300   2.34930e-28
      204.400   2.25873e-28
      204.500   2.17164e-28
      204.600   2.08787e-28
      204.700   2.00732e-28
      204.800   1.92999e-28
      204.900   1.85572e-28
      205.000   1.78430e-28
      205.100   1.71563e-28
      205.200   1.64957e-28
      205.300   1.58607e-28
      205.400   1.52500e-28
      205.500   1.46626e-28
      205.600   1.40965e-28
      205.700   1.35452e-28
      205.800   1.30137e-28
      205.900   1.25034e-28
      206.000   1.20140e-28
      206.100   1.15434e-28
      206.200   1.10909e-28
      206.300   1.06563e-28
      206.400   1.02387e-28
      206.500   9.83709e-29
      206.600   9.45120e-29
      206.700   9.08038e-29
      206.800   8.72386e-29
      206.900   8.38120e-29
      207.000   8.05195e-29
      207.100   7.73609e-29
      207.200   7.43277e-29
      207.300   7.14109e-29
      207.400   6.86072e-29
      207.500   6.59124e-29
      207.600   6.33231e-29
      207.700   6.08332e-29
      207.800   5.84402e-29
      207.900   5.61403e-29
      208.000   5.39299e-29
      208.100   5.18058e-29
      208.200   4.97640e-29
      208.300   4.78024e-29
      208.400   4.59207e-29
      208.500   4.41126e-29
      208.600   4.23741e-29
      208.700   4.07029e-29
      208.800   3.90971e-29
      208.900   3.74960e-29
      209.000   3.57162e-29
      209.100   3.38565e-29
      209.200   3.20923e-29
      209.300   3.04183e-29
      209.400   2.88314e-29
      209.500   2.73258e-29
      209.600   2.58976e-29
      209.700   2.45450e-29
      209.800   2.32651e-29
      209.900   2.20502e-29
      210.000   2.08986e-29
      210.100   1.98063e-29
      210.200   1.87703e-29
      210.300   1.77880e-29
      210.400   1.68566e-29
      210.500   1.59733e-29
      210.600   1.51358e-29
      210.700   1.43418e-29
      210.800   1.35889e-29
      210.900   1.28751e-29
      211.000   1.21984e-29
      211.100   1.15570e-29
      211.200   1.09489e-29
      211.300   1.03739e-29
      211.400   9.82922e-30
      211.500   9.31256e-30
      211.600   8.82287e-30
      211.700   8.35875e-30
      211.800   7.91855e-30
      211.900   7.50133e-30
      212.000   7.10615e-30
      212.100   6.73144e-30
      212.200   6.37622e-30
      212.300   6.02461e-30
      212.400   5.64971e-30
      212.500   5.28146e-30
      212.600   4.93699e-30
      212.700   4.61475e-30
      212.800   4.31331e-30
      212.900   4.03146e-30
      213.000   3.76801e-30
      213.100   3.52212e-30
      213.200   3.29210e-30
      213.300   3.07699e-30
      213.400   2.87575e-30
      213.500   2.68756e-30
      213.600   2.51154e-30
      213.700   2.34699e-30
      213.800   2.19307e-30
      213.900   2.04923e-30
      214.000   1.91470e-30
      214.100   1.79113e-30
      214.200   1.70128e-30
      214.300   1.63295e-30
      214.400   1.56734e-30
      214.500   1.50436e-30
      214.600   1.44391e-30
      214.700   1.38588e-30
      214.800   1.33018e-30
      214.900   1.27673e-30
      215.000   1.22539e-30
      215.100   1.17614e-30
      215.200   1.12892e-30
      215.300   1.08360e-30
      215.400   1.04010e-30
      215.500   9.98329e-31
      215.600   9.58270e-31
      215.700   9.19791e-31
      215.800   8.82851e-31
      215.900   8.47415e-31
      216.000   8.10025e-31
      216.100   7.66300e-31
      216.200   7.22010e-31
      216.300   6.80273e-31
      216.400   6.40939e-31
      216.500   6.03851e-31
      216.600   5.68911e-31
      216.700   5.35989e-31
      216.800   5.04956e-31
      216.900   4.75720e-31
      217.000   4.48168e-31
      217.100   4.22195e-31
      217.200   3.97728e-31
      217.300   3.74674e-31
      217.400   3.52946e-31
      217.500   3.32482e-31
      217.600   3.13187e-31
      217.700   2.95005e-31
      217.800   2.77881e-31
      217.900   2.61683e-31
      218.000   2.44785e-31
      218.100   2.28971e-31
      218.200   2.14172e-31
      218.300   2.00333e-31
      218.400   1.87395e-31
      218.500   1.75282e-31
      218.600   1.63951e-31
      218.700   1.53346e-31
      218.800   1.43421e-31
      218.900   1.34140e-31
      219.000   1.25450e-31
      219.100   1.17318e-31
      219.200   1.09712e-31
      219.300   1.02597e-31
      219.400   9.59379e-32
      219.500   8.97086e-32
      219.600   8.38811e-32
      219.700   7.84288e-32
      219.800   7.33304e-32
      219.900   6.85598e-32
      220.000   6.40961e-32
      220.100   5.99211e-32
      220.200   5.60164e-32
      220.300   5.23649e-32
      220.400   4.89486e-32
      220.500   4.57548e-32
      220.600   4.27681e-32
      220.700   3.99736e-32
      220.800   3.73600e-32
      220.900   3.49176e-32
      221.000   3.26328e-32
      221.100   3.04959e-32
      221.200   2.84989e-32
      221.300   2.66314e-32
      221.400   2.48850e-32
      221.500   2.32528e-32
      221.600   2.17266e-32
      221.700   2.02998e-32
      221.800   1.90606e-32
      221.900   1.81403e-32
      222.000   1.73323e-32
      222.100   1.65599e-32
      222.200   1.58218e-32
      222.300   1.51163e-32
      222.400   1.44421e-32
      222.500   1.37978e-32
      222.600   1.31822e-32
      222.700   1.25937e-32
      222.800   1.20314e-32
      222.900   1.14941e-32
      223.000   1.09807e-32
      223.100   1.04899e-32
      223.200   1.00210e-32
      223.300   9.57292e-33
      223.400   9.14483e-33
      223.500   8.73561e-33
      223.600   8.34476e-33
      223.700   7.97124e-33
      223.800   7.60679e-33
      223.900   7.20838e-33
      224.000   6.82337e-33
      224.100   6.45886e-33
      224.200   6.11369e-33
      224.300   5.78688e-33
      224.400   5.47729e-33
      224.500   5.18432e-33
      224.600   4.90680e-33
      224.700   4.64419e-33
      224.800   4.39544e-33
      224.900   4.15988e-33
      225.000   3.93691e-33
      225.100   3.72579e-33
      225.200   3.52587e-33
      225.300   3.33676e-33
      225.400   3.15758e-33
      225.500   2.98798e-33
      225.600   2.82742e-33
      225.700   2.67550e-33
      225.800   2.53160e-33
      225.900   2.43207e-33
      226.000   2.35134e-33
      226.100   2.27482e-33
      226.200   2.20075e-33
      226.300   2.12927e-33
      226.400   2.06019e-33
      226.500   1.99328e-33
      226.600   1.92847e-33
      226.700   1.86576e-33
      226.800   1.80506e-33
      226.900   1.74633e-33
      227.000   1.68947e-33
      227.100   1.63446e-33
      227.200   1.58126e-33
      227.300   1.52978e-33
      227.400   1.47996e-33
      227.500   1.43177e-33
      227.600   1.38514e-33
      227.700   1.34003e-33
      227.800   1.29639e-33
      227.900   1.24998e-33
      228.000   1.19457e-33
      228.100   1.13563e-33
      228.200   1.07956e-33
      228.300   1.02627e-33
      228.400   9.75610e-34
      228.500   9.27422e-34
      228.600   8.81622e-34
      228.700   8.38076e-34
      228.800   7.96659e-34
      228.900   7.57303e-34
      229.000   7.19881e-34
      229.100   6.84301e-34
      229.200   6.50473e-34
      229.300   6.18316e-34
      229.400   5.87746e-34
      229.500   5.58682e-34
      229.600   5.31050e-34
      229.700   5.04783e-34
      229.800   4.79813e-34
      229.900   4.56078e-34
      230.000   4.33239e-34
      230.100   4.09463e-34
      230.200   3.85761e-34
      230.300   3.63440e-34
      230.400   3.42396e-34
      230.500   3.22580e-34
      230.600   3.03925e-34
      230.700   2.86340e-34
      230.800   2.69772e-34
      230.900   2.54161e-34
      231.000   2.39446e-34
      231.100   2.25578e-34
      231.200   2.12514e-34
      231.300   2.00205e-34
      231.400   1.88609e-34
      231.500   1.77676e-34
      231.600   1.67373e-34
      231.700   1.57668e-34
      231.800   1.48524e-34
      231.900   1.39906e-34
      232.000   1.31786e-34
      232.100   1.24135e-34
      232.200   1.17971e-34
      232.300   1.13584e-34
      232.400   1.09745e-34
      232.500   1.06037e-34
      232.600   1.02454e-34
      232.700   9.89925e-35
      232.800   9.56485e-35
      232.900   9.24152e-35
      233.000   8.92877e-35
      233.100   8.62666e-35
      233.200   8.33487e-35
      233.300   8.05294e-35
      233.400   7.78060e-35
      233.500   7.51759e-35
      233.600   7.26364e-35
      233.700   7.01827e-35
      233.800   6.77856e-35
      233.900   6.54662e-35
      234.000   6.32260e-35
      234.100   6.10621e-35
      234.200   5.89733e-35
      234.300   5.69552e-35
      234.400   5.50059e-35
      234.500   5.31235e-35
      234.600   5.13051e-35
      234.700   4.95494e-35
      234.800   4.78540e-35
      234.900   4.62160e-35
      235.000   4.46338e-35
      235.100   4.31057e-35
      235.200   4.16301e-35
      235.300   4.02050e-35
      235.400   3.88279e-35
      235.500   3.74986e-35
      235.600   3.62148e-35
      235.700   3.49746e-35
      235.800   3.37785e-35
      235.900   3.26232e-35
      236.000   3.15078e-35
      236.100   3.04300e-35
      236.200   2.93889e-35
      236.300   2.83833e-35
      236.400   2.74124e-35
      236.500   2.64744e-35
      236.600   2.56168e-35
      236.700   2.48926e-35
      236.800   2.42553e-35
      236.900   2.36342e-35
      237.000   2.30288e-35
      237.100   2.24390e-35
      237.200   2.18641e-35
      237.300   2.13040e-35
      237.400   2.07581e-35
      237.500   2.02263e-35
      237.600   1.97075e-35
      237.700   1.92028e-35
      237.800   1.87112e-35
      237.900   1.82317e-35
      238.000   1.77646e-35
      238.100   1.73092e-35
      238.200   1.68655e-35
      238.300   1.64331e-35
      238.400   1.60116e-35
      238.500   1.56007e-35
      238.600   1.52004e-35
      238.700   1.48102e-35
      238.800   1.44300e-35
      238.900   1.40889e-35
      239.000   1.38597e-35
      239.100   1.36460e-35
      239.200   1.34355e-35
      239.300   1.32283e-35
      239.400   1.30241e-35
      239.500   1.28232e-35
      239.600   1.26251e-35
      239.700   1.24300e-35
      239.800   1.22380e-35
      239.900   1.20487e-35
      240.000   1.18623e-35
      240.100   1.16786e-35
      240.200   1.14978e-35
      240.300   1.13196e-35
      240.400   1.11442e-35
      240.500   1.09713e-35
      240.600   1.08011e-35
      240.700   1.06333e-35
      240.800   1.04680e-35
      240.900   1.03054e-35
      241.000   1.01452e-35
      241.100   9.98745e-36
      241.200   9.83211e-36
      241.300   9.67898e-36
      241.400   9.52824e-36
      241.500   9.37979e-36
      241.600   9.23362e-36
      241.700   9.08963e-36
      241.800   8.94773e-36
      241.900   8.80805e-36
      242.000   8.67051e-36
      242.100   8.53510e-36
      242.200   8.40180e-36
      242.300   8.27070e-36
      242.400   8.14152e-36
      242.500   8.01436e-36
      242.600   7.88908e-36
      242.700   7.76573e-36
      242.800   7.64437e-36
      242.900   7.52486e-36
      243.000   7.40714e-36
      243.100   7.29124e-36
      243.200   7.17716e-36
      243.300   7.06481e-36
      243.400   6.95427e-36
      243.500   6.84548e-36
      243.600   6.73845e-36
      243.700   6.63306e-36
      243.800   6.52935e-36
      243.900   6.42723e-36
      244.000   6.32669e-36
      244.100   6.22777e-36
      244.200   6.13041e-36
      244.300   6.03451e-36
      244.400   5.94012e-36
      244.500   5.84728e-36
      244.600   5.75582e-36
      244.700   5.66585e-36
      244.800   5.57744e-36
      244.900   5.49034e-36
      245.000   5.40461e-36
      245.100   5.32025e-36
      245.200   5.23722e-36
      245.300   5.15551e-36
      245.400   5.07504e-36
      245.500   4.99586e-36
      245.600   4.91795e-36
      245.700   4.84125e-36
      245.800   4.76578e-36
      245.900   4.69153e-36
      246.000   4.61853e-36
      246.100   4.54667e-36
      246.200   4.47590e-36
      246.300   4.40628e-36
      246.400   4.33780e-36
      246.500   4.27036e-36
      246.600   4.20396e-36
      246.700   4.13864e-36
      246.800   4.07435e-36
      246.900   4.01109e-36
      247.000   3.94885e-36
      247.100   3.88757e-36
      247.200   3.82736e-36
      247.300   3.76806e-36
      247.400   3.70970e-36
      247.500   3.65225e-36
      247.600   3.59568e-36
      247.700   3.54003e-36
      247.800   3.48527e-36
      247.900   3.43133e-36
      248.000   3.37829e-36
      248.100   3.32617e-36
      248.200   3.27487e-36
      248.300   3.22433e-36
      248.400   3.17457e-36
      248.500   3.10525e-36
      248.600   3.00410e-36
      248.700   2.88508e-36
      248.800   2.77071e-36
      248.900   2.66086e-36
      249.000   2.55531e-36
      249.100   2.45429e-36
      249.200   2.35732e-36
      249.300   2.26413e-36
      249.400   2.17457e-36
      249.500   2.08852e-36
      249.600   2.00583e-36
      249.700   1.92639e-36
      249.800   1.85004e-36
      249.900   1.77670e-36
      250.000   1.70623e-36
      250.100   1.63874e-36
      250.200   1.57394e-36
      250.300   1.51175e-36
      250.400   1.45198e-36
      250.500   1.39455e-36
      250.600   1.33940e-36
      250.700   1.28640e-36
      250.800   1.23549e-36
      250.900   1.18659e-36
      251.000   1.13960e-36
      251.100   1.09446e-36
      251.200   1.05116e-36
      251.300   1.00963e-36
      251.400   9.69736e-37
      251.500   9.31402e-37
      251.600   8.78016e-37
      251.700   7.96661e-37
      251.800   7.18548e-37
      251.900   6.47988e-37
      252.000   5.84256e-37
      252.100   5.26737e-37
      252.200   4.74787e-37
      252.300   4.28002e-37
      252.400   3.85961e-37
      252.500   3.48015e-37
      252.600   3.15588e-37
      252.700   2.96957e-37
      252.800   2.90467e-37
      252.900   2.84122e-37
      253.000   2.77915e-37
      253.100   2.71843e-37
      253.200   2.65906e-37
      253.300   2.60154e-37
      253.400   2.54551e-37
      253.500   2.49077e-37
      253.600   2.43723e-37
      253.700   2.38369e-37
      253.800   2.32581e-37
      253.900   2.26826e-37
      254.000   2.21213e-37
      254.100   2.15736e-37
      254.200   2.10394e-37
      254.300   2.05185e-37
      254.400   2.00105e-37
      254.500   1.95151e-37
      254.600   1.90315e-37
      254.700   1.85603e-37
      254.800   1.81012e-37
      254.900   1.76533e-37
      255.000   1.72165e-37
      255.100   1.67901e-37
      255.200   1.63745e-37
      255.300   1.59690e-37
      255.400   1.55735e-37
      255.500   1.51876e-37
      255.600   1.48113e-37
      255.700   1.44442e-37
      255.800   1.40860e-37
      255.900   1.37367e-37
      256.000   1.33959e-37
      256.100   1.30638e-37
      256.200   1.27399e-37
      256.300   1.24240e-37
      256.400   1.21161e-37
      256.500   1.18156e-37
      256.600   1.15223e-37
      256.700   1.12363e-37
      256.800   1.09574e-37
      256.900   1.06192e-37
      257.000   1.01869e-37
      257.100   9.74017e-38
      257.200   9.31300e-38
      257.300   8.90432e-38
      257.400   8.51455e-38
      257.500   8.14209e-38
      257.600   7.78653e-38
      257.700   7.44654e-38
      257.800   7.12113e-38
      257.900   6.80993e-38
      258.000   6.51222e-38
      258.100   6.22732e-38
      258.200   5.95484e-38
      258.300   5.69425e-38
      258.400   5.44480e-38
      258.500   5.20619e-38
      258.600   4.97802e-38
      258.700   4.75971e-38
      258.800   4.55088e-38
      258.900   4.35122e-38
      259.000   4.16015e-38
      259.100   3.97746e-38
      259.200   3.80283e-38
      259.300   3.63608e-38
      259.400   3.47651e-38
      259.500   3.32387e-38
      259.600   3.17791e-38
      259.700   3.03834e-38
      259.800   2.90482e-38
      259.900   2.77706e-38
      260.000   2.65492e-38
      260.100   2.52932e-38
      260.200   2.39879e-38
      260.300   2.27305e-38
      260.400   2.15387e-38
      260.500   2.04090e-38
      260.600   1.93376e-38
      260.700   1.83221e-38
      260.800   1.73602e-38
      260.900   1.64478e-38
      261.000   1.55838e-38
      261.100   1.47658e-38
      261.200   1.39860e-38
      261.300   1.32466e-38
      261.400   1.25462e-38
      261.500   1.18829e-38
      261.600   1.12552e-38
      261.700   1.06607e-38
      261.800   1.00975e-38
      261.900   9.56353e-39
      262.000   9.05773e-39
      262.100   8.57847e-39
      262.200   8.12465e-39
      262.300   7.69450e-39
      262.400   7.28704e-39
      262.500   6.90091e-39
      262.600   6.53509e-39
      262.700   6.18866e-39
      262.800   5.86048e-39
      262.900   5.54944e-39
      263.000   5.25508e-39
      263.100   4.97614e-39
      263.200   4.71237e-39
      263.300   4.46253e-39
      263.400   4.22582e-39
      263.500   4.00169e-39
      263.600   3.78936e-39
      263.700   3.58822e-39
      263.800   3.39767e-39
      263.900   3.21733e-39
      264.000   3.04643e-39
      264.100   2.88451e-39
      264.200   2.73114e-39
      264.300   2.58600e-39
      264.400   2.44852e-39
      264.500   2.31825e-39
      264.600   2.19488e-39
      264.700   2.07808e-39
      264.800   1.96742e-39
      264.900   1.86269e-39
      265.000   1.76350e-39
      265.100   1.66952e-39
      265.200   1.58056e-39
      265.300   1.49631e-39
      265.400   1.41541e-39
      265.500   1.33843e-39
      265.600   1.26565e-39
      265.700   1.19675e-39
      265.800   1.13167e-39
      265.900   1.07014e-39
      266.000   1.01199e-39
      266.100   9.56973e-40
      266.200   9.04950e-40
      266.300   8.55723e-40
      266.400   8.09184e-40
      266.500   7.65148e-40
      266.600   7.23509e-40
      266.700   6.84121e-40
      266.800   6.46897e-40
      266.900   6.11668e-40
      267.000   5.78352e-40
      267.100   5.46843e-40
      267.200   5.17069e-40
      267.300   4.88896e-40
      267.400   4.62246e-40
      267.500   4.37051e-40
      267.600   4.13226e-40
      267.700   3.90696e-40
      267.800   3.69385e-40
      267.900   3.49234e-40
      268.000   3.30189e-40
      268.100   3.12170e-40
      268.200   2.95144e-40
      268.300   2.79038e-40
      268.400   2.63808e-40
      268.500   2.49402e-40
      268.600   2.35785e-40
      268.700   2.22913e-40
      268.800   2.10737e-40
      268.900   1.99225e-40
      269.000   1.88350e-40
      269.100   1.78055e-40
      269.200   1.68332e-40
      269.300   1.59131e-40
      269.400   1.50435e-40
      269.500   1.42205e-40
      269.600   1.34435e-40
      269.700   1.25936e-40
      269.800   1.17709e-40
      269.900   1.10002e-40
      270.000   1.02808e-40
      270.100   9.60786e-41
      270.200   8.97910e-41
      270.300   8.39182e-41
      270.400   7.84265e-41
      270.500   7.32893e-41
      270.600   6.84871e-41
      270.700   6.40015e-41
      270.800   5.98032e-41
      270.900   5.58866e-41
      271.000   5.22222e-41
      271.100   4.87960e-41
      271.200   4.55926e-41
      271.300   4.25981e-41
      271.400   3.98067e-41
      271.500   3.71961e-41
      271.600   3.47480e-41
      271.700   3.24639e-41
      271.800   3.03325e-41
      271.900   2.83329e-41
      272.000   2.64733e-41
      272.100   2.47287e-41
      272.200   2.31088e-41
      272.300   2.15856e-41
      272.400   2.01633e-41
      272.500   1.88349e-41
      272.600   1.75919e-41
      272.700   1.64344e-41
      272.800   1.54003e-41
      272.900   1.45721e-41
      273.000   1.38504e-41
      273.100   1.31596e-41
      273.200   1.25080e-41
      273.300   1.18858e-41
      273.400   1.12973e-41
      273.500   1.07353e-41
      273.600   1.02015e-41
      273.700   9.69699e-42
      273.800   9.21494e-42
      273.900   8.68385e-42
      274.000   8.03505e-42
      274.100   7.42828e-42
      274.200   6.86917e-42
      274.300   6.35209e-42
      274.400   5.87564e-42
      274.500   5.43143e-42
      274.600   5.02225e-42
      274.700   4.63970e-42
      274.800   4.29078e-42
      274.900   3.96147e-42
      275.000   3.66159e-42
      275.100   3.38694e-42
      275.200   3.12770e-42
      275.300   2.89088e-42
      275.400   2.67087e-42
      275.500   2.46909e-42
      275.600   2.27851e-42
      275.700   2.10615e-42
      275.800   1.94640e-42
      275.900   1.79927e-42
      276.000   1.67035e-42
      276.100   1.57506e-42
      276.200   1.49799e-42
      276.300   1.41531e-42
      276.400   1.34244e-42
      276.500   1.26818e-42
      276.600   1.20792e-42
      276.700   1.14066e-42
      276.800   1.08040e-42
      276.900   1.02295e-42
      277.000   9.68297e-43
      277.100   9.16449e-43
      277.200   8.71608e-43
      277.300   8.23963e-43
      277.400   7.83326e-43
      277.500   7.38484e-43
      277.600   6.99248e-43
      277.700   6.61413e-43
      277.800   6.26380e-43
      277.900   5.91348e-43
      278.000   5.68927e-43
      278.100   5.36697e-43
      278.200   4.98862e-43
      278.300   4.59626e-43
      278.400   4.24593e-43
      278.500   3.92364e-43
      278.600   3.64338e-43
      278.700   3.39114e-43
      278.800   3.12490e-43
      278.900   2.87266e-43
      279.000   2.69049e-43
      279.100   2.49431e-43
      279.200   2.27010e-43
      279.300   2.14399e-43
      279.400   2.01787e-43
      279.500   1.89175e-43
      279.600   1.75162e-43
      279.700   1.69557e-43
      279.800   1.59748e-43
      279.900   1.47136e-43
      280.000   1.37327e-43
      280.100   1.27518e-43
      280.200   1.21913e-43
      280.300   1.12104e-43
      280.400   1.05097e-43
      280.500   9.94922e-44
      280.600   9.24857e-44
      280.700   8.68805e-44
      280.800   7.98740e-44
      280.900   7.98740e-44
      281.000   7.28675e-44
      281.100   7.00649e-44
      281.200   6.72623e-44
      281.300   6.02558e-44
      281.400   5.74532e-44
      281.500   5.74532e-44
      281.600   5.46506e-44
      281.700   4.76441e-44
      281.800   4.76441e-44
      281.900   4.48416e-44
      282.000   4.48416e-44
      282.100   4.20390e-44
      282.200   3.78351e-44
      282.300   3.78351e-44
      282.400   3.50325e-44
      282.500   3.22299e-44
      282.600   3.22299e-44
      282.700   3.22299e-44
      282.800   2.94273e-44
      282.900   2.94273e-44
      283.000   2.94273e-44
      283.100   2.52234e-44
      283.200   2.52234e-44
      283.300   2.24208e-44
      283.400   2.24208e-44
      283.500   2.24208e-44
      283.600   1.96182e-44
      283.700   1.96182e-44
      283.800   1.96182e-44
      283.900   1.54143e-44
      284.000   1.54143e-44
      284.100   1.54143e-44
      284.200   1.26117e-44
      284.300   1.26117e-44
      284.400   1.26117e-44
      284.500   1.26117e-44
      284.600   1.26117e-44
      284.700   1.26117e-44
      284.800   9.80909e-45
      284.900   9.80909e-45
      285.000   9.80909e-45
      285.100   7.00649e-45
      285.200   7.00649e-45
      285.300   7.00649e-45
      285.400   7.00649e-45
      285.500   7.00649e-45
      285.600   7.00649e-45
      285.700   7.00649e-45
      285.800   7.00649e-45
      285.900   2.80260e-45
      286.000   2.80260e-45
      286.100   2.80260e-45
      286.200   2.80260e-45
      286.300   2.80260e-45
      286.400   2.80260e-45
      286.500   2.80260e-45
      286.600   2.80260e-45
      286.700   2.80260e-45
      286.800   2.80260e-45
      286.900   2.80260e-45
      287.000   2.80260e-45
      287.100   2.80260e-45
      287.200   2.80260e-45
      287.300   2.80260e-45
      287.400   2.80260e-45
      287.500   2.80260e-45
      287.600   2.80260e-45
      287.700   2.80260e-45
      287.800       0.00000
      287.900       0.00000
      288.000       0.00000
      288.100       0.00000
      288.200       0.00000
      288.300       0.00000
      288.400       0.00000
      288.500       0.00000
      288.600       0.00000
      288.700       0.00000
      288.800       0.00000
      288.900       0.00000
      289.000       0.00000
      289.100       0.00000
      289.200       0.00000
      289.300       0.00000
      289.400       0.00000
      289.500       0.00000
      289.600       0.00000
      289.700       0.00000
      289.800       0.00000
      289.900       0.00000
      290.000       0.00000
      290.100       0.00000
      290.200       0.00000
      290.300       0.00000
      290.400       0.00000
      290.500       0.00000
      290.600       0.00000
      290.700       0.00000
      290.800       0.00000
      290.900       0.00000
      291.000       0.00000
      291.100       0.00000
      291.200       0.00000
      291.300       0.00000
      291.400       0.00000
      291.500       0.00000
      291.600       0.00000
      291.700       0.00000
      291.800       0.00000
      291.900       0.00000
      292.000       0.00000
      292.100       0.00000
      292.200       0.00000
      292.300       0.00000
      292.400       0.00000
      292.500       0.00000
      292.600       0.00000
      292.700       0.00000
      292.800       0.00000
      292.900       0.00000
      293.000       0.00000
      293.100       0.00000
      293.200       0.00000
      293.300       0.00000
      293.400       0.00000
      293.500       0.00000
      293.600       0.00000
      293.700       0.00000
      293.800       0.00000
      293.900       0.00000
      294.000       0.00000
      294.100       0.00000
      294.200       0.00000
      294.300       0.00000
      294.400       0.00000
      294.500       0.00000
      294.600       0.00000
      294.700       0.00000
      294.800       0.00000
      294.900       0.00000
      295.000       0.00000
      295.100       0.00000
      295.200       0.00000
      295.300       0.00000
      295.400       0.00000
      295.500       0.00000
      295.600       0.00000
      295.700       0.00000
      295.800       0.00000
      295.900       0.00000
      296.000       0.00000
      296.100       0.00000
      296.200       0.00000
      296.300       0.00000
      296.400       0.00000
      296.500       0.00000
      296.600       0.00000
      296.700       0.00000
      296.800       0.00000
      296.900       0.00000
      297.000       0.00000
      297.100       0.00000
      297.200       0.00000
      297.300       0.00000
      297.400       0.00000
      297.500       0.00000
      297.600       0.00000
      297.700       0.00000
      297.800       0.00000
      297.900       0.00000
      298.000       0.00000
      298.100       0.00000
      298.200       0.00000
      298.300       0.00000
      298.400       0.00000
      298.500       0.00000
      298.600       0.00000
      298.700       0.00000
      298.800       0.00000
      298.900       0.00000
      299.000       0.00000
      299.100       0.00000
      299.200       0.00000
      299.300       0.00000
      299.400       0.00000
      299.500       0.00000
      299.600       0.00000
      299.700       0.00000
      299.800       0.00000
      299.900       0.00000
      300.000       0.00000
      300.100       0.00000
      300.192       0.00000
      300.285       0.00000
      300.377       0.00000
      300.470       0.00000
      300.562       0.00000
      300.654       0.00000
      300.747       0.00000
      300.839       0.00000
      300.932       0.00000
      301.025       0.00000
      301.117       0.00000
      301.210       0.00000
      301.303       0.00000
      301.395       0.00000
      301.488       0.00000
      301.581       0.00000
      301.674       0.00000
      301.766       0.00000
      301.859       0.00000
      301.952       0.00000
      302.045       0.00000
      302.138       0.00000
      302.231       0.00000
      302.324       0.00000
      302.417       0.00000
      302.510       0.00000
      302.603       0.00000
      302.696       0.00000
      302.789       0.00000
      302.882       0.00000
      302.976       0.00000
      303.069       0.00000
      303.162       0.00000
      303.255       0.00000
      303.349       0.00000
      303.442       0.00000
      303.535       0.00000
      303.629       0.00000
      303.722       0.00000
      303.816       0.00000
      303.909       0.00000
      304.003       0.00000
      304.096       0.00000
      304.190       0.00000
      304.283       0.00000
      304.377       0.00000
      304.471       0.00000
      304.564       0.00000
      304.658       0.00000
      304.752       0.00000
      304.846       0.00000
      304.939       0.00000
      305.033       0.00000
      305.127       0.00000
      305.221       0.00000
      305.315       0.00000
      305.409       0.00000
      305.503       0.00000
      305.597       0.00000
      305.691       0.00000
      305.785       0.00000
      305.879       0.00000
      305.973       0.00000
      306.067       0.00000
      306.161       0.00000
      306.255       0.00000
      306.350       0.00000
      306.444       0.00000
      306.538       0.00000
      306.633       0.00000
      306.727       0.00000
      306.821       0.00000
      306.916       0.00000
      307.010       0.00000
      307.105       0.00000
      307.199       0.00000
      307.294       0.00000
      307.388       0.00000
      307.483       0.00000
      307.577       0.00000
      307.672       0.00000
      307.767       0.00000
      307.861       0.00000
      307.956       0.00000
      308.051       0.00000
      308.146       0.00000
      308.240       0.00000
      308.335       0.00000
      308.430       0.00000
      308.525       0.00000
      308.620       0.00000
      308.715       0.00000
      308.810       0.00000
      308.905       0.00000
      309.000       0.00000
      309.095       0.00000
      309.190       0.00000
      309.285       0.00000
      309.380       0.00000
      309.476       0.00000
      309.571       0.00000
      309.666       0.00000
      309.761       0.00000
      309.857       0.00000
      309.952       0.00000
      310.047       0.00000
      310.143       0.00000
      310.238       0.00000
      310.334       0.00000
      310.429       0.00000
      310.525       0.00000
      310.620       0.00000
      310.716       0.00000
      310.811       0.00000
      310.907       0.00000
      311.003       0.00000
      311.098       0.00000
      311.194       0.00000
      311.290       0.00000
      311.386       0.00000
      311.481       0.00000
      311.577       0.00000
      311.673       0.00000
      311.769       0.00000
      311.865       0.00000
      311.961       0.00000
      312.057       0.00000
      312.153       0.00000
      312.249       0.00000
      312.345       0.00000
      312.441       0.00000
      312.537       0.00000
      312.633       0.00000
      312.730       0.00000
      312.826       0.00000
      312.922       0.00000
      313.018       0.00000
      313.115       0.00000
      313.211       0.00000
      313.307       0.00000
      313.404       0.00000
      313.500       0.00000
      313.597       0.00000
      313.693       0.00000
      313.790       0.00000
      313.886       0.00000
      313.983       0.00000
      314.079       0.00000
      314.176       0.00000
      314.273       0.00000
      314.369       0.00000
      314.466       0.00000
      314.563       0.00000
      314.660       0.00000
      314.756       0.00000
      314.853       0.00000
      314.950       0.00000
      315.047       0.00000
      315.144       0.00000
      315.241       0.00000
      315.338       0.00000
      315.435       0.00000
      315.532       0.00000
      315.629       0.00000
      315.726       0.00000
      315.823       0.00000
      315.921       0.00000
      316.018       0.00000
      316.115       0.00000
      316.212       0.00000
      316.310       0.00000
      316.407       0.00000
      316.504       0.00000
      316.602       0.00000
      316.699       0.00000
      316.796       0.00000
      316.894       0.00000
      316.991       0.00000
      317.089       0.00000
      317.187       0.00000
      317.284       0.00000
      317.382       0.00000
      317.479       0.00000
      317.577       0.00000
      317.675       0.00000
      317.773       0.00000
      317.870       0.00000
      317.968       0.00000
      318.066       0.00000
      318.164       0.00000
      318.262       0.00000
      318.360       0.00000
      318.458       0.00000
      318.556       0.00000
      318.654       0.00000
      318.752       0.00000
      318.850       0.00000
      318.948       0.00000
      319.046       0.00000
      319.144       0.00000
      319.242       0.00000
      319.341       0.00000
      319.439       0.00000
      319.537       0.00000
      319.635       0.00000
      319.734       0.00000
      319.832       0.00000
      319.930       0.00000
      320.029       0.00000
      320.127       0.00000
      320.226       0.00000
      320.324       0.00000
      320.423       0.00000
      320.522       0.00000
      320.620       0.00000
      320.719       0.00000
      320.818       0.00000
      320.916       0.00000
      321.015       0.00000
      321.114       0.00000
      321.213       0.00000
      321.311       0.00000
      321.410       0.00000
      321.509       0.00000
      321.608       0.00000
      321.707       0.00000
      321.806       0.00000
      321.905       0.00000
      322.004       0.00000
      322.103       0.00000
      322.202       0.00000
      322.301       0.00000
      322.401       0.00000
      322.500       0.00000
      322.599       0.00000
      322.698       0.00000
      322.798       0.00000
      322.897       0.00000
      322.996       0.00000
      323.096       0.00000
      323.195       0.00000
      323.294       0.00000
      323.394       0.00000
      323.493       0.00000
      323.593       0.00000
      323.692       0.00000
      323.792       0.00000
      323.892       0.00000
      323.991       0.00000
      324.091       0.00000
      324.191       0.00000
      324.291       0.00000
      324.390       0.00000
      324.490       0.00000
      324.590       0.00000
      324.690       0.00000
      324.790       0.00000
      324.890       0.00000
      324.990       0.00000
      325.090       0.00000
      325.190       0.00000
      325.290       0.00000
      325.390       0.00000
      325.490       0.00000
      325.590       0.00000
      325.690       0.00000
      325.790       0.00000
      325.891       0.00000
      325.991       0.00000
      326.091       0.00000
      326.192       0.00000
      326.292       0.00000
      326.392       0.00000
      326.493       0.00000
      326.593       0.00000
      326.694       0.00000
      326.794       0.00000
      326.895       0.00000
      326.995       0.00000
      327.096       0.00000
      327.197       0.00000
      327.297       0.00000
      327.398       0.00000
      327.499       0.00000
      327.599       0.00000
      327.700       0.00000
      327.801       0.00000
      327.902       0.00000
      328.003       0.00000
      328.104       0.00000
      328.205       0.00000
      328.306       0.00000
      328.407       0.00000
      328.508       0.00000
      328.609       0.00000
      328.710       0.00000
      328.811       0.00000
      328.912       0.00000
      329.013       0.00000
      329.115       0.00000
      329.216       0.00000
      329.317       0.00000
      329.419       0.00000
      329.520       0.00000
      329.621       0.00000
      329.723       0.00000
      329.824       0.00000
      329.926       0.00000
      330.027       0.00000
      330.129       0.00000
      330.230       0.00000
      330.332       0.00000
      330.434       0.00000
      330.535       0.00000
      330.637       0.00000
      330.739       0.00000
      330.840       0.00000
      330.942       0.00000
      331.044       0.00000
      331.146       0.00000
      331.248       0.00000
      331.350       0.00000
      331.452       0.00000
      331.554       0.00000
      331.656       0.00000
      331.758       0.00000
      331.860       0.00000
      331.962       0.00000
      332.064       0.00000
      332.166       0.00000
      332.268       0.00000
      332.371       0.00000
      332.473       0.00000
      332.575       0.00000
      332.677       0.00000
      332.780       0.00000
      332.882       0.00000
      332.985       0.00000
      333.087       0.00000
      333.190       0.00000
      333.292       0.00000
      333.395       0.00000
      333.497       0.00000
      333.600       0.00000
      333.702       0.00000
      333.805       0.00000
      333.908       0.00000
      334.011       0.00000
      334.113       0.00000
      334.216       0.00000
      334.319       0.00000
      334.422       0.00000
      334.525       0.00000
      334.628       0.00000
      334.731       0.00000
      334.834       0.00000
      334.937       0.00000
      335.040       0.00000
      335.143       0.00000
      335.246       0.00000
      335.349       0.00000
      335.452       0.00000
      335.555       0.00000
      335.659       0.00000
      335.762       0.00000
      335.865       0.00000
      335.969       0.00000
      336.072       0.00000
      336.175       0.00000
      336.279       0.00000
      336.382       0.00000
      336.486       0.00000
      336.589       0.00000
      336.693       0.00000
      336.796       0.00000
      336.900       0.00000
      337.004       0.00000
      337.107       0.00000
      337.211       0.00000
      337.315       0.00000
      337.419       0.00000
      337.523       0.00000
      337.626       0.00000
      337.730       0.00000
      337.834       0.00000
      337.938       0.00000
      338.042       0.00000
      338.146       0.00000
      338.250       0.00000
      338.354       0.00000
      338.458       0.00000
      338.562       0.00000
      338.667       0.00000
      338.771       0.00000
      338.875       0.00000
      338.979       0.00000
      339.084       0.00000
      339.188       0.00000
      339.292       0.00000
      339.397       0.00000
      339.501       0.00000
      339.606       0.00000
      339.710       0.00000
      339.815       0.00000
      339.919       0.00000
      340.024       0.00000
      340.128       0.00000
      340.233       0.00000
      340.338       0.00000
      340.442       0.00000
      340.547       0.00000
      340.652       0.00000
      340.757       0.00000
      340.862       0.00000
      340.966       0.00000
      341.071       0.00000
      341.176       0.00000
      341.281       0.00000
      341.386       0.00000
      341.491       0.00000
      341.596       0.00000
      341.702       0.00000
      341.807       0.00000
      341.912       0.00000
      342.017       0.00000
      342.122       0.00000
      342.228       0.00000
      342.333       0.00000
      342.438       0.00000
      342.544       0.00000
      342.649       0.00000
      342.754       0.00000
      342.860       0.00000
      342.965       0.00000
      343.071       0.00000
      343.176       0.00000
      343.282       0.00000
      343.388       0.00000
      343.493       0.00000
      343.599       0.00000
      343.705       0.00000
      343.810       0.00000
      343.916       0.00000
      344.022       0.00000
      344.128       0.00000
      344.234       0.00000
      344.340       0.00000
      344.446       0.00000
      344.552       0.00000
      344.658       0.00000
      344.764       0.00000
      344.870       0.00000
      344.976       0.00000
      345.082       0.00000
      345.188       0.00000
      345.294       0.00000
      345.401       0.00000
      345.507       0.00000
      345.613       0.00000
      345.719       0.00000
      345.826       0.00000
      345.932       0.00000
      346.039       0.00000
      346.145       0.00000
      346.252       0.00000
      346.358       0.00000
      346.465       0.00000
      346.571       0.00000
      346.678       0.00000
      346.785       0.00000
      346.891       0.00000
      346.998       0.00000
      347.105       0.00000
      347.212       0.00000
      347.319       0.00000
      347.425       0.00000
      347.532       0.00000
      347.639       0.00000
      347.746       0.00000
      347.853       0.00000
      347.960       0.00000
      348.067       0.00000
      348.174       0.00000
      348.281       0.00000
      348.389       0.00000
      348.496       0.00000
      348.603       0.00000
      348.710       0.00000
      348.818       0.00000
      348.925       0.00000
      349.032       0.00000
      349.140       0.00000
      349.247       0.00000
      349.355       0.00000
      349.462       0.00000
      349.570       0.00000
      349.677       0.00000
      349.785       0.00000
      349.892       0.00000
      350.000       0.00000
      350.100       0.00000
      350.193       0.00000
      350.287       0.00000
      350.380       0.00000
      350.473       0.00000
      350.567       0.00000
      350.660       0.00000
      350.754       0.00000
      350.847       0.00000
      350.941       0.00000
      351.034       0.00000
      351.128       0.00000
      351.221       0.00000
      351.315       0.00000
      351.409       0.00000
      351.502       0.00000
      351.596       0.00000
      351.690       0.00000
      351.783       0.00000
      351.877       0.00000
      351.971       0.00000
      352.065       0.00000
      352.159       0.00000
      352.252       0.00000
      352.346       0.00000
      352.440       0.00000
      352.534       0.00000
      352.628       0.00000
      352.722       0.00000
      352.816       0.00000
      352.910       0.00000
      353.004       0.00000
      353.098       0.00000
      353.192       0.00000
      353.287       0.00000
      353.381       0.00000
      353.475       0.00000
      353.569       0.00000
      353.663       0.00000
      353.758       0.00000
      353.852       0.00000
      353.946       0.00000
      354.041       0.00000
      354.135       0.00000
      354.229       0.00000
      354.324       0.00000
      354.418       0.00000
      354.513       0.00000
      354.607       0.00000
      354.702       0.00000
      354.796       0.00000
      354.891       0.00000
      354.985       0.00000
      355.080       0.00000
      355.175       0.00000
      355.269       0.00000
      355.364       0.00000
      355.459       0.00000
      355.553       0.00000
      355.648       0.00000
      355.743       0.00000
      355.838       0.00000
      355.933       0.00000
      356.027       0.00000
      356.122       0.00000
      356.217       0.00000
      356.312       0.00000
      356.407       0.00000
      356.502       0.00000
      356.597       0.00000
      356.692       0.00000
      356.787       0.00000
      356.882       0.00000
      356.977       0.00000
      357.073       0.00000
      357.168       0.00000
      357.263       0.00000
      357.358       0.00000
      357.453       0.00000
      357.549       0.00000
      357.644       0.00000
      357.739       0.00000
      357.835       0.00000
      357.930       0.00000
      358.025       0.00000
      358.121       0.00000
      358.216       0.00000
      358.312       0.00000
      358.407       0.00000
      358.503       0.00000
      358.598       0.00000
      358.694       0.00000
      358.790       0.00000
      358.885       0.00000
      358.981       0.00000
      359.076       0.00000
      359.172       0.00000
      359.268       0.00000
      359.364       0.00000
      359.459       0.00000
      359.555       0.00000
      359.651       0.00000
      359.747       0.00000
      359.843       0.00000
      359.939       0.00000
      360.035       0.00000
      360.131       0.00000
      360.227       0.00000
      360.323       0.00000
      360.419       0.00000
      360.515       0.00000
      360.611       0.00000
      360.707       0.00000
      360.803       0.00000
      360.899       0.00000
      360.995       0.00000
      361.092       0.00000
      361.188       0.00000
      361.284       0.00000
      361.380       0.00000
      361.477       0.00000
      361.573       0.00000
      361.669       0.00000
      361.766       0.00000
      361.862       0.00000
      361.959       0.00000
      362.055       0.00000
      362.152       0.00000
      362.248       0.00000
      362.345       0.00000
      362.441       0.00000
      362.538       0.00000
      362.635       0.00000
      362.731       0.00000
      362.828       0.00000
      362.925       0.00000
      363.021       0.00000
      363.118       0.00000
      363.215       0.00000
      363.312       0.00000
      363.409       0.00000
      363.505       0.00000
      363.602       0.00000
      363.699       0.00000
      363.796       0.00000
      363.893       0.00000
      363.990       0.00000
      364.087       0.00000
      364.184       0.00000
      364.281       0.00000
      364.378       0.00000
      364.475       0.00000
      364.573       0.00000
      364.670       0.00000
      364.767       0.00000
      364.864       0.00000
      364.961       0.00000
      365.059       0.00000
      365.156       0.00000
      365.253       0.00000
      365.351       0.00000
      365.448       0.00000
      365.545       0.00000
      365.643       0.00000
      365.740       0.00000
      365.838       0.00000
      365.935       0.00000
      366.033       0.00000
      366.130       0.00000
      366.228       0.00000
      366.326       0.00000
      366.423       0.00000
      366.521       0.00000
      366.618       0.00000
      366.716       0.00000
      366.814       0.00000
      366.912       0.00000
      367.010       0.00000
      367.107       0.00000
      367.205       0.00000
      367.303       0.00000
      367.401       0.00000
      367.499       0.00000
      367.597       0.00000
      367.695       0.00000
      367.793       0.00000
      367.891       0.00000
      367.989       0.00000
      368.087       0.00000
      368.185       0.00000
      368.283       0.00000
      368.381       0.00000
      368.480       0.00000
      368.578       0.00000
      368.676       0.00000
      368.774       0.00000
      368.873       0.00000
      368.971       0.00000
      369.069       0.00000
      369.168       0.00000
      369.266       0.00000
      369.364       0.00000
      369.463       0.00000
      369.561       0.00000
      369.660       0.00000
      369.758       0.00000
      369.857       0.00000
      369.955       0.00000
      370.054       0.00000
      370.153       0.00000
      370.251       0.00000
      370.350       0.00000
      370.449       0.00000
      370.547       0.00000
      370.646       0.00000
      370.745       0.00000
      370.844       0.00000
      370.943       0.00000
      371.041       0.00000
      371.140       0.00000
      371.239       0.00000
      371.338       0.00000
      371.437       0.00000
      371.536       0.00000
      371.635       0.00000
      371.734       0.00000
      371.833       0.00000
      371.932       0.00000
      372.032       0.00000
      372.131       0.00000
      372.230       0.00000
      372.329       0.00000
      372.428       0.00000
      372.528       0.00000
      372.627       0.00000
      372.726       0.00000
      372.826       0.00000
      372.925       0.00000
      373.024       0.00000
      373.124       0.00000
      373.223       0.00000
      373.323       0.00000
      373.422       0.00000
      373.522       0.00000
      373.621       0.00000
      373.721       0.00000
      373.820       0.00000
      373.920       0.00000
      374.020       0.00000
      374.119       0.00000
      374.219       0.00000
      374.319       0.00000
      374.419       0.00000
      374.518       0.00000
      374.618       0.00000
      374.718       0.00000
      374.818       0.00000
      374.918       0.00000
      375.018       0.00000
      375.118       0.00000
      375.218       0.00000
      375.318       0.00000
      375.418       0.00000
      375.518       0.00000
      375.618       0.00000
      375.718       0.00000
      375.818       0.00000
      375.918       0.00000
      376.019       0.00000
      376.119       0.00000
      376.219       0.00000
      376.319       0.00000
      376.420       0.00000
      376.520       0.00000
      376.620       0.00000
      376.721       0.00000
      376.821       0.00000
      376.922       0.00000
      377.022       0.00000
      377.122       0.00000
      377.223       0.00000
      377.323       0.00000
      377.424       0.00000
      377.525       0.00000
      377.625       0.00000
      377.726       0.00000
      377.827       0.00000
      377.927       0.00000
      378.028       0.00000
      378.129       0.00000
      378.230       0.00000
      378.330       0.00000
      378.431       0.00000
      378.532       0.00000
      378.633       0.00000
      378.734       0.00000
      378.835       0.00000
      378.936       0.00000
      379.037       0.00000
      379.138       0.00000
      379.239       0.00000
      379.340       0.00000
      379.441       0.00000
      379.542       0.00000
      379.643       0.00000
      379.745       0.00000
      379.846       0.00000
      379.947       0.00000
      380.048       0.00000
      380.150       0.00000
      380.251       0.00000
      380.352       0.00000
      380.454       0.00000
      380.555       0.00000
      380.656       0.00000
      380.758       0.00000
      380.859       0.00000
      380.961       0.00000
      381.062       0.00000
      381.164       0.00000
      381.266       0.00000
      381.367       0.00000
      381.469       0.00000
      381.570       0.00000
      381.672       0.00000
      381.774       0.00000
      381.876       0.00000
      381.977       0.00000
      382.079       0.00000
      382.181       0.00000
      382.283       0.00000
      382.385       0.00000
      382.487       0.00000
      382.589       0.00000
      382.691       0.00000
      382.793       0.00000
      382.895       0.00000
      382.997       0.00000
      383.099       0.00000
      383.201       0.00000
      383.303       0.00000
      383.405       0.00000
      383.507       0.00000
      383.610       0.00000
      383.712       0.00000
      383.814       0.00000
      383.916       0.00000
      384.019       0.00000
      384.121       0.00000
      384.223       0.00000
      384.326       0.00000
      384.428       0.00000
      384.531       0.00000
      384.633       0.00000
      384.736       0.00000
      384.838       0.00000
      384.941       0.00000
      385.043       0.00000
      385.146       0.00000
      385.249       0.00000
      385.351       0.00000
      385.454       0.00000
      385.557       0.00000
      385.660       0.00000
      385.762       0.00000
      385.865       0.00000
      385.968       0.00000
      386.071       0.00000
      386.174       0.00000
      386.277       0.00000
      386.380       0.00000
      386.483       0.00000
      386.586       0.00000
      386.689       0.00000
      386.792       0.00000
      386.895       0.00000
      386.998       0.00000
      387.101       0.00000
      387.204       0.00000
      387.308       0.00000
      387.411       0.00000
      387.514       0.00000
      387.617       0.00000
      387.721       0.00000
      387.824       0.00000
      387.927       0.00000
      388.031       0.00000
      388.134       0.00000
      388.238       0.00000
      388.341       0.00000
      388.445       0.00000
      388.548       0.00000
      388.652       0.00000
      388.755       0.00000
      388.859       0.00000
      388.962       0.00000
      389.066       0.00000
      389.170       0.00000
      389.274       0.00000
      389.377       0.00000
      389.481       0.00000
      389.585       0.00000
      389.689       0.00000
      389.793       0.00000
      389.897       0.00000
      390.000       0.00000
      390.104       0.00000
      390.208       0.00000
      390.312       0.00000
      390.416       0.00000
      390.520       0.00000
      390.625       0.00000
      390.729       0.00000
      390.833       0.00000
      390.937       0.00000
      391.041       0.00000
      391.145       0.00000
      391.250       0.00000
      391.354       0.00000
      391.458       0.00000
      391.563       0.00000
      391.667       0.00000
      391.771       0.00000
      391.876       0.00000
      391.980       0.00000
      392.085       0.00000
      392.189       0.00000
      392.294       0.00000
      392.398       0.00000
      392.503       0.00000
      392.607       0.00000
      392.712       0.00000
      392.817       0.00000
      392.921       0.00000
      393.026       0.00000
      393.131       0.00000
      393.236       0.00000
      393.340       0.00000
      393.445       0.00000
      393.550       0.00000
      393.655       0.00000
      393.760       0.00000
      393.865       0.00000
      393.970       0.00000
      394.075       0.00000
      394.180       0.00000
      394.285       0.00000
      394.390       0.00000
      394.495       0.00000
      394.600       0.00000
      394.706       0.00000
      394.811       0.00000
      394.916       0.00000
      395.021       0.00000
      395.126       0.00000
      395.232       0.00000
      395.337       0.00000
      395.443       0.00000
      395.548       0.00000
      395.653       0.00000
      395.759       0.00000
      395.864       0.00000
      395.970       0.00000
      396.075       0.00000
      396.181       0.00000
      396.286       0.00000
      396.392       0.00000
      396.498       0.00000
      396.603       0.00000
      396.709       0.00000
      396.815       0.00000
      396.921       0.00000
      397.026       0.00000
      397.132       0.00000
      397.238       0.00000
      397.344       0.00000
      397.450       0.00000
      397.556       0.00000
      397.662       0.00000
      397.768       0.00000
      397.874       0.00000
      397.980       0.00000
      398.086       0.00000
      398.192       0.00000
      398.298       0.00000
      398.404       0.00000
      398.510       0.00000
      398.617       0.00000
      398.723       0.00000
      398.829       0.00000
      398.935       0.00000
      399.042       0.00000
      399.148       0.00000
      399.255       0.00000
      399.361       0.00000
      399.467       0.00000
      399.574       0.00000
      399.680       0.00000
      399.787       0.00000
      399.893       0.00000
      400.000       0.00000
