Filter: Al-poly/Be-thick
observation_date 22-Sept-2006 22:40:45
wavelength effective area 
      1.00000   2.73201e-10
      1.10000   7.76697e-10
      1.20000   2.00876e-09
      1.30000   4.77344e-09
      1.40000   1.07506e-08
      1.50000   2.27334e-08
      1.60000   4.55527e-08
      1.70000   8.73942e-08
      1.80000   1.60519e-07
      1.90000   2.84105e-07
      2.00000   4.85474e-07
      2.10000   8.04381e-07
      2.20000   1.29820e-06
      2.30000   2.03793e-06
      2.40000   3.11706e-06
      2.50000   4.63027e-06
      2.60000   6.84998e-06
      2.70000   9.87293e-06
      2.80000   1.39198e-05
      2.90000   1.93600e-05
      3.00000   2.64268e-05
      3.10000   3.55097e-05
      3.20000   4.70420e-05
      3.30000   6.14726e-05
      3.40000   7.92173e-05
      3.50000   0.000100740
      3.60000   0.000126983
      3.70000   0.000157815
      3.80000   0.000194465
      3.90000   0.000237299
      4.00000   0.000286576
      4.10000   0.000343006
      4.20000   0.000407814
      4.30000   0.000481338
      4.40000   0.000563975
      4.50000   0.000655937
      4.60000   0.000756933
      4.70000   0.000868873
      4.80000   0.000990862
      4.90000    0.00111090
      5.00000    0.00126968
      5.10000    0.00142510
      5.20000    0.00159288
      5.30000    0.00175815
      5.40000    0.00192388
      5.50000    0.00209701
      5.60000    0.00220381
      5.70000    0.00242602
      5.80000    0.00238643
      5.90000    0.00304346
      6.00000    0.00339722
      6.10000    0.00358148
      6.20000    0.00361511
      6.30000    0.00347834
      6.40000    0.00318920
      6.50000    0.00278918
      6.60000    0.00231338
      6.70000    0.00188870
      6.80000    0.00149518
      6.90000    0.00153811
      7.00000    0.00130321
      7.10000    0.00106523
      7.20000   0.000851636
      7.30000   0.000668549
      7.40000   0.000518440
      7.50000   0.000395965
      7.60000   0.000297536
      7.70000   0.000221504
      7.80000   0.000161560
      7.90000   0.000116691
      8.00000   0.000141168
      8.10000   0.000110536
      8.20000   8.02923e-05
      8.30000   5.72958e-05
      8.40000   4.07697e-05
      8.50000   2.84178e-05
      8.60000   1.98355e-05
      8.70000   1.35279e-05
      8.80000   9.26304e-06
      8.90000   6.21796e-06
      9.00000   4.14367e-06
      9.10000   2.74457e-06
      9.20000   1.77546e-06
      9.30000   1.15843e-06
      9.40000   7.42766e-07
      9.50000   4.64911e-07
      9.60000   2.94908e-07
      9.70000   1.83703e-07
      9.80000   1.11877e-07
      9.90000   6.80358e-08
      10.0000   4.13328e-08
      10.1000   2.46199e-08
      10.2000   1.43454e-08
      10.3000   8.34474e-09
      10.4000   4.86890e-09
      10.5000   2.79123e-09
      10.6000   1.57009e-09
      10.7000   8.65218e-10
      10.8000   4.72617e-10
      10.9000   2.61396e-10
      11.0000   1.42359e-10
      11.1000   7.63208e-11
      11.2000   4.02688e-11
      11.3000   2.09016e-11
      11.4000   1.06690e-11
      11.5000   5.35483e-12
      11.6000   2.64291e-12
      11.7000   1.32730e-12
      11.8000   6.57405e-13
      11.9000   3.21143e-13
      12.0000   1.54649e-13
      12.1000   7.34526e-14
      12.2000   3.51858e-14
      12.3000   1.64681e-14
      12.4000   7.54083e-15
      12.5000   3.40398e-15
      12.6000   1.51528e-15
      12.7000   6.65276e-16
      12.8000   2.87964e-16
      12.9000   1.22808e-16
      13.0000   5.15765e-17
      13.1000   2.13184e-17
      13.2000   8.67108e-18
      13.3000   3.49152e-18
      13.4000   1.38810e-18
      13.5000   5.41790e-19
      13.6000   2.23700e-19
      13.7000   9.05342e-20
      13.8000   3.58351e-20
      13.9000   1.38470e-20
      14.0000   5.21492e-21
      14.1000   1.91032e-21
      14.2000   6.78387e-22
      14.3000   2.33412e-22
      14.4000   7.79100e-23
      14.5000   2.72639e-23
      14.6000   1.02477e-23
      14.7000   3.60967e-24
      14.8000   1.20266e-24
      14.9000   3.81063e-25
      15.0000   1.15217e-25
      15.1000   3.33226e-26
      15.2000   1.20431e-26
      15.3000   4.01939e-27
      15.4000   1.21731e-27
      15.5000   3.42025e-28
      15.6000   9.01734e-29
      15.7000   2.79966e-29
      15.8000   9.21515e-30
      15.9000   2.58611e-30
      16.0000   6.53674e-31
      16.1000   1.52407e-31
      16.2000   5.07459e-32
      16.3000   1.46091e-32
      16.4000   3.53195e-33
      16.5000   7.62895e-34
      16.6000   2.16893e-34
      16.7000   6.31030e-35
      16.8000   1.42196e-35
      16.9000   2.78051e-36
      17.0000   7.84336e-37
      17.1000   2.10352e-37
      17.2000   4.27065e-38
      17.3000   7.58035e-39
      17.4000   2.51718e-39
      17.5000   5.67632e-40
      17.6000   9.97052e-41
      17.7000   2.28215e-41
      17.8000   6.70942e-42
      17.9000   1.33544e-42
      18.0000   2.29813e-43
      18.1000   7.28675e-44
      18.2000   2.52234e-44
      18.3000   2.80260e-45
      18.4000   2.80260e-45
      18.5000       0.00000
      18.6000       0.00000
      18.7000       0.00000
      18.8000       0.00000
      18.9000       0.00000
      19.0000       0.00000
      19.1000       0.00000
      19.2000       0.00000
      19.3000       0.00000
      19.4000       0.00000
      19.5000       0.00000
      19.6000       0.00000
      19.7000       0.00000
      19.8000       0.00000
      19.9000       0.00000
      20.0000       0.00000
      20.1000       0.00000
      20.2000       0.00000
      20.3000       0.00000
      20.4000       0.00000
      20.5000       0.00000
      20.6000       0.00000
      20.7000       0.00000
      20.8000       0.00000
      20.9000       0.00000
      21.0000       0.00000
      21.1000       0.00000
      21.2000       0.00000
      21.3000       0.00000
      21.4000       0.00000
      21.5000       0.00000
      21.6000       0.00000
      21.7000       0.00000
      21.8000       0.00000
      21.9000       0.00000
      22.0000       0.00000
      22.1000       0.00000
      22.2000       0.00000
      22.3000       0.00000
      22.4000       0.00000
      22.5000       0.00000
      22.6000       0.00000
      22.7000       0.00000
      22.8000       0.00000
      22.9000       0.00000
      23.0000       0.00000
      23.1000       0.00000
      23.2000       0.00000
      23.3000       0.00000
      23.4000       0.00000
      23.5000       0.00000
      23.6000       0.00000
      23.7000       0.00000
      23.8000       0.00000
      23.9000       0.00000
      24.0000       0.00000
      24.1000       0.00000
      24.2000       0.00000
      24.3000       0.00000
      24.4000       0.00000
      24.5000       0.00000
      24.6000       0.00000
      24.7000       0.00000
      24.8000       0.00000
      24.9000       0.00000
      25.0000       0.00000
      25.1000       0.00000
      25.2000       0.00000
      25.3000       0.00000
      25.4000       0.00000
      25.5000       0.00000
      25.6000       0.00000
      25.7000       0.00000
      25.8000       0.00000
      25.9000       0.00000
      26.0000       0.00000
      26.1000       0.00000
      26.2000       0.00000
      26.3000       0.00000
      26.4000       0.00000
      26.5000       0.00000
      26.6000       0.00000
      26.7000       0.00000
      26.8000       0.00000
      26.9000       0.00000
      27.0000       0.00000
      27.1000       0.00000
      27.2000       0.00000
      27.3000       0.00000
      27.4000       0.00000
      27.5000       0.00000
      27.6000       0.00000
      27.7000       0.00000
      27.8000       0.00000
      27.9000       0.00000
      28.0000       0.00000
      28.1000       0.00000
      28.2000       0.00000
      28.3000       0.00000
      28.4000       0.00000
      28.5000       0.00000
      28.6000       0.00000
      28.7000       0.00000
      28.8000       0.00000
      28.9000       0.00000
      29.0000       0.00000
      29.1000       0.00000
      29.2000       0.00000
      29.3000       0.00000
      29.4000       0.00000
      29.5000       0.00000
      29.6000       0.00000
      29.7000       0.00000
      29.8000       0.00000
      29.9000       0.00000
      30.0000       0.00000
      30.1000       0.00000
      30.2000       0.00000
      30.3000       0.00000
      30.4000       0.00000
      30.5000       0.00000
      30.6000       0.00000
      30.7000       0.00000
      30.8000       0.00000
      30.9000       0.00000
      31.0000       0.00000
      31.1000       0.00000
      31.2000       0.00000
      31.3000       0.00000
      31.4000       0.00000
      31.5000       0.00000
      31.6000       0.00000
      31.7000       0.00000
      31.8000       0.00000
      31.9000       0.00000
      32.0000       0.00000
      32.1000       0.00000
      32.2000       0.00000
      32.3000       0.00000
      32.4000       0.00000
      32.5000       0.00000
      32.6000       0.00000
      32.7000       0.00000
      32.8000       0.00000
      32.9000       0.00000
      33.0000       0.00000
      33.1000       0.00000
      33.2000       0.00000
      33.3000       0.00000
      33.4000       0.00000
      33.5000       0.00000
      33.6000       0.00000
      33.7000       0.00000
      33.8000       0.00000
      33.9000       0.00000
      34.0000       0.00000
      34.1000       0.00000
      34.2000       0.00000
      34.3000       0.00000
      34.4000       0.00000
      34.5000       0.00000
      34.6000       0.00000
      34.7000       0.00000
      34.8000       0.00000
      34.9000       0.00000
      35.0000       0.00000
      35.1000       0.00000
      35.2000       0.00000
      35.3000       0.00000
      35.4000       0.00000
      35.5000       0.00000
      35.6000       0.00000
      35.7000       0.00000
      35.8000       0.00000
      35.9000       0.00000
      36.0000       0.00000
      36.1000       0.00000
      36.2000       0.00000
      36.3000       0.00000
      36.4000       0.00000
      36.5000       0.00000
      36.6000       0.00000
      36.7000       0.00000
      36.8000       0.00000
      36.9000       0.00000
      37.0000       0.00000
      37.1000       0.00000
      37.2000       0.00000
      37.3000       0.00000
      37.4000       0.00000
      37.5000       0.00000
      37.6000       0.00000
      37.7000       0.00000
      37.8000       0.00000
      37.9000       0.00000
      38.0000       0.00000
      38.1000       0.00000
      38.2000       0.00000
      38.3000       0.00000
      38.4000       0.00000
      38.5000       0.00000
      38.6000       0.00000
      38.7000       0.00000
      38.8000       0.00000
      38.9000       0.00000
      39.0000       0.00000
      39.1000       0.00000
      39.2000       0.00000
      39.3000       0.00000
      39.4000       0.00000
      39.5000       0.00000
      39.6000       0.00000
      39.7000       0.00000
      39.8000       0.00000
      39.9000       0.00000
      40.0000       0.00000
      40.1000       0.00000
      40.2000       0.00000
      40.3000       0.00000
      40.4000       0.00000
      40.5000       0.00000
      40.6000       0.00000
      40.7000       0.00000
      40.8000       0.00000
      40.9000       0.00000
      41.0000       0.00000
      41.1000       0.00000
      41.2000       0.00000
      41.3000       0.00000
      41.4000       0.00000
      41.5000       0.00000
      41.6000       0.00000
      41.7000       0.00000
      41.8000       0.00000
      41.9000       0.00000
      42.0000       0.00000
      42.1000       0.00000
      42.2000       0.00000
      42.3000       0.00000
      42.4000       0.00000
      42.5000       0.00000
      42.6000       0.00000
      42.7000       0.00000
      42.8000       0.00000
      42.9000       0.00000
      43.0000       0.00000
      43.1000       0.00000
      43.2000       0.00000
      43.3000       0.00000
      43.4000       0.00000
      43.5000       0.00000
      43.6000       0.00000
      43.7000       0.00000
      43.8000       0.00000
      43.9000       0.00000
      44.0000       0.00000
      44.1000       0.00000
      44.2000       0.00000
      44.3000       0.00000
      44.4000       0.00000
      44.5000       0.00000
      44.6000       0.00000
      44.7000       0.00000
      44.8000       0.00000
      44.9000       0.00000
      45.0000       0.00000
      45.1000       0.00000
      45.2000       0.00000
      45.3000       0.00000
      45.4000       0.00000
      45.5000       0.00000
      45.6000       0.00000
      45.7000       0.00000
      45.8000       0.00000
      45.9000       0.00000
      46.0000       0.00000
      46.1000       0.00000
      46.2000       0.00000
      46.3000       0.00000
      46.4000       0.00000
      46.5000       0.00000
      46.6000       0.00000
      46.7000       0.00000
      46.8000       0.00000
      46.9000       0.00000
      47.0000       0.00000
      47.1000       0.00000
      47.2000       0.00000
      47.3000       0.00000
      47.4000       0.00000
      47.5000       0.00000
      47.6000       0.00000
      47.7000       0.00000
      47.8000       0.00000
      47.9000       0.00000
      48.0000       0.00000
      48.1000       0.00000
      48.2000       0.00000
      48.3000       0.00000
      48.4000       0.00000
      48.5000       0.00000
      48.6000       0.00000
      48.7000       0.00000
      48.8000       0.00000
      48.9000       0.00000
      49.0000       0.00000
      49.1000       0.00000
      49.2000       0.00000
      49.3000       0.00000
      49.4000       0.00000
      49.5000       0.00000
      49.6000       0.00000
      49.7000       0.00000
      49.8000       0.00000
      49.9000       0.00000
      50.0000       0.00000
      50.1000       0.00000
      50.2000       0.00000
      50.3000       0.00000
      50.4000       0.00000
      50.5000       0.00000
      50.6000       0.00000
      50.7000       0.00000
      50.8000       0.00000
      50.9000       0.00000
      51.0000       0.00000
      51.1000       0.00000
      51.2000       0.00000
      51.3000       0.00000
      51.4000       0.00000
      51.5000       0.00000
      51.6000       0.00000
      51.7000       0.00000
      51.8000       0.00000
      51.9000       0.00000
      52.0000       0.00000
      52.1000       0.00000
      52.2000       0.00000
      52.3000       0.00000
      52.4000       0.00000
      52.5000       0.00000
      52.6000       0.00000
      52.7000       0.00000
      52.8000       0.00000
      52.9000       0.00000
      53.0000       0.00000
      53.1000       0.00000
      53.2000       0.00000
      53.3000       0.00000
      53.4000       0.00000
      53.5000       0.00000
      53.6000       0.00000
      53.7000       0.00000
      53.8000       0.00000
      53.9000       0.00000
      54.0000       0.00000
      54.1000       0.00000
      54.2000       0.00000
      54.3000       0.00000
      54.4000       0.00000
      54.5000       0.00000
      54.6000       0.00000
      54.7000       0.00000
      54.8000       0.00000
      54.9000       0.00000
      55.0000       0.00000
      55.1000       0.00000
      55.2000       0.00000
      55.3000       0.00000
      55.4000       0.00000
      55.5000       0.00000
      55.6000       0.00000
      55.7000       0.00000
      55.8000       0.00000
      55.9000       0.00000
      56.0000       0.00000
      56.1000       0.00000
      56.2000       0.00000
      56.3000       0.00000
      56.4000       0.00000
      56.5000       0.00000
      56.6000       0.00000
      56.7000       0.00000
      56.8000       0.00000
      56.9000       0.00000
      57.0000       0.00000
      57.1000       0.00000
      57.2000       0.00000
      57.3000       0.00000
      57.4000       0.00000
      57.5000       0.00000
      57.6000       0.00000
      57.7000       0.00000
      57.8000       0.00000
      57.9000       0.00000
      58.0000       0.00000
      58.1000       0.00000
      58.2000       0.00000
      58.3000       0.00000
      58.4000       0.00000
      58.5000       0.00000
      58.6000       0.00000
      58.7000       0.00000
      58.8000       0.00000
      58.9000       0.00000
      59.0000       0.00000
      59.1000       0.00000
      59.2000       0.00000
      59.3000       0.00000
      59.4000       0.00000
      59.5000       0.00000
      59.6000       0.00000
      59.7000       0.00000
      59.8000       0.00000
      59.9000       0.00000
      60.0000       0.00000
      60.1000       0.00000
      60.2000       0.00000
      60.3000       0.00000
      60.4000       0.00000
      60.5000       0.00000
      60.6000       0.00000
      60.7000       0.00000
      60.8000       0.00000
      60.9000       0.00000
      61.0000       0.00000
      61.1000       0.00000
      61.2000       0.00000
      61.3000       0.00000
      61.4000       0.00000
      61.5000       0.00000
      61.6000       0.00000
      61.7000       0.00000
      61.8000       0.00000
      61.9000       0.00000
      62.0000       0.00000
      62.1000       0.00000
      62.2000       0.00000
      62.3000       0.00000
      62.4000       0.00000
      62.5000       0.00000
      62.6000       0.00000
      62.7000       0.00000
      62.8000       0.00000
      62.9000       0.00000
      63.0000       0.00000
      63.1000       0.00000
      63.2000       0.00000
      63.3000       0.00000
      63.4000       0.00000
      63.5000       0.00000
      63.6000       0.00000
      63.7000       0.00000
      63.8000       0.00000
      63.9000       0.00000
      64.0000       0.00000
      64.1000       0.00000
      64.2000       0.00000
      64.3000       0.00000
      64.4000       0.00000
      64.5000       0.00000
      64.6000       0.00000
      64.7000       0.00000
      64.8000       0.00000
      64.9000       0.00000
      65.0000       0.00000
      65.1000       0.00000
      65.2000       0.00000
      65.3000       0.00000
      65.4000       0.00000
      65.5000       0.00000
      65.6000       0.00000
      65.7000       0.00000
      65.8000       0.00000
      65.9000       0.00000
      66.0000       0.00000
      66.1000       0.00000
      66.2000       0.00000
      66.3000       0.00000
      66.4000       0.00000
      66.5000       0.00000
      66.6000       0.00000
      66.7000       0.00000
      66.8000       0.00000
      66.9000       0.00000
      67.0000       0.00000
      67.1000       0.00000
      67.2000       0.00000
      67.3000       0.00000
      67.4000       0.00000
      67.5000       0.00000
      67.6000       0.00000
      67.7000       0.00000
      67.8000       0.00000
      67.9000       0.00000
      68.0000       0.00000
      68.1000       0.00000
      68.2000       0.00000
      68.3000       0.00000
      68.4000       0.00000
      68.5000       0.00000
      68.6000       0.00000
      68.7000       0.00000
      68.8000       0.00000
      68.9000       0.00000
      69.0000       0.00000
      69.1000       0.00000
      69.2000       0.00000
      69.3000       0.00000
      69.4000       0.00000
      69.5000       0.00000
      69.6000       0.00000
      69.7000       0.00000
      69.8000       0.00000
      69.9000       0.00000
      70.0000       0.00000
      70.1000       0.00000
      70.2000       0.00000
      70.3000       0.00000
      70.4000       0.00000
      70.5000       0.00000
      70.6000       0.00000
      70.7000       0.00000
      70.8000       0.00000
      70.9000       0.00000
      71.0000       0.00000
      71.1000       0.00000
      71.2000       0.00000
      71.3000       0.00000
      71.4000       0.00000
      71.5000       0.00000
      71.6000       0.00000
      71.7000       0.00000
      71.8000       0.00000
      71.9000       0.00000
      72.0000       0.00000
      72.1000       0.00000
      72.2000       0.00000
      72.3000       0.00000
      72.4000       0.00000
      72.5000       0.00000
      72.6000       0.00000
      72.7000       0.00000
      72.8000       0.00000
      72.9000       0.00000
      73.0000       0.00000
      73.1000       0.00000
      73.2000       0.00000
      73.3000       0.00000
      73.4000       0.00000
      73.5000       0.00000
      73.6000       0.00000
      73.7000       0.00000
      73.8000       0.00000
      73.9000       0.00000
      74.0000       0.00000
      74.1000       0.00000
      74.2000       0.00000
      74.3000       0.00000
      74.4000       0.00000
      74.5000       0.00000
      74.6000       0.00000
      74.7000       0.00000
      74.8000       0.00000
      74.9000       0.00000
      75.0000       0.00000
      75.1000       0.00000
      75.2000       0.00000
      75.3000       0.00000
      75.4000       0.00000
      75.5000       0.00000
      75.6000       0.00000
      75.7000       0.00000
      75.8000       0.00000
      75.9000       0.00000
      76.0000       0.00000
      76.1000       0.00000
      76.2000       0.00000
      76.3000       0.00000
      76.4000       0.00000
      76.5000       0.00000
      76.6000       0.00000
      76.7000       0.00000
      76.8000       0.00000
      76.9000       0.00000
      77.0000       0.00000
      77.1000       0.00000
      77.2000       0.00000
      77.3000       0.00000
      77.4000       0.00000
      77.5000       0.00000
      77.6000       0.00000
      77.7000       0.00000
      77.8000       0.00000
      77.9000       0.00000
      78.0000       0.00000
      78.1000       0.00000
      78.2000       0.00000
      78.3000       0.00000
      78.4000       0.00000
      78.5000       0.00000
      78.6000       0.00000
      78.7000       0.00000
      78.8000       0.00000
      78.9000       0.00000
      79.0000       0.00000
      79.1000       0.00000
      79.2000       0.00000
      79.3000       0.00000
      79.4000       0.00000
      79.5000       0.00000
      79.6000       0.00000
      79.7000       0.00000
      79.8000       0.00000
      79.9000       0.00000
      80.0000       0.00000
      80.1000       0.00000
      80.2000       0.00000
      80.3000       0.00000
      80.4000       0.00000
      80.5000       0.00000
      80.6000       0.00000
      80.7000       0.00000
      80.8000       0.00000
      80.9000       0.00000
      81.0000       0.00000
      81.1000       0.00000
      81.2000       0.00000
      81.3000       0.00000
      81.4000       0.00000
      81.5000       0.00000
      81.6000       0.00000
      81.7000       0.00000
      81.8000       0.00000
      81.9000       0.00000
      82.0000       0.00000
      82.1000       0.00000
      82.2000       0.00000
      82.3000       0.00000
      82.4000       0.00000
      82.5000       0.00000
      82.6000       0.00000
      82.7000       0.00000
      82.8000       0.00000
      82.9000       0.00000
      83.0000       0.00000
      83.1000       0.00000
      83.2000       0.00000
      83.3000       0.00000
      83.4000       0.00000
      83.5000       0.00000
      83.6000       0.00000
      83.7000       0.00000
      83.8000       0.00000
      83.9000       0.00000
      84.0000       0.00000
      84.1000       0.00000
      84.2000       0.00000
      84.3000       0.00000
      84.4000       0.00000
      84.5000       0.00000
      84.6000       0.00000
      84.7000       0.00000
      84.8000       0.00000
      84.9000       0.00000
      85.0000       0.00000
      85.1000       0.00000
      85.2000       0.00000
      85.3000       0.00000
      85.4000       0.00000
      85.5000       0.00000
      85.6000       0.00000
      85.7000       0.00000
      85.8000       0.00000
      85.9000       0.00000
      86.0000       0.00000
      86.1000       0.00000
      86.2000       0.00000
      86.3000       0.00000
      86.4000       0.00000
      86.5000       0.00000
      86.6000       0.00000
      86.7000       0.00000
      86.8000       0.00000
      86.9000       0.00000
      87.0000       0.00000
      87.1000       0.00000
      87.2000       0.00000
      87.3000       0.00000
      87.4000       0.00000
      87.5000       0.00000
      87.6000       0.00000
      87.7000       0.00000
      87.8000       0.00000
      87.9000       0.00000
      88.0000       0.00000
      88.1000       0.00000
      88.2000       0.00000
      88.3000       0.00000
      88.4000       0.00000
      88.5000       0.00000
      88.6000       0.00000
      88.7000       0.00000
      88.8000       0.00000
      88.9000       0.00000
      89.0000       0.00000
      89.1000       0.00000
      89.2000       0.00000
      89.3000       0.00000
      89.4000       0.00000
      89.5000       0.00000
      89.6000       0.00000
      89.7000       0.00000
      89.8000       0.00000
      89.9000       0.00000
      90.0000       0.00000
      90.1000       0.00000
      90.2000       0.00000
      90.3000       0.00000
      90.4000       0.00000
      90.5000       0.00000
      90.6000       0.00000
      90.7000       0.00000
      90.8000       0.00000
      90.9000       0.00000
      91.0000       0.00000
      91.1000       0.00000
      91.2000       0.00000
      91.3000       0.00000
      91.4000       0.00000
      91.5000       0.00000
      91.6000       0.00000
      91.7000       0.00000
      91.8000       0.00000
      91.9000       0.00000
      92.0000       0.00000
      92.1000       0.00000
      92.2000       0.00000
      92.3000       0.00000
      92.4000       0.00000
      92.5000       0.00000
      92.6000       0.00000
      92.7000       0.00000
      92.8000       0.00000
      92.9000       0.00000
      93.0000       0.00000
      93.1000       0.00000
      93.2000       0.00000
      93.3000       0.00000
      93.4000       0.00000
      93.5000       0.00000
      93.6000       0.00000
      93.7000       0.00000
      93.8000       0.00000
      93.9000       0.00000
      94.0000       0.00000
      94.1000       0.00000
      94.2000       0.00000
      94.3000       0.00000
      94.4000       0.00000
      94.5000       0.00000
      94.6000       0.00000
      94.7000       0.00000
      94.8000       0.00000
      94.9000       0.00000
      95.0000       0.00000
      95.1000       0.00000
      95.2000       0.00000
      95.3000       0.00000
      95.4000       0.00000
      95.5000       0.00000
      95.6000       0.00000
      95.7000       0.00000
      95.8000       0.00000
      95.9000       0.00000
      96.0000       0.00000
      96.1000       0.00000
      96.2000       0.00000
      96.3000       0.00000
      96.4000       0.00000
      96.5000       0.00000
      96.6000       0.00000
      96.7000       0.00000
      96.8000       0.00000
      96.9000       0.00000
      97.0000       0.00000
      97.1000       0.00000
      97.2000       0.00000
      97.3000       0.00000
      97.4000       0.00000
      97.5000       0.00000
      97.6000       0.00000
      97.7000       0.00000
      97.8000       0.00000
      97.9000       0.00000
      98.0000       0.00000
      98.1000       0.00000
      98.2000       0.00000
      98.3000       0.00000
      98.4000       0.00000
      98.5000       0.00000
      98.6000       0.00000
      98.7000       0.00000
      98.8000       0.00000
      98.9000       0.00000
      99.0000       0.00000
      99.1000       0.00000
      99.2000       0.00000
      99.3000       0.00000
      99.4000       0.00000
      99.5000       0.00000
      99.6000       0.00000
      99.7000       0.00000
      99.8000       0.00000
      99.9000       0.00000
      100.000       0.00000
      100.100       0.00000
      100.200       0.00000
      100.300       0.00000
      100.400       0.00000
      100.500       0.00000
      100.600       0.00000
      100.700       0.00000
      100.800       0.00000
      100.900       0.00000
      101.000       0.00000
      101.100       0.00000
      101.200       0.00000
      101.300       0.00000
      101.400       0.00000
      101.500       0.00000
      101.600       0.00000
      101.700       0.00000
      101.800       0.00000
      101.900       0.00000
      102.000       0.00000
      102.100       0.00000
      102.200       0.00000
      102.300       0.00000
      102.400       0.00000
      102.500       0.00000
      102.600       0.00000
      102.700       0.00000
      102.800       0.00000
      102.900       0.00000
      103.000       0.00000
      103.100       0.00000
      103.200       0.00000
      103.300       0.00000
      103.400       0.00000
      103.500       0.00000
      103.600       0.00000
      103.700       0.00000
      103.800       0.00000
      103.900       0.00000
      104.000       0.00000
      104.100       0.00000
      104.200       0.00000
      104.300       0.00000
      104.400       0.00000
      104.500       0.00000
      104.600       0.00000
      104.700       0.00000
      104.800       0.00000
      104.900       0.00000
      105.000       0.00000
      105.100       0.00000
      105.200       0.00000
      105.300       0.00000
      105.400       0.00000
      105.500       0.00000
      105.600       0.00000
      105.700       0.00000
      105.800       0.00000
      105.900       0.00000
      106.000       0.00000
      106.100       0.00000
      106.200       0.00000
      106.300       0.00000
      106.400       0.00000
      106.500       0.00000
      106.600       0.00000
      106.700       0.00000
      106.800       0.00000
      106.900       0.00000
      107.000       0.00000
      107.100       0.00000
      107.200       0.00000
      107.300       0.00000
      107.400       0.00000
      107.500       0.00000
      107.600       0.00000
      107.700       0.00000
      107.800       0.00000
      107.900       0.00000
      108.000       0.00000
      108.100       0.00000
      108.200       0.00000
      108.300       0.00000
      108.400       0.00000
      108.500       0.00000
      108.600       0.00000
      108.700       0.00000
      108.800       0.00000
      108.900       0.00000
      109.000       0.00000
      109.100       0.00000
      109.200       0.00000
      109.300       0.00000
      109.400       0.00000
      109.500       0.00000
      109.600       0.00000
      109.700       0.00000
      109.800       0.00000
      109.900       0.00000
      110.000       0.00000
      110.100       0.00000
      110.200       0.00000
      110.300       0.00000
      110.400       0.00000
      110.500       0.00000
      110.600       0.00000
      110.700       0.00000
      110.800       0.00000
      110.900       0.00000
      111.000       0.00000
      111.100       0.00000
      111.200       0.00000
      111.300       0.00000
      111.400       0.00000
      111.500       0.00000
      111.600       0.00000
      111.700       0.00000
      111.800       0.00000
      111.900       0.00000
      112.000       0.00000
      112.100       0.00000
      112.200       0.00000
      112.300       0.00000
      112.400       0.00000
      112.500       0.00000
      112.600       0.00000
      112.700       0.00000
      112.800       0.00000
      112.900       0.00000
      113.000       0.00000
      113.100       0.00000
      113.200       0.00000
      113.300       0.00000
      113.400       0.00000
      113.500       0.00000
      113.600       0.00000
      113.700       0.00000
      113.800       0.00000
      113.900       0.00000
      114.000       0.00000
      114.100       0.00000
      114.200       0.00000
      114.300       0.00000
      114.400       0.00000
      114.500       0.00000
      114.600       0.00000
      114.700       0.00000
      114.800       0.00000
      114.900       0.00000
      115.000       0.00000
      115.100       0.00000
      115.200       0.00000
      115.300       0.00000
      115.400       0.00000
      115.500       0.00000
      115.600       0.00000
      115.700       0.00000
      115.800       0.00000
      115.900       0.00000
      116.000       0.00000
      116.100       0.00000
      116.200       0.00000
      116.300       0.00000
      116.400       0.00000
      116.500       0.00000
      116.600       0.00000
      116.700       0.00000
      116.800       0.00000
      116.900       0.00000
      117.000       0.00000
      117.100       0.00000
      117.200       0.00000
      117.300       0.00000
      117.400       0.00000
      117.500       0.00000
      117.600       0.00000
      117.700       0.00000
      117.800       0.00000
      117.900       0.00000
      118.000       0.00000
      118.100       0.00000
      118.200       0.00000
      118.300       0.00000
      118.400       0.00000
      118.500       0.00000
      118.600       0.00000
      118.700       0.00000
      118.800       0.00000
      118.900       0.00000
      119.000       0.00000
      119.100       0.00000
      119.200       0.00000
      119.300       0.00000
      119.400       0.00000
      119.500       0.00000
      119.600       0.00000
      119.700       0.00000
      119.800       0.00000
      119.900       0.00000
      120.000       0.00000
      120.100       0.00000
      120.200       0.00000
      120.300       0.00000
      120.400       0.00000
      120.500       0.00000
      120.600       0.00000
      120.700       0.00000
      120.800       0.00000
      120.900       0.00000
      121.000       0.00000
      121.100       0.00000
      121.200       0.00000
      121.300       0.00000
      121.400       0.00000
      121.500       0.00000
      121.600       0.00000
      121.700       0.00000
      121.800       0.00000
      121.900       0.00000
      122.000       0.00000
      122.100       0.00000
      122.200       0.00000
      122.300       0.00000
      122.400       0.00000
      122.500       0.00000
      122.600       0.00000
      122.700       0.00000
      122.800       0.00000
      122.900       0.00000
      123.000       0.00000
      123.100       0.00000
      123.200       0.00000
      123.300       0.00000
      123.400       0.00000
      123.500       0.00000
      123.600       0.00000
      123.700       0.00000
      123.800       0.00000
      123.900       0.00000
      124.000       0.00000
      124.100       0.00000
      124.200       0.00000
      124.300       0.00000
      124.400       0.00000
      124.500       0.00000
      124.600       0.00000
      124.700       0.00000
      124.800       0.00000
      124.900       0.00000
      125.000       0.00000
      125.100       0.00000
      125.200       0.00000
      125.300       0.00000
      125.400       0.00000
      125.500       0.00000
      125.600       0.00000
      125.700       0.00000
      125.800       0.00000
      125.900       0.00000
      126.000       0.00000
      126.100       0.00000
      126.200       0.00000
      126.300       0.00000
      126.400       0.00000
      126.500       0.00000
      126.600       0.00000
      126.700       0.00000
      126.800       0.00000
      126.900       0.00000
      127.000       0.00000
      127.100       0.00000
      127.200       0.00000
      127.300       0.00000
      127.400       0.00000
      127.500       0.00000
      127.600       0.00000
      127.700       0.00000
      127.800       0.00000
      127.900       0.00000
      128.000       0.00000
      128.100       0.00000
      128.200       0.00000
      128.300       0.00000
      128.400       0.00000
      128.500       0.00000
      128.600       0.00000
      128.700       0.00000
      128.800       0.00000
      128.900       0.00000
      129.000       0.00000
      129.100       0.00000
      129.200       0.00000
      129.300       0.00000
      129.400       0.00000
      129.500       0.00000
      129.600       0.00000
      129.700       0.00000
      129.800       0.00000
      129.900       0.00000
      130.000       0.00000
      130.100       0.00000
      130.200       0.00000
      130.300       0.00000
      130.400       0.00000
      130.500       0.00000
      130.600       0.00000
      130.700       0.00000
      130.800       0.00000
      130.900       0.00000
      131.000       0.00000
      131.100       0.00000
      131.200       0.00000
      131.300       0.00000
      131.400       0.00000
      131.500       0.00000
      131.600       0.00000
      131.700       0.00000
      131.800       0.00000
      131.900       0.00000
      132.000       0.00000
      132.100       0.00000
      132.200       0.00000
      132.300       0.00000
      132.400       0.00000
      132.500       0.00000
      132.600       0.00000
      132.700       0.00000
      132.800       0.00000
      132.900       0.00000
      133.000       0.00000
      133.100       0.00000
      133.200       0.00000
      133.300       0.00000
      133.400       0.00000
      133.500       0.00000
      133.600       0.00000
      133.700       0.00000
      133.800       0.00000
      133.900       0.00000
      134.000       0.00000
      134.100       0.00000
      134.200       0.00000
      134.300       0.00000
      134.400       0.00000
      134.500       0.00000
      134.600       0.00000
      134.700       0.00000
      134.800       0.00000
      134.900       0.00000
      135.000       0.00000
      135.100       0.00000
      135.200       0.00000
      135.300       0.00000
      135.400       0.00000
      135.500       0.00000
      135.600       0.00000
      135.700       0.00000
      135.800       0.00000
      135.900       0.00000
      136.000       0.00000
      136.100       0.00000
      136.200       0.00000
      136.300       0.00000
      136.400       0.00000
      136.500       0.00000
      136.600       0.00000
      136.700       0.00000
      136.800       0.00000
      136.900       0.00000
      137.000       0.00000
      137.100       0.00000
      137.200       0.00000
      137.300       0.00000
      137.400       0.00000
      137.500       0.00000
      137.600       0.00000
      137.700       0.00000
      137.800       0.00000
      137.900       0.00000
      138.000       0.00000
      138.100       0.00000
      138.200       0.00000
      138.300       0.00000
      138.400       0.00000
      138.500       0.00000
      138.600       0.00000
      138.700       0.00000
      138.800       0.00000
      138.900       0.00000
      139.000       0.00000
      139.100       0.00000
      139.200       0.00000
      139.300       0.00000
      139.400       0.00000
      139.500       0.00000
      139.600       0.00000
      139.700       0.00000
      139.800       0.00000
      139.900       0.00000
      140.000       0.00000
      140.100       0.00000
      140.200       0.00000
      140.300       0.00000
      140.400       0.00000
      140.500       0.00000
      140.600       0.00000
      140.700       0.00000
      140.800       0.00000
      140.900       0.00000
      141.000       0.00000
      141.100       0.00000
      141.200       0.00000
      141.300       0.00000
      141.400       0.00000
      141.500       0.00000
      141.600       0.00000
      141.700       0.00000
      141.800       0.00000
      141.900       0.00000
      142.000       0.00000
      142.100       0.00000
      142.200       0.00000
      142.300       0.00000
      142.400       0.00000
      142.500       0.00000
      142.600       0.00000
      142.700       0.00000
      142.800       0.00000
      142.900       0.00000
      143.000       0.00000
      143.100       0.00000
      143.200       0.00000
      143.300       0.00000
      143.400       0.00000
      143.500       0.00000
      143.600       0.00000
      143.700       0.00000
      143.800       0.00000
      143.900       0.00000
      144.000       0.00000
      144.100       0.00000
      144.200       0.00000
      144.300       0.00000
      144.400       0.00000
      144.500       0.00000
      144.600       0.00000
      144.700       0.00000
      144.800       0.00000
      144.900       0.00000
      145.000       0.00000
      145.100       0.00000
      145.200       0.00000
      145.300       0.00000
      145.400       0.00000
      145.500       0.00000
      145.600       0.00000
      145.700       0.00000
      145.800       0.00000
      145.900       0.00000
      146.000       0.00000
      146.100       0.00000
      146.200       0.00000
      146.300       0.00000
      146.400       0.00000
      146.500       0.00000
      146.600       0.00000
      146.700       0.00000
      146.800       0.00000
      146.900       0.00000
      147.000       0.00000
      147.100       0.00000
      147.200       0.00000
      147.300       0.00000
      147.400       0.00000
      147.500       0.00000
      147.600       0.00000
      147.700       0.00000
      147.800       0.00000
      147.900       0.00000
      148.000       0.00000
      148.100       0.00000
      148.200       0.00000
      148.300       0.00000
      148.400       0.00000
      148.500       0.00000
      148.600       0.00000
      148.700       0.00000
      148.800       0.00000
      148.900       0.00000
      149.000       0.00000
      149.100       0.00000
      149.200       0.00000
      149.300       0.00000
      149.400       0.00000
      149.500       0.00000
      149.600       0.00000
      149.700       0.00000
      149.800       0.00000
      149.900       0.00000
      150.000       0.00000
      150.100       0.00000
      150.200       0.00000
      150.300       0.00000
      150.400       0.00000
      150.500       0.00000
      150.600       0.00000
      150.700       0.00000
      150.800       0.00000
      150.900       0.00000
      151.000       0.00000
      151.100       0.00000
      151.200       0.00000
      151.300       0.00000
      151.400       0.00000
      151.500       0.00000
      151.600       0.00000
      151.700       0.00000
      151.800       0.00000
      151.900       0.00000
      152.000       0.00000
      152.100       0.00000
      152.200       0.00000
      152.300       0.00000
      152.400       0.00000
      152.500       0.00000
      152.600       0.00000
      152.700       0.00000
      152.800       0.00000
      152.900       0.00000
      153.000       0.00000
      153.100       0.00000
      153.200       0.00000
      153.300       0.00000
      153.400       0.00000
      153.500       0.00000
      153.600       0.00000
      153.700       0.00000
      153.800       0.00000
      153.900       0.00000
      154.000       0.00000
      154.100       0.00000
      154.200       0.00000
      154.300       0.00000
      154.400       0.00000
      154.500       0.00000
      154.600       0.00000
      154.700       0.00000
      154.800       0.00000
      154.900       0.00000
      155.000       0.00000
      155.100       0.00000
      155.200       0.00000
      155.300       0.00000
      155.400       0.00000
      155.500       0.00000
      155.600       0.00000
      155.700       0.00000
      155.800       0.00000
      155.900       0.00000
      156.000       0.00000
      156.100       0.00000
      156.200       0.00000
      156.300       0.00000
      156.400       0.00000
      156.500       0.00000
      156.600       0.00000
      156.700       0.00000
      156.800       0.00000
      156.900       0.00000
      157.000       0.00000
      157.100       0.00000
      157.200       0.00000
      157.300       0.00000
      157.400       0.00000
      157.500       0.00000
      157.600       0.00000
      157.700       0.00000
      157.800       0.00000
      157.900       0.00000
      158.000       0.00000
      158.100       0.00000
      158.200       0.00000
      158.300       0.00000
      158.400       0.00000
      158.500       0.00000
      158.600       0.00000
      158.700       0.00000
      158.800       0.00000
      158.900       0.00000
      159.000       0.00000
      159.100       0.00000
      159.200       0.00000
      159.300       0.00000
      159.400       0.00000
      159.500       0.00000
      159.600       0.00000
      159.700       0.00000
      159.800       0.00000
      159.900       0.00000
      160.000       0.00000
      160.100       0.00000
      160.200       0.00000
      160.300       0.00000
      160.400       0.00000
      160.500       0.00000
      160.600       0.00000
      160.700       0.00000
      160.800       0.00000
      160.900       0.00000
      161.000       0.00000
      161.100       0.00000
      161.200       0.00000
      161.300       0.00000
      161.400       0.00000
      161.500       0.00000
      161.600       0.00000
      161.700       0.00000
      161.800       0.00000
      161.900       0.00000
      162.000       0.00000
      162.100       0.00000
      162.200       0.00000
      162.300       0.00000
      162.400       0.00000
      162.500       0.00000
      162.600       0.00000
      162.700       0.00000
      162.800       0.00000
      162.900       0.00000
      163.000       0.00000
      163.100       0.00000
      163.200       0.00000
      163.300       0.00000
      163.400       0.00000
      163.500       0.00000
      163.600       0.00000
      163.700       0.00000
      163.800       0.00000
      163.900       0.00000
      164.000       0.00000
      164.100       0.00000
      164.200       0.00000
      164.300       0.00000
      164.400       0.00000
      164.500       0.00000
      164.600       0.00000
      164.700       0.00000
      164.800       0.00000
      164.900       0.00000
      165.000       0.00000
      165.100       0.00000
      165.200       0.00000
      165.300       0.00000
      165.400       0.00000
      165.500       0.00000
      165.600       0.00000
      165.700       0.00000
      165.800       0.00000
      165.900       0.00000
      166.000       0.00000
      166.100       0.00000
      166.200       0.00000
      166.300       0.00000
      166.400       0.00000
      166.500       0.00000
      166.600       0.00000
      166.700       0.00000
      166.800       0.00000
      166.900       0.00000
      167.000       0.00000
      167.100       0.00000
      167.200       0.00000
      167.300       0.00000
      167.400       0.00000
      167.500       0.00000
      167.600       0.00000
      167.700       0.00000
      167.800       0.00000
      167.900       0.00000
      168.000       0.00000
      168.100       0.00000
      168.200       0.00000
      168.300       0.00000
      168.400       0.00000
      168.500       0.00000
      168.600       0.00000
      168.700       0.00000
      168.800       0.00000
      168.900       0.00000
      169.000       0.00000
      169.100       0.00000
      169.200       0.00000
      169.300       0.00000
      169.400       0.00000
      169.500       0.00000
      169.600       0.00000
      169.700       0.00000
      169.800       0.00000
      169.900       0.00000
      170.000       0.00000
      170.100       0.00000
      170.200       0.00000
      170.300       0.00000
      170.400       0.00000
      170.500       0.00000
      170.600       0.00000
      170.700       0.00000
      170.800       0.00000
      170.900       0.00000
      171.000       0.00000
      171.100       0.00000
      171.200       0.00000
      171.300       0.00000
      171.400       0.00000
      171.500       0.00000
      171.600       0.00000
      171.700       0.00000
      171.800       0.00000
      171.900       0.00000
      172.000       0.00000
      172.100       0.00000
      172.200       0.00000
      172.300       0.00000
      172.400       0.00000
      172.500       0.00000
      172.600       0.00000
      172.700       0.00000
      172.800       0.00000
      172.900       0.00000
      173.000       0.00000
      173.100       0.00000
      173.200       0.00000
      173.300       0.00000
      173.400       0.00000
      173.500       0.00000
      173.600       0.00000
      173.700       0.00000
      173.800       0.00000
      173.900       0.00000
      174.000       0.00000
      174.100       0.00000
      174.200       0.00000
      174.300       0.00000
      174.400       0.00000
      174.500       0.00000
      174.600       0.00000
      174.700       0.00000
      174.800       0.00000
      174.900       0.00000
      175.000       0.00000
      175.100       0.00000
      175.200       0.00000
      175.300       0.00000
      175.400       0.00000
      175.500       0.00000
      175.600       0.00000
      175.700       0.00000
      175.800       0.00000
      175.900       0.00000
      176.000       0.00000
      176.100       0.00000
      176.200       0.00000
      176.300       0.00000
      176.400       0.00000
      176.500       0.00000
      176.600       0.00000
      176.700       0.00000
      176.800       0.00000
      176.900       0.00000
      177.000       0.00000
      177.100       0.00000
      177.200       0.00000
      177.300       0.00000
      177.400       0.00000
      177.500       0.00000
      177.600       0.00000
      177.700       0.00000
      177.800       0.00000
      177.900       0.00000
      178.000       0.00000
      178.100       0.00000
      178.200       0.00000
      178.300       0.00000
      178.400       0.00000
      178.500       0.00000
      178.600       0.00000
      178.700       0.00000
      178.800       0.00000
      178.900       0.00000
      179.000       0.00000
      179.100       0.00000
      179.200       0.00000
      179.300       0.00000
      179.400       0.00000
      179.500       0.00000
      179.600       0.00000
      179.700       0.00000
      179.800       0.00000
      179.900       0.00000
      180.000       0.00000
      180.100       0.00000
      180.200       0.00000
      180.300       0.00000
      180.400       0.00000
      180.500       0.00000
      180.600       0.00000
      180.700       0.00000
      180.800       0.00000
      180.900       0.00000
      181.000       0.00000
      181.100       0.00000
      181.200       0.00000
      181.300       0.00000
      181.400       0.00000
      181.500       0.00000
      181.600       0.00000
      181.700       0.00000
      181.800       0.00000
      181.900       0.00000
      182.000       0.00000
      182.100       0.00000
      182.200       0.00000
      182.300       0.00000
      182.400       0.00000
      182.500       0.00000
      182.600       0.00000
      182.700       0.00000
      182.800       0.00000
      182.900       0.00000
      183.000       0.00000
      183.100       0.00000
      183.200       0.00000
      183.300       0.00000
      183.400       0.00000
      183.500       0.00000
      183.600       0.00000
      183.700       0.00000
      183.800       0.00000
      183.900       0.00000
      184.000       0.00000
      184.100       0.00000
      184.200       0.00000
      184.300       0.00000
      184.400       0.00000
      184.500       0.00000
      184.600       0.00000
      184.700       0.00000
      184.800       0.00000
      184.900       0.00000
      185.000       0.00000
      185.100       0.00000
      185.200       0.00000
      185.300       0.00000
      185.400       0.00000
      185.500       0.00000
      185.600       0.00000
      185.700       0.00000
      185.800       0.00000
      185.900       0.00000
      186.000       0.00000
      186.100       0.00000
      186.200       0.00000
      186.300       0.00000
      186.400       0.00000
      186.500       0.00000
      186.600       0.00000
      186.700       0.00000
      186.800       0.00000
      186.900       0.00000
      187.000       0.00000
      187.100       0.00000
      187.200       0.00000
      187.300       0.00000
      187.400       0.00000
      187.500       0.00000
      187.600       0.00000
      187.700       0.00000
      187.800       0.00000
      187.900       0.00000
      188.000       0.00000
      188.100       0.00000
      188.200       0.00000
      188.300       0.00000
      188.400       0.00000
      188.500       0.00000
      188.600       0.00000
      188.700       0.00000
      188.800       0.00000
      188.900       0.00000
      189.000       0.00000
      189.100       0.00000
      189.200       0.00000
      189.300       0.00000
      189.400       0.00000
      189.500       0.00000
      189.600       0.00000
      189.700       0.00000
      189.800       0.00000
      189.900       0.00000
      190.000       0.00000
      190.100       0.00000
      190.200       0.00000
      190.300       0.00000
      190.400       0.00000
      190.500       0.00000
      190.600       0.00000
      190.700       0.00000
      190.800       0.00000
      190.900       0.00000
      191.000       0.00000
      191.100       0.00000
      191.200       0.00000
      191.300       0.00000
      191.400       0.00000
      191.500       0.00000
      191.600       0.00000
      191.700       0.00000
      191.800       0.00000
      191.900       0.00000
      192.000       0.00000
      192.100       0.00000
      192.200       0.00000
      192.300       0.00000
      192.400       0.00000
      192.500       0.00000
      192.600       0.00000
      192.700       0.00000
      192.800       0.00000
      192.900       0.00000
      193.000       0.00000
      193.100       0.00000
      193.200       0.00000
      193.300       0.00000
      193.400       0.00000
      193.500       0.00000
      193.600       0.00000
      193.700       0.00000
      193.800       0.00000
      193.900       0.00000
      194.000       0.00000
      194.100       0.00000
      194.200       0.00000
      194.300       0.00000
      194.400       0.00000
      194.500       0.00000
      194.600       0.00000
      194.700       0.00000
      194.800       0.00000
      194.900       0.00000
      195.000       0.00000
      195.100       0.00000
      195.200       0.00000
      195.300       0.00000
      195.400       0.00000
      195.500       0.00000
      195.600       0.00000
      195.700       0.00000
      195.800       0.00000
      195.900       0.00000
      196.000       0.00000
      196.100       0.00000
      196.200       0.00000
      196.300       0.00000
      196.400       0.00000
      196.500       0.00000
      196.600       0.00000
      196.700       0.00000
      196.800       0.00000
      196.900       0.00000
      197.000       0.00000
      197.100       0.00000
      197.200       0.00000
      197.300       0.00000
      197.400       0.00000
      197.500       0.00000
      197.600       0.00000
      197.700       0.00000
      197.800       0.00000
      197.900       0.00000
      198.000       0.00000
      198.100       0.00000
      198.200       0.00000
      198.300       0.00000
      198.400       0.00000
      198.500       0.00000
      198.600       0.00000
      198.700       0.00000
      198.800       0.00000
      198.900       0.00000
      199.000       0.00000
      199.100       0.00000
      199.200       0.00000
      199.300       0.00000
      199.400       0.00000
      199.500       0.00000
      199.600       0.00000
      199.700       0.00000
      199.800       0.00000
      199.900       0.00000
      200.000       0.00000
      200.100       0.00000
      200.200       0.00000
      200.300       0.00000
      200.400       0.00000
      200.500       0.00000
      200.600       0.00000
      200.700       0.00000
      200.800       0.00000
      200.900       0.00000
      201.000       0.00000
      201.100       0.00000
      201.200       0.00000
      201.300       0.00000
      201.400       0.00000
      201.500       0.00000
      201.600       0.00000
      201.700       0.00000
      201.800       0.00000
      201.900       0.00000
      202.000       0.00000
      202.100       0.00000
      202.200       0.00000
      202.300       0.00000
      202.400       0.00000
      202.500       0.00000
      202.600       0.00000
      202.700       0.00000
      202.800       0.00000
      202.900       0.00000
      203.000       0.00000
      203.100       0.00000
      203.200       0.00000
      203.300       0.00000
      203.400       0.00000
      203.500       0.00000
      203.600       0.00000
      203.700       0.00000
      203.800       0.00000
      203.900       0.00000
      204.000       0.00000
      204.100       0.00000
      204.200       0.00000
      204.300       0.00000
      204.400       0.00000
      204.500       0.00000
      204.600       0.00000
      204.700       0.00000
      204.800       0.00000
      204.900       0.00000
      205.000       0.00000
      205.100       0.00000
      205.200       0.00000
      205.300       0.00000
      205.400       0.00000
      205.500       0.00000
      205.600       0.00000
      205.700       0.00000
      205.800       0.00000
      205.900       0.00000
      206.000       0.00000
      206.100       0.00000
      206.200       0.00000
      206.300       0.00000
      206.400       0.00000
      206.500       0.00000
      206.600       0.00000
      206.700       0.00000
      206.800       0.00000
      206.900       0.00000
      207.000       0.00000
      207.100       0.00000
      207.200       0.00000
      207.300       0.00000
      207.400       0.00000
      207.500       0.00000
      207.600       0.00000
      207.700       0.00000
      207.800       0.00000
      207.900       0.00000
      208.000       0.00000
      208.100       0.00000
      208.200       0.00000
      208.300       0.00000
      208.400       0.00000
      208.500       0.00000
      208.600       0.00000
      208.700       0.00000
      208.800       0.00000
      208.900       0.00000
      209.000       0.00000
      209.100       0.00000
      209.200       0.00000
      209.300       0.00000
      209.400       0.00000
      209.500       0.00000
      209.600       0.00000
      209.700       0.00000
      209.800       0.00000
      209.900       0.00000
      210.000       0.00000
      210.100       0.00000
      210.200       0.00000
      210.300       0.00000
      210.400       0.00000
      210.500       0.00000
      210.600       0.00000
      210.700       0.00000
      210.800       0.00000
      210.900       0.00000
      211.000       0.00000
      211.100       0.00000
      211.200       0.00000
      211.300       0.00000
      211.400       0.00000
      211.500       0.00000
      211.600       0.00000
      211.700       0.00000
      211.800       0.00000
      211.900       0.00000
      212.000       0.00000
      212.100       0.00000
      212.200       0.00000
      212.300       0.00000
      212.400       0.00000
      212.500       0.00000
      212.600       0.00000
      212.700       0.00000
      212.800       0.00000
      212.900       0.00000
      213.000       0.00000
      213.100       0.00000
      213.200       0.00000
      213.300       0.00000
      213.400       0.00000
      213.500       0.00000
      213.600       0.00000
      213.700       0.00000
      213.800       0.00000
      213.900       0.00000
      214.000       0.00000
      214.100       0.00000
      214.200       0.00000
      214.300       0.00000
      214.400       0.00000
      214.500       0.00000
      214.600       0.00000
      214.700       0.00000
      214.800       0.00000
      214.900       0.00000
      215.000       0.00000
      215.100       0.00000
      215.200       0.00000
      215.300       0.00000
      215.400       0.00000
      215.500       0.00000
      215.600       0.00000
      215.700       0.00000
      215.800       0.00000
      215.900       0.00000
      216.000       0.00000
      216.100       0.00000
      216.200       0.00000
      216.300       0.00000
      216.400       0.00000
      216.500       0.00000
      216.600       0.00000
      216.700       0.00000
      216.800       0.00000
      216.900       0.00000
      217.000       0.00000
      217.100       0.00000
      217.200       0.00000
      217.300       0.00000
      217.400       0.00000
      217.500       0.00000
      217.600       0.00000
      217.700       0.00000
      217.800       0.00000
      217.900       0.00000
      218.000       0.00000
      218.100       0.00000
      218.200       0.00000
      218.300       0.00000
      218.400       0.00000
      218.500       0.00000
      218.600       0.00000
      218.700       0.00000
      218.800       0.00000
      218.900       0.00000
      219.000       0.00000
      219.100       0.00000
      219.200       0.00000
      219.300       0.00000
      219.400       0.00000
      219.500       0.00000
      219.600       0.00000
      219.700       0.00000
      219.800       0.00000
      219.900       0.00000
      220.000       0.00000
      220.100       0.00000
      220.200       0.00000
      220.300       0.00000
      220.400       0.00000
      220.500       0.00000
      220.600       0.00000
      220.700       0.00000
      220.800       0.00000
      220.900       0.00000
      221.000       0.00000
      221.100       0.00000
      221.200       0.00000
      221.300       0.00000
      221.400       0.00000
      221.500       0.00000
      221.600       0.00000
      221.700       0.00000
      221.800       0.00000
      221.900       0.00000
      222.000       0.00000
      222.100       0.00000
      222.200       0.00000
      222.300       0.00000
      222.400       0.00000
      222.500       0.00000
      222.600       0.00000
      222.700       0.00000
      222.800       0.00000
      222.900       0.00000
      223.000       0.00000
      223.100       0.00000
      223.200       0.00000
      223.300       0.00000
      223.400       0.00000
      223.500       0.00000
      223.600       0.00000
      223.700       0.00000
      223.800       0.00000
      223.900       0.00000
      224.000       0.00000
      224.100       0.00000
      224.200       0.00000
      224.300       0.00000
      224.400       0.00000
      224.500       0.00000
      224.600       0.00000
      224.700       0.00000
      224.800       0.00000
      224.900       0.00000
      225.000       0.00000
      225.100       0.00000
      225.200       0.00000
      225.300       0.00000
      225.400       0.00000
      225.500       0.00000
      225.600       0.00000
      225.700       0.00000
      225.800       0.00000
      225.900       0.00000
      226.000       0.00000
      226.100       0.00000
      226.200       0.00000
      226.300       0.00000
      226.400       0.00000
      226.500       0.00000
      226.600       0.00000
      226.700       0.00000
      226.800       0.00000
      226.900       0.00000
      227.000       0.00000
      227.100       0.00000
      227.200       0.00000
      227.300       0.00000
      227.400       0.00000
      227.500       0.00000
      227.600       0.00000
      227.700       0.00000
      227.800       0.00000
      227.900       0.00000
      228.000       0.00000
      228.100       0.00000
      228.200       0.00000
      228.300       0.00000
      228.400       0.00000
      228.500       0.00000
      228.600       0.00000
      228.700       0.00000
      228.800       0.00000
      228.900       0.00000
      229.000       0.00000
      229.100       0.00000
      229.200       0.00000
      229.300       0.00000
      229.400       0.00000
      229.500       0.00000
      229.600       0.00000
      229.700       0.00000
      229.800       0.00000
      229.900       0.00000
      230.000       0.00000
      230.100       0.00000
      230.200       0.00000
      230.300       0.00000
      230.400       0.00000
      230.500       0.00000
      230.600       0.00000
      230.700       0.00000
      230.800       0.00000
      230.900       0.00000
      231.000       0.00000
      231.100       0.00000
      231.200       0.00000
      231.300       0.00000
      231.400       0.00000
      231.500       0.00000
      231.600       0.00000
      231.700       0.00000
      231.800       0.00000
      231.900       0.00000
      232.000       0.00000
      232.100       0.00000
      232.200       0.00000
      232.300       0.00000
      232.400       0.00000
      232.500       0.00000
      232.600       0.00000
      232.700       0.00000
      232.800       0.00000
      232.900       0.00000
      233.000       0.00000
      233.100       0.00000
      233.200       0.00000
      233.300       0.00000
      233.400       0.00000
      233.500       0.00000
      233.600       0.00000
      233.700       0.00000
      233.800       0.00000
      233.900       0.00000
      234.000       0.00000
      234.100       0.00000
      234.200       0.00000
      234.300       0.00000
      234.400       0.00000
      234.500       0.00000
      234.600       0.00000
      234.700       0.00000
      234.800       0.00000
      234.900       0.00000
      235.000       0.00000
      235.100       0.00000
      235.200       0.00000
      235.300       0.00000
      235.400       0.00000
      235.500       0.00000
      235.600       0.00000
      235.700       0.00000
      235.800       0.00000
      235.900       0.00000
      236.000       0.00000
      236.100       0.00000
      236.200       0.00000
      236.300       0.00000
      236.400       0.00000
      236.500       0.00000
      236.600       0.00000
      236.700       0.00000
      236.800       0.00000
      236.900       0.00000
      237.000       0.00000
      237.100       0.00000
      237.200       0.00000
      237.300       0.00000
      237.400       0.00000
      237.500       0.00000
      237.600       0.00000
      237.700       0.00000
      237.800       0.00000
      237.900       0.00000
      238.000       0.00000
      238.100       0.00000
      238.200       0.00000
      238.300       0.00000
      238.400       0.00000
      238.500       0.00000
      238.600       0.00000
      238.700       0.00000
      238.800       0.00000
      238.900       0.00000
      239.000       0.00000
      239.100       0.00000
      239.200       0.00000
      239.300       0.00000
      239.400       0.00000
      239.500       0.00000
      239.600       0.00000
      239.700       0.00000
      239.800       0.00000
      239.900       0.00000
      240.000       0.00000
      240.100       0.00000
      240.200       0.00000
      240.300       0.00000
      240.400       0.00000
      240.500       0.00000
      240.600       0.00000
      240.700       0.00000
      240.800       0.00000
      240.900       0.00000
      241.000       0.00000
      241.100       0.00000
      241.200       0.00000
      241.300       0.00000
      241.400       0.00000
      241.500       0.00000
      241.600       0.00000
      241.700       0.00000
      241.800       0.00000
      241.900       0.00000
      242.000       0.00000
      242.100       0.00000
      242.200       0.00000
      242.300       0.00000
      242.400       0.00000
      242.500       0.00000
      242.600       0.00000
      242.700       0.00000
      242.800       0.00000
      242.900       0.00000
      243.000       0.00000
      243.100       0.00000
      243.200       0.00000
      243.300       0.00000
      243.400       0.00000
      243.500       0.00000
      243.600       0.00000
      243.700       0.00000
      243.800       0.00000
      243.900       0.00000
      244.000       0.00000
      244.100       0.00000
      244.200       0.00000
      244.300       0.00000
      244.400       0.00000
      244.500       0.00000
      244.600       0.00000
      244.700       0.00000
      244.800       0.00000
      244.900       0.00000
      245.000       0.00000
      245.100       0.00000
      245.200       0.00000
      245.300       0.00000
      245.400       0.00000
      245.500       0.00000
      245.600       0.00000
      245.700       0.00000
      245.800       0.00000
      245.900       0.00000
      246.000       0.00000
      246.100       0.00000
      246.200       0.00000
      246.300       0.00000
      246.400       0.00000
      246.500       0.00000
      246.600       0.00000
      246.700       0.00000
      246.800       0.00000
      246.900       0.00000
      247.000       0.00000
      247.100       0.00000
      247.200       0.00000
      247.300       0.00000
      247.400       0.00000
      247.500       0.00000
      247.600       0.00000
      247.700       0.00000
      247.800       0.00000
      247.900       0.00000
      248.000       0.00000
      248.100       0.00000
      248.200       0.00000
      248.300       0.00000
      248.400       0.00000
      248.500       0.00000
      248.600       0.00000
      248.700       0.00000
      248.800       0.00000
      248.900       0.00000
      249.000       0.00000
      249.100       0.00000
      249.200       0.00000
      249.300       0.00000
      249.400       0.00000
      249.500       0.00000
      249.600       0.00000
      249.700       0.00000
      249.800       0.00000
      249.900       0.00000
      250.000       0.00000
      250.100       0.00000
      250.200       0.00000
      250.300       0.00000
      250.400       0.00000
      250.500       0.00000
      250.600       0.00000
      250.700       0.00000
      250.800       0.00000
      250.900       0.00000
      251.000       0.00000
      251.100       0.00000
      251.200       0.00000
      251.300       0.00000
      251.400       0.00000
      251.500       0.00000
      251.600       0.00000
      251.700       0.00000
      251.800       0.00000
      251.900       0.00000
      252.000       0.00000
      252.100       0.00000
      252.200       0.00000
      252.300       0.00000
      252.400       0.00000
      252.500       0.00000
      252.600       0.00000
      252.700       0.00000
      252.800       0.00000
      252.900       0.00000
      253.000       0.00000
      253.100       0.00000
      253.200       0.00000
      253.300       0.00000
      253.400       0.00000
      253.500       0.00000
      253.600       0.00000
      253.700       0.00000
      253.800       0.00000
      253.900       0.00000
      254.000       0.00000
      254.100       0.00000
      254.200       0.00000
      254.300       0.00000
      254.400       0.00000
      254.500       0.00000
      254.600       0.00000
      254.700       0.00000
      254.800       0.00000
      254.900       0.00000
      255.000       0.00000
      255.100       0.00000
      255.200       0.00000
      255.300       0.00000
      255.400       0.00000
      255.500       0.00000
      255.600       0.00000
      255.700       0.00000
      255.800       0.00000
      255.900       0.00000
      256.000       0.00000
      256.100       0.00000
      256.200       0.00000
      256.300       0.00000
      256.400       0.00000
      256.500       0.00000
      256.600       0.00000
      256.700       0.00000
      256.800       0.00000
      256.900       0.00000
      257.000       0.00000
      257.100       0.00000
      257.200       0.00000
      257.300       0.00000
      257.400       0.00000
      257.500       0.00000
      257.600       0.00000
      257.700       0.00000
      257.800       0.00000
      257.900       0.00000
      258.000       0.00000
      258.100       0.00000
      258.200       0.00000
      258.300       0.00000
      258.400       0.00000
      258.500       0.00000
      258.600       0.00000
      258.700       0.00000
      258.800       0.00000
      258.900       0.00000
      259.000       0.00000
      259.100       0.00000
      259.200       0.00000
      259.300       0.00000
      259.400       0.00000
      259.500       0.00000
      259.600       0.00000
      259.700       0.00000
      259.800       0.00000
      259.900       0.00000
      260.000       0.00000
      260.100       0.00000
      260.200       0.00000
      260.300       0.00000
      260.400       0.00000
      260.500       0.00000
      260.600       0.00000
      260.700       0.00000
      260.800       0.00000
      260.900       0.00000
      261.000       0.00000
      261.100       0.00000
      261.200       0.00000
      261.300       0.00000
      261.400       0.00000
      261.500       0.00000
      261.600       0.00000
      261.700       0.00000
      261.800       0.00000
      261.900       0.00000
      262.000       0.00000
      262.100       0.00000
      262.200       0.00000
      262.300       0.00000
      262.400       0.00000
      262.500       0.00000
      262.600       0.00000
      262.700       0.00000
      262.800       0.00000
      262.900       0.00000
      263.000       0.00000
      263.100       0.00000
      263.200       0.00000
      263.300       0.00000
      263.400       0.00000
      263.500       0.00000
      263.600       0.00000
      263.700       0.00000
      263.800       0.00000
      263.900       0.00000
      264.000       0.00000
      264.100       0.00000
      264.200       0.00000
      264.300       0.00000
      264.400       0.00000
      264.500       0.00000
      264.600       0.00000
      264.700       0.00000
      264.800       0.00000
      264.900       0.00000
      265.000       0.00000
      265.100       0.00000
      265.200       0.00000
      265.300       0.00000
      265.400       0.00000
      265.500       0.00000
      265.600       0.00000
      265.700       0.00000
      265.800       0.00000
      265.900       0.00000
      266.000       0.00000
      266.100       0.00000
      266.200       0.00000
      266.300       0.00000
      266.400       0.00000
      266.500       0.00000
      266.600       0.00000
      266.700       0.00000
      266.800       0.00000
      266.900       0.00000
      267.000       0.00000
      267.100       0.00000
      267.200       0.00000
      267.300       0.00000
      267.400       0.00000
      267.500       0.00000
      267.600       0.00000
      267.700       0.00000
      267.800       0.00000
      267.900       0.00000
      268.000       0.00000
      268.100       0.00000
      268.200       0.00000
      268.300       0.00000
      268.400       0.00000
      268.500       0.00000
      268.600       0.00000
      268.700       0.00000
      268.800       0.00000
      268.900       0.00000
      269.000       0.00000
      269.100       0.00000
      269.200       0.00000
      269.300       0.00000
      269.400       0.00000
      269.500       0.00000
      269.600       0.00000
      269.700       0.00000
      269.800       0.00000
      269.900       0.00000
      270.000       0.00000
      270.100       0.00000
      270.200       0.00000
      270.300       0.00000
      270.400       0.00000
      270.500       0.00000
      270.600       0.00000
      270.700       0.00000
      270.800       0.00000
      270.900       0.00000
      271.000       0.00000
      271.100       0.00000
      271.200       0.00000
      271.300       0.00000
      271.400       0.00000
      271.500       0.00000
      271.600       0.00000
      271.700       0.00000
      271.800       0.00000
      271.900       0.00000
      272.000       0.00000
      272.100       0.00000
      272.200       0.00000
      272.300       0.00000
      272.400       0.00000
      272.500       0.00000
      272.600       0.00000
      272.700       0.00000
      272.800       0.00000
      272.900       0.00000
      273.000       0.00000
      273.100       0.00000
      273.200       0.00000
      273.300       0.00000
      273.400       0.00000
      273.500       0.00000
      273.600       0.00000
      273.700       0.00000
      273.800       0.00000
      273.900       0.00000
      274.000       0.00000
      274.100       0.00000
      274.200       0.00000
      274.300       0.00000
      274.400       0.00000
      274.500       0.00000
      274.600       0.00000
      274.700       0.00000
      274.800       0.00000
      274.900       0.00000
      275.000       0.00000
      275.100       0.00000
      275.200       0.00000
      275.300       0.00000
      275.400       0.00000
      275.500       0.00000
      275.600       0.00000
      275.700       0.00000
      275.800       0.00000
      275.900       0.00000
      276.000       0.00000
      276.100       0.00000
      276.200       0.00000
      276.300       0.00000
      276.400       0.00000
      276.500       0.00000
      276.600       0.00000
      276.700       0.00000
      276.800       0.00000
      276.900       0.00000
      277.000       0.00000
      277.100       0.00000
      277.200       0.00000
      277.300       0.00000
      277.400       0.00000
      277.500       0.00000
      277.600       0.00000
      277.700       0.00000
      277.800       0.00000
      277.900       0.00000
      278.000       0.00000
      278.100       0.00000
      278.200       0.00000
      278.300       0.00000
      278.400       0.00000
      278.500       0.00000
      278.600       0.00000
      278.700       0.00000
      278.800       0.00000
      278.900       0.00000
      279.000       0.00000
      279.100       0.00000
      279.200       0.00000
      279.300       0.00000
      279.400       0.00000
      279.500       0.00000
      279.600       0.00000
      279.700       0.00000
      279.800       0.00000
      279.900       0.00000
      280.000       0.00000
      280.100       0.00000
      280.200       0.00000
      280.300       0.00000
      280.400       0.00000
      280.500       0.00000
      280.600       0.00000
      280.700       0.00000
      280.800       0.00000
      280.900       0.00000
      281.000       0.00000
      281.100       0.00000
      281.200       0.00000
      281.300       0.00000
      281.400       0.00000
      281.500       0.00000
      281.600       0.00000
      281.700       0.00000
      281.800       0.00000
      281.900       0.00000
      282.000       0.00000
      282.100       0.00000
      282.200       0.00000
      282.300       0.00000
      282.400       0.00000
      282.500       0.00000
      282.600       0.00000
      282.700       0.00000
      282.800       0.00000
      282.900       0.00000
      283.000       0.00000
      283.100       0.00000
      283.200       0.00000
      283.300       0.00000
      283.400       0.00000
      283.500       0.00000
      283.600       0.00000
      283.700       0.00000
      283.800       0.00000
      283.900       0.00000
      284.000       0.00000
      284.100       0.00000
      284.200       0.00000
      284.300       0.00000
      284.400       0.00000
      284.500       0.00000
      284.600       0.00000
      284.700       0.00000
      284.800       0.00000
      284.900       0.00000
      285.000       0.00000
      285.100       0.00000
      285.200       0.00000
      285.300       0.00000
      285.400       0.00000
      285.500       0.00000
      285.600       0.00000
      285.700       0.00000
      285.800       0.00000
      285.900       0.00000
      286.000       0.00000
      286.100       0.00000
      286.200       0.00000
      286.300       0.00000
      286.400       0.00000
      286.500       0.00000
      286.600       0.00000
      286.700       0.00000
      286.800       0.00000
      286.900       0.00000
      287.000       0.00000
      287.100       0.00000
      287.200       0.00000
      287.300       0.00000
      287.400       0.00000
      287.500       0.00000
      287.600       0.00000
      287.700       0.00000
      287.800       0.00000
      287.900       0.00000
      288.000       0.00000
      288.100       0.00000
      288.200       0.00000
      288.300       0.00000
      288.400       0.00000
      288.500       0.00000
      288.600       0.00000
      288.700       0.00000
      288.800       0.00000
      288.900       0.00000
      289.000       0.00000
      289.100       0.00000
      289.200       0.00000
      289.300       0.00000
      289.400       0.00000
      289.500       0.00000
      289.600       0.00000
      289.700       0.00000
      289.800       0.00000
      289.900       0.00000
      290.000       0.00000
      290.100       0.00000
      290.200       0.00000
      290.300       0.00000
      290.400       0.00000
      290.500       0.00000
      290.600       0.00000
      290.700       0.00000
      290.800       0.00000
      290.900       0.00000
      291.000       0.00000
      291.100       0.00000
      291.200       0.00000
      291.300       0.00000
      291.400       0.00000
      291.500       0.00000
      291.600       0.00000
      291.700       0.00000
      291.800       0.00000
      291.900       0.00000
      292.000       0.00000
      292.100       0.00000
      292.200       0.00000
      292.300       0.00000
      292.400       0.00000
      292.500       0.00000
      292.600       0.00000
      292.700       0.00000
      292.800       0.00000
      292.900       0.00000
      293.000       0.00000
      293.100       0.00000
      293.200       0.00000
      293.300       0.00000
      293.400       0.00000
      293.500       0.00000
      293.600       0.00000
      293.700       0.00000
      293.800       0.00000
      293.900       0.00000
      294.000       0.00000
      294.100       0.00000
      294.200       0.00000
      294.300       0.00000
      294.400       0.00000
      294.500       0.00000
      294.600       0.00000
      294.700       0.00000
      294.800       0.00000
      294.900       0.00000
      295.000       0.00000
      295.100       0.00000
      295.200       0.00000
      295.300       0.00000
      295.400       0.00000
      295.500       0.00000
      295.600       0.00000
      295.700       0.00000
      295.800       0.00000
      295.900       0.00000
      296.000       0.00000
      296.100       0.00000
      296.200       0.00000
      296.300       0.00000
      296.400       0.00000
      296.500       0.00000
      296.600       0.00000
      296.700       0.00000
      296.800       0.00000
      296.900       0.00000
      297.000       0.00000
      297.100       0.00000
      297.200       0.00000
      297.300       0.00000
      297.400       0.00000
      297.500       0.00000
      297.600       0.00000
      297.700       0.00000
      297.800       0.00000
      297.900       0.00000
      298.000       0.00000
      298.100       0.00000
      298.200       0.00000
      298.300       0.00000
      298.400       0.00000
      298.500       0.00000
      298.600       0.00000
      298.700       0.00000
      298.800       0.00000
      298.900       0.00000
      299.000       0.00000
      299.100       0.00000
      299.200       0.00000
      299.300       0.00000
      299.400       0.00000
      299.500       0.00000
      299.600       0.00000
      299.700       0.00000
      299.800       0.00000
      299.900       0.00000
      300.000       0.00000
      300.100       0.00000
      300.192       0.00000
      300.285       0.00000
      300.377       0.00000
      300.470       0.00000
      300.562       0.00000
      300.654       0.00000
      300.747       0.00000
      300.839       0.00000
      300.932       0.00000
      301.025       0.00000
      301.117       0.00000
      301.210       0.00000
      301.303       0.00000
      301.395       0.00000
      301.488       0.00000
      301.581       0.00000
      301.674       0.00000
      301.766       0.00000
      301.859       0.00000
      301.952       0.00000
      302.045       0.00000
      302.138       0.00000
      302.231       0.00000
      302.324       0.00000
      302.417       0.00000
      302.510       0.00000
      302.603       0.00000
      302.696       0.00000
      302.789       0.00000
      302.882       0.00000
      302.976       0.00000
      303.069       0.00000
      303.162       0.00000
      303.255       0.00000
      303.349       0.00000
      303.442       0.00000
      303.535       0.00000
      303.629       0.00000
      303.722       0.00000
      303.816       0.00000
      303.909       0.00000
      304.003       0.00000
      304.096       0.00000
      304.190       0.00000
      304.283       0.00000
      304.377       0.00000
      304.471       0.00000
      304.564       0.00000
      304.658       0.00000
      304.752       0.00000
      304.846       0.00000
      304.939       0.00000
      305.033       0.00000
      305.127       0.00000
      305.221       0.00000
      305.315       0.00000
      305.409       0.00000
      305.503       0.00000
      305.597       0.00000
      305.691       0.00000
      305.785       0.00000
      305.879       0.00000
      305.973       0.00000
      306.067       0.00000
      306.161       0.00000
      306.255       0.00000
      306.350       0.00000
      306.444       0.00000
      306.538       0.00000
      306.633       0.00000
      306.727       0.00000
      306.821       0.00000
      306.916       0.00000
      307.010       0.00000
      307.105       0.00000
      307.199       0.00000
      307.294       0.00000
      307.388       0.00000
      307.483       0.00000
      307.577       0.00000
      307.672       0.00000
      307.767       0.00000
      307.861       0.00000
      307.956       0.00000
      308.051       0.00000
      308.146       0.00000
      308.240       0.00000
      308.335       0.00000
      308.430       0.00000
      308.525       0.00000
      308.620       0.00000
      308.715       0.00000
      308.810       0.00000
      308.905       0.00000
      309.000       0.00000
      309.095       0.00000
      309.190       0.00000
      309.285       0.00000
      309.380       0.00000
      309.476       0.00000
      309.571       0.00000
      309.666       0.00000
      309.761       0.00000
      309.857       0.00000
      309.952       0.00000
      310.047       0.00000
      310.143       0.00000
      310.238       0.00000
      310.334       0.00000
      310.429       0.00000
      310.525       0.00000
      310.620       0.00000
      310.716       0.00000
      310.811       0.00000
      310.907       0.00000
      311.003       0.00000
      311.098       0.00000
      311.194       0.00000
      311.290       0.00000
      311.386       0.00000
      311.481       0.00000
      311.577       0.00000
      311.673       0.00000
      311.769       0.00000
      311.865       0.00000
      311.961       0.00000
      312.057       0.00000
      312.153       0.00000
      312.249       0.00000
      312.345       0.00000
      312.441       0.00000
      312.537       0.00000
      312.633       0.00000
      312.730       0.00000
      312.826       0.00000
      312.922       0.00000
      313.018       0.00000
      313.115       0.00000
      313.211       0.00000
      313.307       0.00000
      313.404       0.00000
      313.500       0.00000
      313.597       0.00000
      313.693       0.00000
      313.790       0.00000
      313.886       0.00000
      313.983       0.00000
      314.079       0.00000
      314.176       0.00000
      314.273       0.00000
      314.369       0.00000
      314.466       0.00000
      314.563       0.00000
      314.660       0.00000
      314.756       0.00000
      314.853       0.00000
      314.950       0.00000
      315.047       0.00000
      315.144       0.00000
      315.241       0.00000
      315.338       0.00000
      315.435       0.00000
      315.532       0.00000
      315.629       0.00000
      315.726       0.00000
      315.823       0.00000
      315.921       0.00000
      316.018       0.00000
      316.115       0.00000
      316.212       0.00000
      316.310       0.00000
      316.407       0.00000
      316.504       0.00000
      316.602       0.00000
      316.699       0.00000
      316.796       0.00000
      316.894       0.00000
      316.991       0.00000
      317.089       0.00000
      317.187       0.00000
      317.284       0.00000
      317.382       0.00000
      317.479       0.00000
      317.577       0.00000
      317.675       0.00000
      317.773       0.00000
      317.870       0.00000
      317.968       0.00000
      318.066       0.00000
      318.164       0.00000
      318.262       0.00000
      318.360       0.00000
      318.458       0.00000
      318.556       0.00000
      318.654       0.00000
      318.752       0.00000
      318.850       0.00000
      318.948       0.00000
      319.046       0.00000
      319.144       0.00000
      319.242       0.00000
      319.341       0.00000
      319.439       0.00000
      319.537       0.00000
      319.635       0.00000
      319.734       0.00000
      319.832       0.00000
      319.930       0.00000
      320.029       0.00000
      320.127       0.00000
      320.226       0.00000
      320.324       0.00000
      320.423       0.00000
      320.522       0.00000
      320.620       0.00000
      320.719       0.00000
      320.818       0.00000
      320.916       0.00000
      321.015       0.00000
      321.114       0.00000
      321.213       0.00000
      321.311       0.00000
      321.410       0.00000
      321.509       0.00000
      321.608       0.00000
      321.707       0.00000
      321.806       0.00000
      321.905       0.00000
      322.004       0.00000
      322.103       0.00000
      322.202       0.00000
      322.301       0.00000
      322.401       0.00000
      322.500       0.00000
      322.599       0.00000
      322.698       0.00000
      322.798       0.00000
      322.897       0.00000
      322.996       0.00000
      323.096       0.00000
      323.195       0.00000
      323.294       0.00000
      323.394       0.00000
      323.493       0.00000
      323.593       0.00000
      323.692       0.00000
      323.792       0.00000
      323.892       0.00000
      323.991       0.00000
      324.091       0.00000
      324.191       0.00000
      324.291       0.00000
      324.390       0.00000
      324.490       0.00000
      324.590       0.00000
      324.690       0.00000
      324.790       0.00000
      324.890       0.00000
      324.990       0.00000
      325.090       0.00000
      325.190       0.00000
      325.290       0.00000
      325.390       0.00000
      325.490       0.00000
      325.590       0.00000
      325.690       0.00000
      325.790       0.00000
      325.891       0.00000
      325.991       0.00000
      326.091       0.00000
      326.192       0.00000
      326.292       0.00000
      326.392       0.00000
      326.493       0.00000
      326.593       0.00000
      326.694       0.00000
      326.794       0.00000
      326.895       0.00000
      326.995       0.00000
      327.096       0.00000
      327.197       0.00000
      327.297       0.00000
      327.398       0.00000
      327.499       0.00000
      327.599       0.00000
      327.700       0.00000
      327.801       0.00000
      327.902       0.00000
      328.003       0.00000
      328.104       0.00000
      328.205       0.00000
      328.306       0.00000
      328.407       0.00000
      328.508       0.00000
      328.609       0.00000
      328.710       0.00000
      328.811       0.00000
      328.912       0.00000
      329.013       0.00000
      329.115       0.00000
      329.216       0.00000
      329.317       0.00000
      329.419       0.00000
      329.520       0.00000
      329.621       0.00000
      329.723       0.00000
      329.824       0.00000
      329.926       0.00000
      330.027       0.00000
      330.129       0.00000
      330.230       0.00000
      330.332       0.00000
      330.434       0.00000
      330.535       0.00000
      330.637       0.00000
      330.739       0.00000
      330.840       0.00000
      330.942       0.00000
      331.044       0.00000
      331.146       0.00000
      331.248       0.00000
      331.350       0.00000
      331.452       0.00000
      331.554       0.00000
      331.656       0.00000
      331.758       0.00000
      331.860       0.00000
      331.962       0.00000
      332.064       0.00000
      332.166       0.00000
      332.268       0.00000
      332.371       0.00000
      332.473       0.00000
      332.575       0.00000
      332.677       0.00000
      332.780       0.00000
      332.882       0.00000
      332.985       0.00000
      333.087       0.00000
      333.190       0.00000
      333.292       0.00000
      333.395       0.00000
      333.497       0.00000
      333.600       0.00000
      333.702       0.00000
      333.805       0.00000
      333.908       0.00000
      334.011       0.00000
      334.113       0.00000
      334.216       0.00000
      334.319       0.00000
      334.422       0.00000
      334.525       0.00000
      334.628       0.00000
      334.731       0.00000
      334.834       0.00000
      334.937       0.00000
      335.040       0.00000
      335.143       0.00000
      335.246       0.00000
      335.349       0.00000
      335.452       0.00000
      335.555       0.00000
      335.659       0.00000
      335.762       0.00000
      335.865       0.00000
      335.969       0.00000
      336.072       0.00000
      336.175       0.00000
      336.279       0.00000
      336.382       0.00000
      336.486       0.00000
      336.589       0.00000
      336.693       0.00000
      336.796       0.00000
      336.900       0.00000
      337.004       0.00000
      337.107       0.00000
      337.211       0.00000
      337.315       0.00000
      337.419       0.00000
      337.523       0.00000
      337.626       0.00000
      337.730       0.00000
      337.834       0.00000
      337.938       0.00000
      338.042       0.00000
      338.146       0.00000
      338.250       0.00000
      338.354       0.00000
      338.458       0.00000
      338.562       0.00000
      338.667       0.00000
      338.771       0.00000
      338.875       0.00000
      338.979       0.00000
      339.084       0.00000
      339.188       0.00000
      339.292       0.00000
      339.397       0.00000
      339.501       0.00000
      339.606       0.00000
      339.710       0.00000
      339.815       0.00000
      339.919       0.00000
      340.024       0.00000
      340.128       0.00000
      340.233       0.00000
      340.338       0.00000
      340.442       0.00000
      340.547       0.00000
      340.652       0.00000
      340.757       0.00000
      340.862       0.00000
      340.966       0.00000
      341.071       0.00000
      341.176       0.00000
      341.281       0.00000
      341.386       0.00000
      341.491       0.00000
      341.596       0.00000
      341.702       0.00000
      341.807       0.00000
      341.912       0.00000
      342.017       0.00000
      342.122       0.00000
      342.228       0.00000
      342.333       0.00000
      342.438       0.00000
      342.544       0.00000
      342.649       0.00000
      342.754       0.00000
      342.860       0.00000
      342.965       0.00000
      343.071       0.00000
      343.176       0.00000
      343.282       0.00000
      343.388       0.00000
      343.493       0.00000
      343.599       0.00000
      343.705       0.00000
      343.810       0.00000
      343.916       0.00000
      344.022       0.00000
      344.128       0.00000
      344.234       0.00000
      344.340       0.00000
      344.446       0.00000
      344.552       0.00000
      344.658       0.00000
      344.764       0.00000
      344.870       0.00000
      344.976       0.00000
      345.082       0.00000
      345.188       0.00000
      345.294       0.00000
      345.401       0.00000
      345.507       0.00000
      345.613       0.00000
      345.719       0.00000
      345.826       0.00000
      345.932       0.00000
      346.039       0.00000
      346.145       0.00000
      346.252       0.00000
      346.358       0.00000
      346.465       0.00000
      346.571       0.00000
      346.678       0.00000
      346.785       0.00000
      346.891       0.00000
      346.998       0.00000
      347.105       0.00000
      347.212       0.00000
      347.319       0.00000
      347.425       0.00000
      347.532       0.00000
      347.639       0.00000
      347.746       0.00000
      347.853       0.00000
      347.960       0.00000
      348.067       0.00000
      348.174       0.00000
      348.281       0.00000
      348.389       0.00000
      348.496       0.00000
      348.603       0.00000
      348.710       0.00000
      348.818       0.00000
      348.925       0.00000
      349.032       0.00000
      349.140       0.00000
      349.247       0.00000
      349.355       0.00000
      349.462       0.00000
      349.570       0.00000
      349.677       0.00000
      349.785       0.00000
      349.892       0.00000
      350.000       0.00000
      350.100       0.00000
      350.193       0.00000
      350.287       0.00000
      350.380       0.00000
      350.473       0.00000
      350.567       0.00000
      350.660       0.00000
      350.754       0.00000
      350.847       0.00000
      350.941       0.00000
      351.034       0.00000
      351.128       0.00000
      351.221       0.00000
      351.315       0.00000
      351.409       0.00000
      351.502       0.00000
      351.596       0.00000
      351.690       0.00000
      351.783       0.00000
      351.877       0.00000
      351.971       0.00000
      352.065       0.00000
      352.159       0.00000
      352.252       0.00000
      352.346       0.00000
      352.440       0.00000
      352.534       0.00000
      352.628       0.00000
      352.722       0.00000
      352.816       0.00000
      352.910       0.00000
      353.004       0.00000
      353.098       0.00000
      353.192       0.00000
      353.287       0.00000
      353.381       0.00000
      353.475       0.00000
      353.569       0.00000
      353.663       0.00000
      353.758       0.00000
      353.852       0.00000
      353.946       0.00000
      354.041       0.00000
      354.135       0.00000
      354.229       0.00000
      354.324       0.00000
      354.418       0.00000
      354.513       0.00000
      354.607       0.00000
      354.702       0.00000
      354.796       0.00000
      354.891       0.00000
      354.985       0.00000
      355.080       0.00000
      355.175       0.00000
      355.269       0.00000
      355.364       0.00000
      355.459       0.00000
      355.553       0.00000
      355.648       0.00000
      355.743       0.00000
      355.838       0.00000
      355.933       0.00000
      356.027       0.00000
      356.122       0.00000
      356.217       0.00000
      356.312       0.00000
      356.407       0.00000
      356.502       0.00000
      356.597       0.00000
      356.692       0.00000
      356.787       0.00000
      356.882       0.00000
      356.977       0.00000
      357.073       0.00000
      357.168       0.00000
      357.263       0.00000
      357.358       0.00000
      357.453       0.00000
      357.549       0.00000
      357.644       0.00000
      357.739       0.00000
      357.835       0.00000
      357.930       0.00000
      358.025       0.00000
      358.121       0.00000
      358.216       0.00000
      358.312       0.00000
      358.407       0.00000
      358.503       0.00000
      358.598       0.00000
      358.694       0.00000
      358.790       0.00000
      358.885       0.00000
      358.981       0.00000
      359.076       0.00000
      359.172       0.00000
      359.268       0.00000
      359.364       0.00000
      359.459       0.00000
      359.555       0.00000
      359.651       0.00000
      359.747       0.00000
      359.843       0.00000
      359.939       0.00000
      360.035       0.00000
      360.131       0.00000
      360.227       0.00000
      360.323       0.00000
      360.419       0.00000
      360.515       0.00000
      360.611       0.00000
      360.707       0.00000
      360.803       0.00000
      360.899       0.00000
      360.995       0.00000
      361.092       0.00000
      361.188       0.00000
      361.284       0.00000
      361.380       0.00000
      361.477       0.00000
      361.573       0.00000
      361.669       0.00000
      361.766       0.00000
      361.862       0.00000
      361.959       0.00000
      362.055       0.00000
      362.152       0.00000
      362.248       0.00000
      362.345       0.00000
      362.441       0.00000
      362.538       0.00000
      362.635       0.00000
      362.731       0.00000
      362.828       0.00000
      362.925       0.00000
      363.021       0.00000
      363.118       0.00000
      363.215       0.00000
      363.312       0.00000
      363.409       0.00000
      363.505       0.00000
      363.602       0.00000
      363.699       0.00000
      363.796       0.00000
      363.893       0.00000
      363.990       0.00000
      364.087       0.00000
      364.184       0.00000
      364.281       0.00000
      364.378       0.00000
      364.475       0.00000
      364.573       0.00000
      364.670       0.00000
      364.767       0.00000
      364.864       0.00000
      364.961       0.00000
      365.059       0.00000
      365.156       0.00000
      365.253       0.00000
      365.351       0.00000
      365.448       0.00000
      365.545       0.00000
      365.643       0.00000
      365.740       0.00000
      365.838       0.00000
      365.935       0.00000
      366.033       0.00000
      366.130       0.00000
      366.228       0.00000
      366.326       0.00000
      366.423       0.00000
      366.521       0.00000
      366.618       0.00000
      366.716       0.00000
      366.814       0.00000
      366.912       0.00000
      367.010       0.00000
      367.107       0.00000
      367.205       0.00000
      367.303       0.00000
      367.401       0.00000
      367.499       0.00000
      367.597       0.00000
      367.695       0.00000
      367.793       0.00000
      367.891       0.00000
      367.989       0.00000
      368.087       0.00000
      368.185       0.00000
      368.283       0.00000
      368.381       0.00000
      368.480       0.00000
      368.578       0.00000
      368.676       0.00000
      368.774       0.00000
      368.873       0.00000
      368.971       0.00000
      369.069       0.00000
      369.168       0.00000
      369.266       0.00000
      369.364       0.00000
      369.463       0.00000
      369.561       0.00000
      369.660       0.00000
      369.758       0.00000
      369.857       0.00000
      369.955       0.00000
      370.054       0.00000
      370.153       0.00000
      370.251       0.00000
      370.350       0.00000
      370.449       0.00000
      370.547       0.00000
      370.646       0.00000
      370.745       0.00000
      370.844       0.00000
      370.943       0.00000
      371.041       0.00000
      371.140       0.00000
      371.239       0.00000
      371.338       0.00000
      371.437       0.00000
      371.536       0.00000
      371.635       0.00000
      371.734       0.00000
      371.833       0.00000
      371.932       0.00000
      372.032       0.00000
      372.131       0.00000
      372.230       0.00000
      372.329       0.00000
      372.428       0.00000
      372.528       0.00000
      372.627       0.00000
      372.726       0.00000
      372.826       0.00000
      372.925       0.00000
      373.024       0.00000
      373.124       0.00000
      373.223       0.00000
      373.323       0.00000
      373.422       0.00000
      373.522       0.00000
      373.621       0.00000
      373.721       0.00000
      373.820       0.00000
      373.920       0.00000
      374.020       0.00000
      374.119       0.00000
      374.219       0.00000
      374.319       0.00000
      374.419       0.00000
      374.518       0.00000
      374.618       0.00000
      374.718       0.00000
      374.818       0.00000
      374.918       0.00000
      375.018       0.00000
      375.118       0.00000
      375.218       0.00000
      375.318       0.00000
      375.418       0.00000
      375.518       0.00000
      375.618       0.00000
      375.718       0.00000
      375.818       0.00000
      375.918       0.00000
      376.019       0.00000
      376.119       0.00000
      376.219       0.00000
      376.319       0.00000
      376.420       0.00000
      376.520       0.00000
      376.620       0.00000
      376.721       0.00000
      376.821       0.00000
      376.922       0.00000
      377.022       0.00000
      377.122       0.00000
      377.223       0.00000
      377.323       0.00000
      377.424       0.00000
      377.525       0.00000
      377.625       0.00000
      377.726       0.00000
      377.827       0.00000
      377.927       0.00000
      378.028       0.00000
      378.129       0.00000
      378.230       0.00000
      378.330       0.00000
      378.431       0.00000
      378.532       0.00000
      378.633       0.00000
      378.734       0.00000
      378.835       0.00000
      378.936       0.00000
      379.037       0.00000
      379.138       0.00000
      379.239       0.00000
      379.340       0.00000
      379.441       0.00000
      379.542       0.00000
      379.643       0.00000
      379.745       0.00000
      379.846       0.00000
      379.947       0.00000
      380.048       0.00000
      380.150       0.00000
      380.251       0.00000
      380.352       0.00000
      380.454       0.00000
      380.555       0.00000
      380.656       0.00000
      380.758       0.00000
      380.859       0.00000
      380.961       0.00000
      381.062       0.00000
      381.164       0.00000
      381.266       0.00000
      381.367       0.00000
      381.469       0.00000
      381.570       0.00000
      381.672       0.00000
      381.774       0.00000
      381.876       0.00000
      381.977       0.00000
      382.079       0.00000
      382.181       0.00000
      382.283       0.00000
      382.385       0.00000
      382.487       0.00000
      382.589       0.00000
      382.691       0.00000
      382.793       0.00000
      382.895       0.00000
      382.997       0.00000
      383.099       0.00000
      383.201       0.00000
      383.303       0.00000
      383.405       0.00000
      383.507       0.00000
      383.610       0.00000
      383.712       0.00000
      383.814       0.00000
      383.916       0.00000
      384.019       0.00000
      384.121       0.00000
      384.223       0.00000
      384.326       0.00000
      384.428       0.00000
      384.531       0.00000
      384.633       0.00000
      384.736       0.00000
      384.838       0.00000
      384.941       0.00000
      385.043       0.00000
      385.146       0.00000
      385.249       0.00000
      385.351       0.00000
      385.454       0.00000
      385.557       0.00000
      385.660       0.00000
      385.762       0.00000
      385.865       0.00000
      385.968       0.00000
      386.071       0.00000
      386.174       0.00000
      386.277       0.00000
      386.380       0.00000
      386.483       0.00000
      386.586       0.00000
      386.689       0.00000
      386.792       0.00000
      386.895       0.00000
      386.998       0.00000
      387.101       0.00000
      387.204       0.00000
      387.308       0.00000
      387.411       0.00000
      387.514       0.00000
      387.617       0.00000
      387.721       0.00000
      387.824       0.00000
      387.927       0.00000
      388.031       0.00000
      388.134       0.00000
      388.238       0.00000
      388.341       0.00000
      388.445       0.00000
      388.548       0.00000
      388.652       0.00000
      388.755       0.00000
      388.859       0.00000
      388.962       0.00000
      389.066       0.00000
      389.170       0.00000
      389.274       0.00000
      389.377       0.00000
      389.481       0.00000
      389.585       0.00000
      389.689       0.00000
      389.793       0.00000
      389.897       0.00000
      390.000       0.00000
      390.104       0.00000
      390.208       0.00000
      390.312       0.00000
      390.416       0.00000
      390.520       0.00000
      390.625       0.00000
      390.729       0.00000
      390.833       0.00000
      390.937       0.00000
      391.041       0.00000
      391.145       0.00000
      391.250       0.00000
      391.354       0.00000
      391.458       0.00000
      391.563       0.00000
      391.667       0.00000
      391.771       0.00000
      391.876       0.00000
      391.980       0.00000
      392.085       0.00000
      392.189       0.00000
      392.294       0.00000
      392.398       0.00000
      392.503       0.00000
      392.607       0.00000
      392.712       0.00000
      392.817       0.00000
      392.921       0.00000
      393.026       0.00000
      393.131       0.00000
      393.236       0.00000
      393.340       0.00000
      393.445       0.00000
      393.550       0.00000
      393.655       0.00000
      393.760       0.00000
      393.865       0.00000
      393.970       0.00000
      394.075       0.00000
      394.180       0.00000
      394.285       0.00000
      394.390       0.00000
      394.495       0.00000
      394.600       0.00000
      394.706       0.00000
      394.811       0.00000
      394.916       0.00000
      395.021       0.00000
      395.126       0.00000
      395.232       0.00000
      395.337       0.00000
      395.443       0.00000
      395.548       0.00000
      395.653       0.00000
      395.759       0.00000
      395.864       0.00000
      395.970       0.00000
      396.075       0.00000
      396.181       0.00000
      396.286       0.00000
      396.392       0.00000
      396.498       0.00000
      396.603       0.00000
      396.709       0.00000
      396.815       0.00000
      396.921       0.00000
      397.026       0.00000
      397.132       0.00000
      397.238       0.00000
      397.344       0.00000
      397.450       0.00000
      397.556       0.00000
      397.662       0.00000
      397.768       0.00000
      397.874       0.00000
      397.980       0.00000
      398.086       0.00000
      398.192       0.00000
      398.298       0.00000
      398.404       0.00000
      398.510       0.00000
      398.617       0.00000
      398.723       0.00000
      398.829       0.00000
      398.935       0.00000
      399.042       0.00000
      399.148       0.00000
      399.255       0.00000
      399.361       0.00000
      399.467       0.00000
      399.574       0.00000
      399.680       0.00000
      399.787       0.00000
      399.893       0.00000
      400.000       0.00000
