Filter Be-thin
observation_date 07-Jan-2024 05:00:00
wavelength effective area 
      1.00000   2.78436e-10
      1.10000   7.94892e-10
      1.20000   2.06652e-09
      1.30000   4.94171e-09
      1.40000   1.12137e-08
      1.50000   2.39243e-08
      1.60000   4.84346e-08
      1.70000   9.40338e-08
      1.80000   1.75073e-07
      1.90000   3.14674e-07
      2.00000   5.47079e-07
      2.10000   9.24074e-07
      2.20000   1.52374e-06
      2.30000   2.44946e-06
      2.40000   3.84554e-06
      2.50000   5.87697e-06
      2.60000   8.96863e-06
      2.70000   1.33709e-05
      2.80000   1.95525e-05
      2.90000   2.82977e-05
      3.00000   4.03143e-05
      3.10000   5.66951e-05
      3.20000   7.88602e-05
      3.30000   0.000108573
      3.40000   0.000147919
      3.50000   0.000199568
      3.60000   0.000268004
      3.70000   0.000356075
      3.80000   0.000471112
      3.90000   0.000619832
      4.00000   0.000810394
      4.10000    0.00105459
      4.20000    0.00136748
      4.30000    0.00176810
      4.40000    0.00227989
      4.50000    0.00293162
      4.60000    0.00375682
      4.70000    0.00481388
      4.80000    0.00616171
      4.90000    0.00778514
      5.00000     0.0100945
      5.10000     0.0129039
      5.20000     0.0165426
      5.30000     0.0210269
      5.40000     0.0266815
      5.50000     0.0339136
      5.60000     0.0417807
      5.70000     0.0542236
      5.80000     0.0634597
      5.90000     0.0967184
      6.00000      0.129766
      6.10000      0.165520
      6.20000      0.202842
      6.30000      0.238261
      6.40000      0.268428
      6.50000      0.290356
      6.60000      0.299835
      6.70000      0.308399
      6.80000      0.308013
      6.90000      0.402995
      7.00000      0.437007
      7.10000      0.460799
      7.20000      0.479232
      7.30000      0.493810
      7.40000      0.504399
      7.50000      0.512344
      7.60000      0.517767
      7.70000      0.519324
      7.80000      0.516059
      7.90000      0.513341
      8.00000      0.738979
      8.10000      0.805183
      8.20000      0.814313
      8.30000      0.819653
      8.40000      0.821559
      8.50000      0.821980
      8.60000      0.820679
      8.70000      0.818236
      8.80000      0.814395
      8.90000      0.809595
      9.00000      0.803788
      9.10000      0.797039
      9.20000      0.789530
      9.30000      0.781198
      9.40000      0.772180
      9.50000      0.762541
      9.60000      0.752254
      9.70000      0.741426
      9.80000      0.730157
      9.90000      0.718487
      10.0000      0.706471
      10.1000      0.694137
      10.2000      0.681517
      10.3000      0.668602
      10.4000      0.655432
      10.5000      0.642037
      10.6000      0.628454
      10.7000      0.614709
      10.8000      0.600829
      10.9000      0.586854
      11.0000      0.572796
      11.1000      0.558692
      11.2000      0.544557
      11.3000      0.530420
      11.4000      0.516285
      11.5000      0.502164
      11.6000      0.488079
      11.7000      0.474011
      11.8000      0.460011
      11.9000      0.446001
      12.0000      0.431556
      12.1000      0.418777
      12.2000      0.413411
      12.3000      0.403710
      12.4000      0.391141
      12.5000      0.378492
      12.6000      0.365932
      12.7000      0.353533
      12.8000      0.341317
      12.9000      0.329294
      13.0000      0.317489
      13.1000      0.305914
      13.2000      0.294598
      13.3000      0.283600
      13.4000      0.272903
      13.5000      0.262495
      13.6000      0.252387
      13.7000      0.242539
      13.8000      0.232944
      13.9000      0.223611
      14.0000      0.214535
      14.1000      0.205696
      14.2000      0.197085
      14.3000      0.188706
      14.4000      0.180562
      14.5000      0.172668
      14.6000      0.165030
      14.7000      0.157622
      14.8000      0.150443
      14.9000      0.143490
      15.0000      0.136762
      15.1000      0.130258
      15.2000      0.124017
      15.3000      0.118001
      15.4000      0.112197
      15.5000      0.106602
      15.6000      0.101217
      15.7000     0.0960540
      15.8000     0.0911221
      15.9000     0.0863817
      16.0000     0.0818266
      16.1000     0.0774527
      16.2000     0.0732991
      16.3000     0.0693280
      16.4000     0.0655172
      16.5000     0.0618614
      16.6000     0.0583822
      16.7000     0.0550801
      16.8000     0.0519157
      16.9000     0.0488847
      17.0000     0.0460117
      17.1000     0.0433060
      17.2000     0.0407290
      17.3000     0.0382750
      17.4000     0.0359768
      17.5000     0.0337971
      17.6000     0.0317302
      17.7000     0.0298039
      17.8000     0.0280584
      17.9000     0.0263939
      18.0000     0.0247981
      18.1000     0.0233102
      18.2000     0.0218722
      18.3000     0.0204770
      18.4000     0.0191367
      18.5000     0.0178537
      18.6000     0.0166125
      18.7000     0.0154251
      18.8000     0.0143147
      18.9000     0.0132580
      19.0000     0.0122786
      19.1000     0.0113658
      19.2000     0.0104982
      19.3000    0.00970139
      19.4000    0.00896458
      19.5000    0.00827088
      19.6000    0.00765896
      19.7000    0.00708117
      19.8000    0.00653386
      19.9000    0.00604010
      20.0000    0.00556940
      20.1000    0.00513184
      20.2000    0.00473025
      20.3000    0.00434746
      20.4000    0.00400085
      20.5000    0.00367540
      20.6000    0.00336892
      20.7000    0.00309370
      20.8000    0.00283091
      20.9000    0.00259225
      21.0000    0.00237059
      21.1000    0.00216201
      21.2000    0.00197588
      21.3000    0.00179791
      21.4000    0.00163859
      21.5000    0.00148963
      21.6000    0.00135108
      21.7000    0.00122674
      21.8000    0.00110768
      21.9000    0.00100296
      22.0000   0.000902945
      22.1000   0.000813064
      22.2000   0.000729280
      22.3000   0.000650848
      22.4000   0.000572409
      22.5000   0.000494356
      22.6000   0.000396434
      22.7000   0.000323886
      22.8000   0.000365449
      22.9000   0.000423409
      23.0000   0.000500906
      23.1000   0.000532114
      23.2000   0.000521432
      23.3000   0.000489468
      23.4000   0.000447082
      23.5000   0.000408911
      23.6000   0.000371930
      23.7000   0.000338999
      23.8000   0.000306728
      23.9000   0.000279074
      24.0000   0.000252089
      24.1000   0.000228678
      24.2000   0.000206144
      24.3000   0.000186578
      24.4000   0.000167944
      24.5000   0.000151647
      24.6000   0.000136278
      24.7000   0.000122813
      24.8000   0.000110199
      24.9000   9.91210e-05
      25.0000   8.87909e-05
      25.1000   7.97340e-05
      25.2000   7.12987e-05
      25.3000   6.39265e-05
      25.4000   5.70509e-05
      25.5000   5.10869e-05
      25.6000   4.54975e-05
      25.7000   4.06970e-05
      25.8000   3.61595e-05
      25.9000   3.23159e-05
      26.0000   2.86382e-05
      26.1000   2.55754e-05
      26.2000   2.25983e-05
      26.3000   2.01725e-05
      26.4000   1.77677e-05
      26.5000   1.58560e-05
      26.6000   1.39570e-05
      26.7000   1.24185e-05
      26.8000   1.09319e-05
      26.9000   9.69106e-06
      27.0000   8.53220e-06
      27.1000   7.53099e-06
      27.2000   6.63163e-06
      27.3000   5.83632e-06
      27.4000   5.16869e-06
      27.5000   4.53965e-06
      27.6000   4.01206e-06
      27.7000   3.49470e-06
      27.8000   3.09089e-06
      27.9000   2.68983e-06
      28.0000   2.36944e-06
      28.1000   2.06638e-06
      28.2000   1.80844e-06
      28.3000   1.58096e-06
      28.4000   1.37394e-06
      28.5000   1.20433e-06
      28.6000   1.03883e-06
      28.7000   9.13340e-07
      28.8000   7.88727e-07
      28.9000   6.89377e-07
      29.0000   5.97661e-07
      29.1000   5.17590e-07
      29.2000   4.50554e-07
      29.3000   3.86430e-07
      29.4000   3.37796e-07
      29.5000   2.89512e-07
      29.6000   2.51788e-07
      29.7000   2.17019e-07
      29.8000   1.86526e-07
      29.9000   1.61675e-07
      30.0000   1.37281e-07
      30.1000   1.19655e-07
      30.2000   1.02158e-07
      30.3000   8.90917e-08
      30.4000   7.85809e-08
      30.5000   6.84066e-08
      30.6000   5.92669e-08
      30.7000   5.01951e-08
      30.8000   4.32488e-08
      30.9000   3.69715e-08
      31.0000   3.13436e-08
      31.1000   2.71185e-08
      31.2000   2.29253e-08
      31.3000   1.97933e-08
      31.4000   1.69050e-08
      31.5000   1.43199e-08
      31.6000   1.23466e-08
      31.7000   1.03884e-08
      31.8000   8.93103e-09
      31.9000   7.60674e-09
      32.0000   6.40607e-09
      32.1000   5.54274e-09
      32.2000   4.68605e-09
      32.3000   4.02031e-09
      32.4000   3.44093e-09
      32.5000   2.88618e-09
      32.6000   2.49808e-09
      32.7000   2.11293e-09
      32.8000   1.79325e-09
      32.9000   1.53695e-09
      33.0000   1.28262e-09
      33.1000   1.10386e-09
      33.2000   9.36368e-10
      33.3000   7.83163e-10
      33.4000   6.73537e-10
      33.5000   5.64734e-10
      33.6000   4.77635e-10
      33.7000   4.07068e-10
      33.8000   3.37022e-10
      33.9000   2.88704e-10
      34.0000   2.43674e-10
      34.1000   2.01654e-10
      34.2000   1.72980e-10
      34.3000   1.44511e-10
      34.4000   1.20672e-10
      34.5000   1.02711e-10
      34.6000   8.48800e-11
      34.7000   7.15788e-11
      34.8000   6.04190e-11
      34.9000   4.93391e-11
      35.0000   4.20563e-11
      35.1000   3.52100e-11
      35.2000   2.86903e-11
      35.3000   2.45026e-11
      35.4000   2.03452e-11
      35.5000   1.66743e-11
      35.6000   1.41577e-11
      35.7000   1.16594e-11
      35.8000   9.61034e-12
      35.9000   8.11393e-12
      36.0000   6.62843e-12
      36.1000   5.49315e-12
      36.2000   4.61312e-12
      36.3000   3.73954e-12
      36.4000   3.11429e-12
      36.5000   2.60245e-12
      36.6000   2.09441e-12
      36.7000   1.75136e-12
      36.8000   1.45704e-12
      36.9000   1.16490e-12
      37.0000   9.76979e-13
      37.1000   8.09664e-13
      37.2000   6.43588e-13
      37.3000   5.40595e-13
      37.4000   4.46603e-13
      37.5000   3.53317e-13
      37.6000   2.96722e-13
      37.7000   2.44562e-13
      37.8000   1.92797e-13
      37.9000   1.61552e-13
      38.0000   1.32956e-13
      38.1000   1.04575e-13
      38.2000   8.72281e-14
      38.3000   7.17409e-14
      38.4000   5.63709e-14
      38.5000   4.66902e-14
      38.6000   3.84131e-14
      38.7000   3.01991e-14
      38.8000   2.47737e-14
      38.9000   2.04085e-14
      39.0000   1.60765e-14
      39.1000   1.30275e-14
      39.2000   1.07552e-14
      39.3000   8.50031e-15
      39.4000   6.77948e-15
      39.5000   5.59930e-15
      39.6000   4.42828e-15
      39.7000   3.45802e-15
      39.8000   2.86655e-15
      39.9000   2.27965e-15
      40.0000   1.74340e-15
      40.1000   1.45186e-15
      40.2000   1.16257e-15
      40.3000   8.75580e-16
      40.4000   7.27506e-16
      40.5000   5.87009e-16
      40.6000   4.47606e-16
      40.7000   3.60357e-16
      40.8000   2.93133e-16
      40.9000   2.26441e-16
      41.0000   1.76273e-16
      41.1000   1.44626e-16
      41.2000   1.13232e-16
      41.3000   8.51085e-17
      41.4000   7.04532e-17
      41.5000   5.59123e-17
      41.6000   4.14877e-17
      41.7000   3.38589e-17
      41.8000   2.72310e-17
      41.9000   2.06558e-17
      42.0000   1.60374e-17
      42.1000   1.30661e-17
      42.2000   1.01183e-17
      42.3000   7.47926e-18
      42.4000   6.16992e-18
      42.5000   4.87090e-18
      42.6000   3.58236e-18
      42.7000   2.86499e-18
      42.8000   2.30257e-18
      42.9000   1.74460e-18
      43.0000   1.30729e-18
      43.1000   1.06800e-18
      43.2000   8.30636e-19
      43.3000   5.95190e-19
      43.4000   5.95314e-19
      43.5000   7.08851e-19
      43.6000   8.61326e-19
      43.7000   9.39193e-19
      43.8000   8.36634e-19
      43.9000   6.49453e-19
      44.0000   4.62774e-19
      44.1000   3.80851e-19
      44.2000   3.03643e-19
      44.3000   2.26652e-19
      44.4000   1.69463e-19
      44.5000   1.38223e-19
      44.6000   1.07069e-19
      44.7000   7.59998e-20
      44.8000   6.12924e-20
      44.9000   4.89291e-20
      45.0000   3.65993e-20
      45.1000   2.64825e-20
      45.2000   2.16736e-20
      45.3000   1.68781e-20
      45.4000   1.20952e-20
      45.5000   9.31949e-21
      45.6000   7.49185e-21
      45.7000   5.66926e-21
      45.8000   3.89392e-21
      45.9000   3.21169e-21
      46.0000   2.53127e-21
      46.1000   1.85271e-21
      46.2000   1.33278e-21
      46.3000   1.08475e-21
      46.4000   8.37418e-22
      46.5000   5.90739e-22
      46.6000   4.49259e-22
      46.7000   3.60438e-22
      46.8000   2.71860e-22
      46.9000   1.83518e-22
      47.0000   1.48658e-22
      47.1000   1.17508e-22
      47.2000   8.64432e-23
      47.3000   5.90248e-23
      47.4000   4.82978e-23
      47.5000   3.75990e-23
      47.6000   2.69295e-23
      47.7000   1.90023e-23
      47.8000   1.54008e-23
      47.9000   1.18085e-23
      48.0000   8.22625e-24
      48.1000   6.00401e-24
      48.2000   4.82203e-24
      48.3000   3.64317e-24
      48.4000   2.46749e-24
      48.5000   1.86150e-24
      48.6000   1.48263e-24
      48.7000   1.10477e-24
      48.8000   7.27880e-25
      48.9000   5.66178e-25
      49.0000   4.47704e-25
      49.1000   3.29550e-25
      49.2000   2.11705e-25
      49.3000   1.71868e-25
      49.4000   1.38861e-25
      49.5000   1.05941e-25
      49.6000   7.31079e-26
      49.7000   6.58322e-26
      49.8000   5.92047e-26
      49.9000   5.25950e-26
      50.0000   4.60031e-26
      50.1000   4.03464e-26
      50.2000   3.25647e-26
      50.3000   2.63294e-26
      50.4000   2.27756e-26
      50.5000   2.05246e-26
      50.6000   1.83252e-26
      50.7000   1.41633e-26
      50.8000   1.18025e-26
      50.9000   6.46256e-27
      51.0000   4.32974e-27
      51.1000   3.50047e-27
      51.2000   3.50726e-27
      51.3000   3.14112e-27
      51.4000   1.93702e-27
      51.5000   1.16803e-27
      51.6000   8.23731e-28
      51.7000   5.55465e-28
      51.8000   4.20106e-28
      51.9000   3.49573e-28
      52.0000   2.76966e-28
      52.1000   1.91435e-28
      52.2000   1.46450e-28
      52.3000   9.64596e-29
      52.4000   6.29421e-29
      52.5000   4.97365e-29
      52.6000   4.42126e-29
      52.7000   3.77175e-29
      52.8000   2.56367e-29
      52.9000   1.46632e-29
      53.0000   9.80519e-30
      53.1000   6.46511e-30
      53.2000   4.33777e-30
      53.3000   2.87877e-30
      53.4000   1.88626e-30
      53.5000   1.07664e-30
      53.6000   5.44151e-31
      53.7000   3.17874e-31
      53.8000   2.37399e-31
      53.9000   1.63030e-31
      54.0000   1.09612e-31
      54.1000   7.13206e-32
      54.2000   5.05374e-32
      54.3000   3.04391e-32
      54.4000   1.28911e-32
      54.5000   7.03864e-33
      54.6000   5.04169e-33
      54.7000   3.82565e-33
      54.8000   2.68770e-33
      54.9000   1.82219e-33
      55.0000   1.32601e-33
      55.1000   9.58898e-34
      55.2000   6.88222e-34
      55.3000   6.35982e-34
      55.4000   5.66938e-34
      55.5000   4.07295e-34
      55.6000   2.61116e-34
      55.7000   1.87893e-34
      55.8000   1.28296e-34
      55.9000   8.99445e-35
      56.0000   6.57971e-35
      56.1000   4.54691e-35
      56.2000   4.21288e-35
      56.3000   3.43547e-35
      56.4000   2.48809e-35
      56.5000   1.71478e-35
      56.6000   1.18143e-35
      56.7000   8.60758e-36
      56.8000   6.31468e-36
      56.9000   4.47425e-36
      57.0000   2.98754e-36
      57.1000   1.99506e-36
      57.2000   1.37396e-36
      57.3000   9.72508e-37
      57.4000   6.94499e-37
      57.5000   4.92726e-37
      57.6000   3.20389e-37
      57.7000   2.22676e-37
      57.8000   2.01792e-37
      57.9000   1.51087e-37
      58.0000   1.07639e-37
      58.1000   7.09898e-38
      58.2000   4.08613e-38
      58.3000   2.68776e-38
      58.4000   2.03324e-38
      58.5000   1.62111e-38
      58.6000   1.10641e-38
      58.7000   7.47191e-39
      58.8000   5.01538e-39
      58.9000   3.37838e-39
      59.0000   2.45459e-39
      59.1000   1.82133e-39
      59.2000   1.34714e-39
      59.3000   9.92984e-40
      59.4000   7.29243e-40
      59.5000   5.13603e-40
      59.6000   3.39720e-40
      59.7000   2.60134e-40
      59.8000   1.80800e-40
      59.9000   1.07456e-40
      60.0000   7.91299e-41
      60.1000   5.83725e-41
      60.2000   4.29218e-41
      60.3000   3.14507e-41
      60.4000   2.29813e-41
      60.5000   1.69361e-41
      60.6000   1.25851e-41
      60.7000   9.90718e-42
      60.8000   8.17938e-42
      60.9000   6.73884e-42
      61.0000   5.56596e-42
      61.1000   4.61307e-42
      61.2000   3.83676e-42
      61.3000   3.17955e-42
      61.4000   2.62884e-42
      61.5000   2.18883e-42
      61.6000   1.74181e-42
      61.7000   1.36767e-42
      61.8000   1.07620e-42
      61.9000   8.53391e-43
      62.0000   6.51604e-43
      62.1000   4.69435e-43
      62.2000   3.32108e-43
      62.3000   2.42425e-43
      62.4000   1.97583e-43
      62.5000   1.72360e-43
      62.6000   1.47136e-43
      62.7000   1.27518e-43
      62.8000   1.12104e-43
      62.9000   7.98740e-44
      63.0000   5.74532e-44
      63.1000   3.78351e-44
      63.2000   3.22299e-44
      63.3000   2.52234e-44
      63.4000   2.24208e-44
      63.5000   1.54143e-44
      63.6000   1.26117e-44
      63.7000   9.80909e-45
      63.8000   9.80909e-45
      63.9000   7.00649e-45
      64.0000   2.80260e-45
      64.1000   2.80260e-45
      64.2000   2.80260e-45
      64.3000   2.80260e-45
      64.4000       0.00000
      64.5000       0.00000
      64.6000       0.00000
      64.7000       0.00000
      64.8000       0.00000
      64.9000       0.00000
      65.0000       0.00000
      65.1000       0.00000
      65.2000       0.00000
      65.3000       0.00000
      65.4000       0.00000
      65.5000       0.00000
      65.6000       0.00000
      65.7000       0.00000
      65.8000       0.00000
      65.9000       0.00000
      66.0000       0.00000
      66.1000       0.00000
      66.2000       0.00000
      66.3000       0.00000
      66.4000       0.00000
      66.5000       0.00000
      66.6000       0.00000
      66.7000       0.00000
      66.8000       0.00000
      66.9000       0.00000
      67.0000       0.00000
      67.1000       0.00000
      67.2000       0.00000
      67.3000       0.00000
      67.4000       0.00000
      67.5000       0.00000
      67.6000       0.00000
      67.7000       0.00000
      67.8000       0.00000
      67.9000       0.00000
      68.0000       0.00000
      68.1000       0.00000
      68.2000       0.00000
      68.3000       0.00000
      68.4000       0.00000
      68.5000       0.00000
      68.6000       0.00000
      68.7000       0.00000
      68.8000       0.00000
      68.9000       0.00000
      69.0000       0.00000
      69.1000       0.00000
      69.2000       0.00000
      69.3000       0.00000
      69.4000       0.00000
      69.5000       0.00000
      69.6000       0.00000
      69.7000       0.00000
      69.8000       0.00000
      69.9000       0.00000
      70.0000       0.00000
      70.1000       0.00000
      70.2000       0.00000
      70.3000       0.00000
      70.4000       0.00000
      70.5000       0.00000
      70.6000       0.00000
      70.7000       0.00000
      70.8000       0.00000
      70.9000       0.00000
      71.0000       0.00000
      71.1000       0.00000
      71.2000       0.00000
      71.3000       0.00000
      71.4000       0.00000
      71.5000       0.00000
      71.6000       0.00000
      71.7000       0.00000
      71.8000       0.00000
      71.9000       0.00000
      72.0000       0.00000
      72.1000       0.00000
      72.2000       0.00000
      72.3000       0.00000
      72.4000       0.00000
      72.5000       0.00000
      72.6000       0.00000
      72.7000       0.00000
      72.8000       0.00000
      72.9000       0.00000
      73.0000       0.00000
      73.1000       0.00000
      73.2000       0.00000
      73.3000       0.00000
      73.4000       0.00000
      73.5000       0.00000
      73.6000       0.00000
      73.7000       0.00000
      73.8000       0.00000
      73.9000       0.00000
      74.0000       0.00000
      74.1000       0.00000
      74.2000       0.00000
      74.3000       0.00000
      74.4000       0.00000
      74.5000       0.00000
      74.6000       0.00000
      74.7000       0.00000
      74.8000       0.00000
      74.9000       0.00000
      75.0000       0.00000
      75.1000       0.00000
      75.2000       0.00000
      75.3000       0.00000
      75.4000       0.00000
      75.5000       0.00000
      75.6000       0.00000
      75.7000       0.00000
      75.8000       0.00000
      75.9000       0.00000
      76.0000       0.00000
      76.1000       0.00000
      76.2000       0.00000
      76.3000       0.00000
      76.4000       0.00000
      76.5000       0.00000
      76.6000       0.00000
      76.7000       0.00000
      76.8000       0.00000
      76.9000       0.00000
      77.0000       0.00000
      77.1000       0.00000
      77.2000       0.00000
      77.3000       0.00000
      77.4000       0.00000
      77.5000       0.00000
      77.6000       0.00000
      77.7000       0.00000
      77.8000       0.00000
      77.9000       0.00000
      78.0000       0.00000
      78.1000       0.00000
      78.2000       0.00000
      78.3000       0.00000
      78.4000       0.00000
      78.5000       0.00000
      78.6000       0.00000
      78.7000       0.00000
      78.8000       0.00000
      78.9000       0.00000
      79.0000       0.00000
      79.1000       0.00000
      79.2000       0.00000
      79.3000       0.00000
      79.4000       0.00000
      79.5000       0.00000
      79.6000       0.00000
      79.7000       0.00000
      79.8000       0.00000
      79.9000       0.00000
      80.0000       0.00000
      80.1000       0.00000
      80.2000       0.00000
      80.3000       0.00000
      80.4000       0.00000
      80.5000       0.00000
      80.6000       0.00000
      80.7000       0.00000
      80.8000       0.00000
      80.9000       0.00000
      81.0000       0.00000
      81.1000       0.00000
      81.2000       0.00000
      81.3000       0.00000
      81.4000       0.00000
      81.5000       0.00000
      81.6000       0.00000
      81.7000       0.00000
      81.8000       0.00000
      81.9000       0.00000
      82.0000       0.00000
      82.1000       0.00000
      82.2000       0.00000
      82.3000       0.00000
      82.4000       0.00000
      82.5000       0.00000
      82.6000       0.00000
      82.7000       0.00000
      82.8000       0.00000
      82.9000       0.00000
      83.0000       0.00000
      83.1000       0.00000
      83.2000       0.00000
      83.3000       0.00000
      83.4000       0.00000
      83.5000       0.00000
      83.6000       0.00000
      83.7000       0.00000
      83.8000       0.00000
      83.9000       0.00000
      84.0000       0.00000
      84.1000       0.00000
      84.2000       0.00000
      84.3000       0.00000
      84.4000       0.00000
      84.5000       0.00000
      84.6000       0.00000
      84.7000       0.00000
      84.8000       0.00000
      84.9000       0.00000
      85.0000       0.00000
      85.1000       0.00000
      85.2000       0.00000
      85.3000       0.00000
      85.4000       0.00000
      85.5000       0.00000
      85.6000       0.00000
      85.7000       0.00000
      85.8000       0.00000
      85.9000       0.00000
      86.0000       0.00000
      86.1000       0.00000
      86.2000       0.00000
      86.3000       0.00000
      86.4000       0.00000
      86.5000       0.00000
      86.6000       0.00000
      86.7000       0.00000
      86.8000       0.00000
      86.9000       0.00000
      87.0000       0.00000
      87.1000       0.00000
      87.2000       0.00000
      87.3000       0.00000
      87.4000       0.00000
      87.5000       0.00000
      87.6000       0.00000
      87.7000       0.00000
      87.8000       0.00000
      87.9000       0.00000
      88.0000       0.00000
      88.1000       0.00000
      88.2000       0.00000
      88.3000       0.00000
      88.4000       0.00000
      88.5000       0.00000
      88.6000       0.00000
      88.7000       0.00000
      88.8000       0.00000
      88.9000       0.00000
      89.0000       0.00000
      89.1000       0.00000
      89.2000       0.00000
      89.3000       0.00000
      89.4000       0.00000
      89.5000       0.00000
      89.6000       0.00000
      89.7000       0.00000
      89.8000       0.00000
      89.9000       0.00000
      90.0000       0.00000
      90.1000       0.00000
      90.2000       0.00000
      90.3000       0.00000
      90.4000       0.00000
      90.5000       0.00000
      90.6000       0.00000
      90.7000       0.00000
      90.8000       0.00000
      90.9000       0.00000
      91.0000       0.00000
      91.1000       0.00000
      91.2000       0.00000
      91.3000       0.00000
      91.4000       0.00000
      91.5000       0.00000
      91.6000       0.00000
      91.7000       0.00000
      91.8000       0.00000
      91.9000       0.00000
      92.0000       0.00000
      92.1000       0.00000
      92.2000       0.00000
      92.3000       0.00000
      92.4000       0.00000
      92.5000       0.00000
      92.6000       0.00000
      92.7000       0.00000
      92.8000       0.00000
      92.9000       0.00000
      93.0000       0.00000
      93.1000       0.00000
      93.2000       0.00000
      93.3000       0.00000
      93.4000       0.00000
      93.5000       0.00000
      93.6000       0.00000
      93.7000       0.00000
      93.8000       0.00000
      93.9000       0.00000
      94.0000       0.00000
      94.1000       0.00000
      94.2000       0.00000
      94.3000       0.00000
      94.4000       0.00000
      94.5000       0.00000
      94.6000       0.00000
      94.7000       0.00000
      94.8000       0.00000
      94.9000       0.00000
      95.0000       0.00000
      95.1000       0.00000
      95.2000       0.00000
      95.3000       0.00000
      95.4000       0.00000
      95.5000       0.00000
      95.6000       0.00000
      95.7000       0.00000
      95.8000       0.00000
      95.9000       0.00000
      96.0000       0.00000
      96.1000       0.00000
      96.2000       0.00000
      96.3000       0.00000
      96.4000       0.00000
      96.5000       0.00000
      96.6000       0.00000
      96.7000       0.00000
      96.8000       0.00000
      96.9000       0.00000
      97.0000       0.00000
      97.1000       0.00000
      97.2000       0.00000
      97.3000       0.00000
      97.4000       0.00000
      97.5000       0.00000
      97.6000       0.00000
      97.7000       0.00000
      97.8000       0.00000
      97.9000       0.00000
      98.0000       0.00000
      98.1000       0.00000
      98.2000       0.00000
      98.3000       0.00000
      98.4000       0.00000
      98.5000       0.00000
      98.6000       0.00000
      98.7000       0.00000
      98.8000       0.00000
      98.9000       0.00000
      99.0000       0.00000
      99.1000       0.00000
      99.2000       0.00000
      99.3000       0.00000
      99.4000       0.00000
      99.5000       0.00000
      99.6000       0.00000
      99.7000       0.00000
      99.8000       0.00000
      99.9000       0.00000
      100.000       0.00000
      100.100       0.00000
      100.200       0.00000
      100.300       0.00000
      100.400       0.00000
      100.500       0.00000
      100.600       0.00000
      100.700       0.00000
      100.800       0.00000
      100.900       0.00000
      101.000       0.00000
      101.100       0.00000
      101.200       0.00000
      101.300       0.00000
      101.400       0.00000
      101.500       0.00000
      101.600       0.00000
      101.700       0.00000
      101.800       0.00000
      101.900       0.00000
      102.000       0.00000
      102.100       0.00000
      102.200       0.00000
      102.300       0.00000
      102.400       0.00000
      102.500       0.00000
      102.600       0.00000
      102.700       0.00000
      102.800       0.00000
      102.900       0.00000
      103.000       0.00000
      103.100       0.00000
      103.200       0.00000
      103.300       0.00000
      103.400       0.00000
      103.500       0.00000
      103.600       0.00000
      103.700       0.00000
      103.800       0.00000
      103.900       0.00000
      104.000       0.00000
      104.100       0.00000
      104.200       0.00000
      104.300       0.00000
      104.400       0.00000
      104.500       0.00000
      104.600       0.00000
      104.700       0.00000
      104.800       0.00000
      104.900       0.00000
      105.000       0.00000
      105.100       0.00000
      105.200       0.00000
      105.300       0.00000
      105.400       0.00000
      105.500       0.00000
      105.600       0.00000
      105.700       0.00000
      105.800       0.00000
      105.900       0.00000
      106.000       0.00000
      106.100       0.00000
      106.200       0.00000
      106.300       0.00000
      106.400       0.00000
      106.500       0.00000
      106.600       0.00000
      106.700       0.00000
      106.800       0.00000
      106.900       0.00000
      107.000       0.00000
      107.100       0.00000
      107.200       0.00000
      107.300       0.00000
      107.400       0.00000
      107.500       0.00000
      107.600       0.00000
      107.700       0.00000
      107.800       0.00000
      107.900       0.00000
      108.000       0.00000
      108.100       0.00000
      108.200       0.00000
      108.300       0.00000
      108.400       0.00000
      108.500       0.00000
      108.600       0.00000
      108.700       0.00000
      108.800       0.00000
      108.900       0.00000
      109.000       0.00000
      109.100       0.00000
      109.200       0.00000
      109.300       0.00000
      109.400       0.00000
      109.500       0.00000
      109.600       0.00000
      109.700       0.00000
      109.800       0.00000
      109.900       0.00000
      110.000       0.00000
      110.100       0.00000
      110.200       0.00000
      110.300       0.00000
      110.400       0.00000
      110.500       0.00000
      110.600   9.99126e-42
      110.700   2.57556e-29
      110.800   7.09193e-20
      110.900   2.52978e-15
      111.000   8.77851e-13
      111.100   3.16034e-11
      111.200   1.01965e-10
      111.300   1.93835e-10
      111.400   3.05567e-10
      111.500   3.40063e-10
      111.600   3.79014e-10
      111.700   4.70108e-10
      111.800   5.91547e-10
      111.900   6.54192e-10
      112.000   7.72380e-10
      112.100   9.60348e-10
      112.200   1.12547e-09
      112.300   1.23611e-09
      112.400   1.34255e-09
      112.500   1.48937e-09
      112.600   1.69230e-09
      112.700   1.89845e-09
      112.800   2.00083e-09
      112.900   2.19698e-09
      113.000   2.40942e-09
      113.100   2.57487e-09
      113.200   2.71091e-09
      113.300   2.72944e-09
      113.400   2.95951e-09
      113.500   3.19896e-09
      113.600   3.23370e-09
      113.700   3.46057e-09
      113.800   3.62573e-09
      113.900   3.77027e-09
      114.000   3.85876e-09
      114.100   3.91560e-09
      114.200   4.28117e-09
      114.300   4.51998e-09
      114.400   4.46954e-09
      114.500   4.32617e-09
      114.600   4.32339e-09
      114.700   4.34898e-09
      114.800   4.41713e-09
      114.900   4.58452e-09
      115.000   4.74580e-09
      115.100   4.84696e-09
      115.200   4.87311e-09
      115.300   4.90389e-09
      115.400   4.93042e-09
      115.500   4.95920e-09
      115.600   4.98619e-09
      115.700   5.01038e-09
      115.800   5.03846e-09
      115.900   5.06459e-09
      116.000   5.08829e-09
      116.100   5.10189e-09
      116.200   5.11321e-09
      116.300   5.12346e-09
      116.400   5.12490e-09
      116.500   5.08824e-09
      116.600   5.05063e-09
      116.700   5.01422e-09
      116.800   4.97693e-09
      116.900   4.93532e-09
      117.000   4.89914e-09
      117.100   4.87788e-09
      117.200   4.86700e-09
      117.300   4.84603e-09
      117.400   4.82445e-09
      117.500   4.79465e-09
      117.600   4.74191e-09
      117.700   4.68273e-09
      117.800   4.62126e-09
      117.900   4.55906e-09
      118.000   4.49484e-09
      118.100   4.42887e-09
      118.200   4.36588e-09
      118.300   4.30464e-09
      118.400   4.23415e-09
      118.500   4.16554e-09
      118.600   4.10248e-09
      118.700   4.03874e-09
      118.800   3.97379e-09
      118.900   3.91126e-09
      119.000   3.84454e-09
      119.100   3.77310e-09
      119.200   3.71925e-09
      119.300   3.68982e-09
      119.400   3.66802e-09
      119.500   3.64107e-09
      119.600   3.60198e-09
      119.700   3.55673e-09
      119.800   3.50448e-09
      119.900   3.44300e-09
      120.000   3.38540e-09
      120.100   3.33096e-09
      120.200   3.28909e-09
      120.300   3.25447e-09
      120.400   3.22008e-09
      120.500   3.17648e-09
      120.600   3.12616e-09
      120.700   3.07412e-09
      120.800   3.02419e-09
      120.900   2.98699e-09
      121.000   2.96900e-09
      121.100   2.94947e-09
      121.200   2.92597e-09
      121.300   2.89621e-09
      121.400   2.86165e-09
      121.500   2.82325e-09
      121.600   2.75899e-09
      121.700   2.69849e-09
      121.800   2.63391e-09
      121.900   2.56975e-09
      122.000   2.50331e-09
      122.100   2.44053e-09
      122.200   2.37926e-09
      122.300   2.33062e-09
      122.400   2.29518e-09
      122.500   2.26284e-09
      122.600   2.22935e-09
      122.700   2.19620e-09
      122.800   2.16077e-09
      122.900   2.12737e-09
      123.000   2.10821e-09
      123.100   2.11326e-09
      123.200   2.12372e-09
      123.300   2.15875e-09
      123.400   2.20381e-09
      123.500   2.26321e-09
      123.600   2.31326e-09
      123.700   2.33108e-09
      123.800   2.32997e-09
      123.900   2.33545e-09
      124.000   2.35154e-09
      124.100   2.40339e-09
      124.200   2.53547e-09
      124.300   2.74030e-09
      124.400   2.93546e-09
      124.500   2.98146e-09
      124.600   2.95638e-09
      124.700   2.91355e-09
      124.800   2.87209e-09
      124.900   2.83114e-09
      125.000   2.79063e-09
      125.100   2.74976e-09
      125.200   2.70935e-09
      125.300   2.66948e-09
      125.400   2.63019e-09
      125.500   2.59145e-09
      125.600   2.54234e-09
      125.700   2.49159e-09
      125.800   2.44820e-09
      125.900   2.43145e-09
      126.000   2.41662e-09
      126.100   2.40188e-09
      126.200   2.38723e-09
      126.300   2.37266e-09
      126.400   2.35817e-09
      126.500   2.34376e-09
      126.600   2.32944e-09
      126.700   2.31521e-09
      126.800   2.30105e-09
      126.900   2.28697e-09
      127.000   2.27291e-09
      127.100   2.25412e-09
      127.200   2.22998e-09
      127.300   2.20427e-09
      127.400   2.17884e-09
      127.500   2.15367e-09
      127.600   2.12879e-09
      127.700   2.10417e-09
      127.800   2.07982e-09
      127.900   2.05572e-09
      128.000   2.03189e-09
      128.100   2.00831e-09
      128.200   1.98498e-09
      128.300   1.96190e-09
      128.400   1.93908e-09
      128.500   1.91649e-09
      128.600   1.89416e-09
      128.700   1.87207e-09
      128.800   1.85022e-09
      128.900   1.82861e-09
      129.000   1.80724e-09
      129.100   1.78608e-09
      129.200   1.76504e-09
      129.300   1.74423e-09
      129.400   1.72365e-09
      129.500   1.70331e-09
      129.600   1.68321e-09
      129.700   1.66333e-09
      129.800   1.64367e-09
      129.900   1.62425e-09
      130.000   1.60505e-09
      130.100   1.58607e-09
      130.200   1.56731e-09
      130.300   1.54878e-09
      130.400   1.53046e-09
      130.500   1.51233e-09
      130.600   1.49436e-09
      130.700   1.47657e-09
      130.800   1.45899e-09
      130.900   1.44162e-09
      131.000   1.42444e-09
      131.100   1.40747e-09
      131.200   1.39068e-09
      131.300   1.37406e-09
      131.400   1.35762e-09
      131.500   1.34138e-09
      131.600   1.32531e-09
      131.700   1.30944e-09
      131.800   1.29373e-09
      131.900   1.27821e-09
      132.000   1.26286e-09
      132.100   1.24768e-09
      132.200   1.23267e-09
      132.300   1.21784e-09
      132.400   1.20317e-09
      132.500   1.18868e-09
      132.600   1.17435e-09
      132.700   1.15937e-09
      132.800   1.14430e-09
      132.900   1.12938e-09
      133.000   1.11463e-09
      133.100   1.10008e-09
      133.200   1.08571e-09
      133.300   1.07150e-09
      133.400   1.05747e-09
      133.500   1.04362e-09
      133.600   1.02994e-09
      133.700   1.01644e-09
      133.800   1.00311e-09
      133.900   9.89960e-10
      134.000   9.76983e-10
      134.100   9.64171e-10
      134.200   9.51526e-10
      134.300   9.39041e-10
      134.400   9.26718e-10
      134.500   9.14557e-10
      134.600   9.02549e-10
      134.700   8.90696e-10
      134.800   8.78999e-10
      134.900   8.67457e-10
      135.000   8.56061e-10
      135.100   8.44820e-10
      135.200   8.33725e-10
      135.300   8.22772e-10
      135.400   8.11956e-10
      135.500   8.01252e-10
      135.600   7.90665e-10
      135.700   7.80212e-10
      135.800   7.69889e-10
      135.900   7.59698e-10
      136.000   7.49633e-10
      136.100   7.39693e-10
      136.200   7.29890e-10
      136.300   7.20207e-10
      136.400   7.10649e-10
      136.500   7.01211e-10
      136.600   6.91888e-10
      136.700   6.82684e-10
      136.800   6.73595e-10
      136.900   6.64624e-10
      137.000   6.55771e-10
      137.100   6.47043e-10
      137.200   6.38429e-10
      137.300   6.29934e-10
      137.400   6.21547e-10
      137.500   6.13264e-10
      137.600   6.05084e-10
      137.700   5.96998e-10
      137.800   5.89010e-10
      137.900   5.81122e-10
      138.000   5.73338e-10
      138.100   5.65654e-10
      138.200   5.58080e-10
      138.300   5.50604e-10
      138.400   5.43227e-10
      138.500   5.35945e-10
      138.600   5.28757e-10
      138.700   5.21664e-10
      138.800   5.14663e-10
      138.900   5.07752e-10
      139.000   5.00932e-10
      139.100   4.94208e-10
      139.200   4.87605e-10
      139.300   4.81122e-10
      139.400   4.74733e-10
      139.500   4.68425e-10
      139.600   4.62196e-10
      139.700   4.56047e-10
      139.800   4.49977e-10
      139.900   4.43983e-10
      140.000   4.38070e-10
      140.100   4.32232e-10
      140.200   4.26469e-10
      140.300   4.20779e-10
      140.400   4.15161e-10
      140.500   4.09613e-10
      140.600   4.04134e-10
      140.700   3.98724e-10
      140.800   3.93391e-10
      140.900   3.88127e-10
      141.000   3.82927e-10
      141.100   3.77793e-10
      141.200   3.72726e-10
      141.300   3.67721e-10
      141.400   3.62794e-10
      141.500   3.58004e-10
      141.600   3.53325e-10
      141.700   3.48706e-10
      141.800   3.44145e-10
      141.900   3.39641e-10
      142.000   3.35192e-10
      142.100   3.30929e-10
      142.200   3.27096e-10
      142.300   3.23629e-10
      142.400   3.20200e-10
      142.500   3.16803e-10
      142.600   3.13438e-10
      142.700   3.10105e-10
      142.800   3.06806e-10
      142.900   3.03539e-10
      143.000   3.00303e-10
      143.100   2.97101e-10
      143.200   2.93933e-10
      143.300   2.90795e-10
      143.400   2.87689e-10
      143.500   2.84614e-10
      143.600   2.81569e-10
      143.700   2.78576e-10
      143.800   2.75924e-10
      143.900   2.73351e-10
      144.000   2.70805e-10
      144.100   2.68280e-10
      144.200   2.65777e-10
      144.300   2.63295e-10
      144.400   2.60862e-10
      144.500   2.58838e-10
      144.600   2.56950e-10
      144.700   2.55086e-10
      144.800   2.53231e-10
      144.900   2.51385e-10
      145.000   2.49548e-10
      145.100   2.47721e-10
      145.200   2.45903e-10
      145.300   2.44094e-10
      145.400   2.42295e-10
      145.500   2.40504e-10
      145.600   2.38720e-10
      145.700   2.36945e-10
      145.800   2.35181e-10
      145.900   2.33426e-10
      146.000   2.31677e-10
      146.100   2.29913e-10
      146.200   2.28141e-10
      146.300   2.26378e-10
      146.400   2.24623e-10
      146.500   2.22879e-10
      146.600   2.21146e-10
      146.700   2.19421e-10
      146.800   2.17692e-10
      146.900   2.15954e-10
      147.000   2.14227e-10
      147.100   2.12509e-10
      147.200   2.10803e-10
      147.300   2.09107e-10
      147.400   2.07422e-10
      147.500   2.05747e-10
      147.600   2.04081e-10
      147.700   2.02428e-10
      147.800   2.00785e-10
      147.900   1.99152e-10
      148.000   1.97530e-10
      148.100   1.95918e-10
      148.200   1.94317e-10
      148.300   1.92727e-10
      148.400   1.91436e-10
      148.500   1.90378e-10
      148.600   1.89401e-10
      148.700   1.88426e-10
      148.800   1.87453e-10
      148.900   1.86485e-10
      149.000   1.85519e-10
      149.100   1.84556e-10
      149.200   1.83595e-10
      149.300   1.82636e-10
      149.400   1.81679e-10
      149.500   1.80726e-10
      149.600   1.79775e-10
      149.700   1.78826e-10
      149.800   1.77880e-10
      149.900   1.76937e-10
      150.000   1.75997e-10
      150.100   1.75060e-10
      150.200   1.74124e-10
      150.300   1.73191e-10
      150.400   1.72261e-10
      150.500   1.71333e-10
      150.600   1.70407e-10
      150.700   1.69485e-10
      150.800   1.68564e-10
      150.900   1.67646e-10
      151.000   1.66730e-10
      151.100   1.65817e-10
      151.200   1.64907e-10
      151.300   1.63999e-10
      151.400   1.63093e-10
      151.500   1.62191e-10
      151.600   1.61293e-10
      151.700   1.60400e-10
      151.800   1.59509e-10
      151.900   1.58621e-10
      152.000   1.57796e-10
      152.100   1.57587e-10
      152.200   1.57455e-10
      152.300   1.57319e-10
      152.400   1.57182e-10
      152.500   1.57043e-10
      152.600   1.56903e-10
      152.700   1.56144e-10
      152.800   1.55167e-10
      152.900   1.54191e-10
      153.000   1.53219e-10
      153.100   1.52252e-10
      153.200   1.51289e-10
      153.300   1.50528e-10
      153.400   1.49958e-10
      153.500   1.49410e-10
      153.600   1.48864e-10
      153.700   1.48319e-10
      153.800   1.47773e-10
      153.900   1.47228e-10
      154.000   1.46702e-10
      154.100   1.46215e-10
      154.200   1.45741e-10
      154.300   1.45267e-10
      154.400   1.44794e-10
      154.500   1.44320e-10
      154.600   1.43847e-10
      154.700   1.43374e-10
      154.800   1.42902e-10
      154.900   1.42429e-10
      155.000   1.41956e-10
      155.100   1.41484e-10
      155.200   1.41011e-10
      155.300   1.40538e-10
      155.400   1.40065e-10
      155.500   1.39593e-10
      155.600   1.39119e-10
      155.700   1.38646e-10
      155.800   1.38173e-10
      155.900   1.37699e-10
      156.000   1.37226e-10
      156.100   1.36751e-10
      156.200   1.36277e-10
      156.300   1.35803e-10
      156.400   1.35328e-10
      156.500   1.34848e-10
      156.600   1.34337e-10
      156.700   1.33825e-10
      156.800   1.33313e-10
      156.900   1.32801e-10
      157.000   1.32291e-10
      157.100   1.31736e-10
      157.200   1.30879e-10
      157.300   1.29702e-10
      157.400   1.28534e-10
      157.500   1.27374e-10
      157.600   1.26223e-10
      157.700   1.25080e-10
      157.800   1.23946e-10
      157.900   1.23495e-10
      158.000   1.23106e-10
      158.100   1.22717e-10
      158.200   1.22327e-10
      158.300   1.21937e-10
      158.400   1.21547e-10
      158.500   1.21157e-10
      158.600   1.20767e-10
      158.700   1.20376e-10
      158.800   1.19986e-10
      158.900   1.19595e-10
      159.000   1.19204e-10
      159.100   1.18793e-10
      159.200   1.18141e-10
      159.300   1.17099e-10
      159.400   1.16064e-10
      159.500   1.15037e-10
      159.600   1.14018e-10
      159.700   1.13007e-10
      159.800   1.12002e-10
      159.900   1.11483e-10
      160.000   1.11291e-10
      160.100   1.11108e-10
      160.200   1.10925e-10
      160.300   1.10741e-10
      160.400   1.10556e-10
      160.500   1.10316e-10
      160.600   1.09762e-10
      160.700   1.08978e-10
      160.800   1.08199e-10
      160.900   1.07423e-10
      161.000   1.06652e-10
      161.100   1.05885e-10
      161.200   1.05123e-10
      161.300   1.04364e-10
      161.400   1.03610e-10
      161.500   1.02860e-10
      161.600   1.02113e-10
      161.700   1.01370e-10
      161.800   1.00630e-10
      161.900   9.99087e-11
      162.000   9.93078e-11
      162.100   9.87793e-11
      162.200   9.82527e-11
      162.300   9.77274e-11
      162.400   9.72037e-11
      162.500   9.66810e-11
      162.600   9.61602e-11
      162.700   9.56406e-11
      162.800   9.51223e-11
      162.900   9.46058e-11
      163.000   9.40910e-11
      163.100   9.35778e-11
      163.200   9.30655e-11
      163.300   9.25549e-11
      163.400   9.20460e-11
      163.500   9.15388e-11
      163.600   9.10330e-11
      163.700   9.05286e-11
      163.800   9.00267e-11
      163.900   8.95260e-11
      164.000   8.90268e-11
      164.100   8.84251e-11
      164.200   8.75431e-11
      164.300   8.66736e-11
      164.400   8.58119e-11
      164.500   8.49581e-11
      164.600   8.41120e-11
      164.700   8.32728e-11
      164.800   8.25386e-11
      164.900   8.20230e-11
      165.000   8.15961e-11
      165.100   8.11705e-11
      165.200   8.07463e-11
      165.300   8.03238e-11
      165.400   7.99032e-11
      165.500   7.94839e-11
      165.600   7.87952e-11
      165.700   7.79944e-11
      165.800   7.71921e-11
      165.900   7.63973e-11
      166.000   7.56107e-11
      166.100   7.48314e-11
      166.200   7.40596e-11
      166.300   7.32952e-11
      166.400   7.25380e-11
      166.500   7.17876e-11
      166.600   7.10446e-11
      166.700   7.03085e-11
      166.800   6.95786e-11
      166.900   6.88560e-11
      167.000   6.81414e-11
      167.100   6.74323e-11
      167.200   6.67299e-11
      167.300   6.60342e-11
      167.400   6.53452e-11
      167.500   6.46624e-11
      167.600   6.39862e-11
      167.700   6.33165e-11
      167.800   6.26531e-11
      167.900   6.19959e-11
      168.000   6.13448e-11
      168.100   6.06999e-11
      168.200   6.00610e-11
      168.300   5.94281e-11
      168.400   5.88013e-11
      168.500   5.81856e-11
      168.600   5.77020e-11
      168.700   5.72888e-11
      168.800   5.68780e-11
      168.900   5.64697e-11
      169.000   5.60639e-11
      169.100   5.56600e-11
      169.200   5.52588e-11
      169.300   5.48598e-11
      169.400   5.44630e-11
      169.500   5.40654e-11
      169.600   5.36574e-11
      169.700   5.32376e-11
      169.800   5.28161e-11
      169.900   5.23968e-11
      170.000   5.19799e-11
      170.100   5.13894e-11
      170.200   5.05474e-11
      170.300   6.58192e-11
      170.400   1.41268e-10
      170.500   2.67463e-10
      170.600   3.93301e-10
      170.700   4.93375e-10
      170.800   5.39092e-10
      170.900   5.41178e-10
      171.000   5.33587e-10
      171.100   5.26290e-10
      171.200   5.19060e-10
      171.300   5.11896e-10
      171.400   5.04800e-10
      171.500   4.97771e-10
      171.600   4.90810e-10
      171.700   4.83925e-10
      171.800   4.77115e-10
      171.900   4.70385e-10
      172.000   4.63742e-10
      172.100   4.57185e-10
      172.200   4.50719e-10
      172.300   4.44330e-10
      172.400   4.37943e-10
      172.500   4.31632e-10
      172.600   4.25417e-10
      172.700   4.19298e-10
      172.800   4.13269e-10
      172.900   4.07331e-10
      173.000   4.01487e-10
      173.100   3.95734e-10
      173.200   3.90068e-10
      173.300   3.84490e-10
      173.400   3.78996e-10
      173.500   3.73588e-10
      173.600   3.68265e-10
      173.700   3.63021e-10
      173.800   3.57859e-10
      173.900   3.52777e-10
      174.000   3.47769e-10
      174.100   3.42836e-10
      174.200   3.37978e-10
      174.300   3.33190e-10
      174.400   3.28472e-10
      174.500   3.23822e-10
      174.600   3.19237e-10
      174.700   3.14719e-10
      174.800   3.10266e-10
      174.900   3.05873e-10
      175.000   3.01539e-10
      175.100   2.97264e-10
      175.200   2.93060e-10
      175.300   2.88910e-10
      175.400   2.84816e-10
      175.500   2.80781e-10
      175.600   2.76799e-10
      175.700   2.72873e-10
      175.800   2.68999e-10
      175.900   2.65179e-10
      176.000   2.61410e-10
      176.100   2.57695e-10
      176.200   2.54031e-10
      176.300   2.50415e-10
      176.400   2.46851e-10
      176.500   2.43328e-10
      176.600   2.38483e-10
      176.700   2.33089e-10
      176.800   2.27813e-10
      176.900   2.22653e-10
      177.000   2.17606e-10
      177.100   2.12670e-10
      177.200   2.07844e-10
      177.300   2.03123e-10
      177.400   1.98505e-10
      177.500   1.93987e-10
      177.600   1.89570e-10
      177.700   1.85250e-10
      177.800   1.81025e-10
      177.900   1.76890e-10
      178.000   1.72859e-10
      178.100   1.68917e-10
      178.200   1.65060e-10
      178.300   1.61288e-10
      178.400   1.57601e-10
      178.500   1.53994e-10
      178.600   1.50534e-10
      178.700   1.47515e-10
      178.800   1.45128e-10
      178.900   1.42779e-10
      179.000   1.40465e-10
      179.100   1.38187e-10
      179.200   1.35945e-10
      179.300   1.33738e-10
      179.400   1.31565e-10
      179.500   1.29427e-10
      179.600   1.27324e-10
      179.700   1.25254e-10
      179.800   1.23218e-10
      179.900   1.21214e-10
      180.000   1.19242e-10
      180.100   1.17303e-10
      180.200   1.15396e-10
      180.300   1.13519e-10
      180.400   1.11674e-10
      180.500   1.09860e-10
      180.600   1.08075e-10
      180.700   1.06320e-10
      180.800   1.04594e-10
      180.900   1.02897e-10
      181.000   1.01227e-10
      181.100   9.95856e-11
      181.200   9.79716e-11
      181.300   9.63842e-11
      181.400   9.48237e-11
      181.500   9.32888e-11
      181.600   9.17793e-11
      181.700   9.02948e-11
      181.800   8.88348e-11
      181.900   8.73989e-11
      182.000   8.59874e-11
      182.100   8.45980e-11
      182.200   8.32421e-11
      182.300   8.20001e-11
      182.400   8.07832e-11
      182.500   7.95844e-11
      182.600   7.84034e-11
      182.700   7.72400e-11
      182.800   7.60939e-11
      182.900   7.49646e-11
      183.000   7.38523e-11
      183.100   7.27566e-11
      183.200   7.16769e-11
      183.300   7.06127e-11
      183.400   6.95643e-11
      183.500   6.85315e-11
      183.600   6.75137e-11
      183.700   6.65109e-11
      183.800   6.55238e-11
      183.900   6.45514e-11
      184.000   6.35933e-11
      184.100   6.26497e-11
      184.200   6.17199e-11
      184.300   6.08039e-11
      184.400   5.99018e-11
      184.500   5.90129e-11
      184.600   5.81368e-11
      184.700   5.72738e-11
      184.800   5.64236e-11
      184.900   5.55858e-11
      185.000   5.47602e-11
      185.100   5.39551e-11
      185.200   5.32028e-11
      185.300   5.25149e-11
      185.400   5.18355e-11
      185.500   5.11647e-11
      185.600   5.05024e-11
      185.700   4.98484e-11
      185.800   4.92033e-11
      185.900   4.85662e-11
      186.000   4.79372e-11
      186.100   4.73159e-11
      186.200   4.67023e-11
      186.300   4.60961e-11
      186.400   4.54977e-11
      186.500   4.49066e-11
      186.600   4.43227e-11
      186.700   4.37456e-11
      186.800   4.31754e-11
      186.900   4.26124e-11
      187.000   4.20562e-11
      187.100   4.15063e-11
      187.200   4.09636e-11
      187.300   4.04276e-11
      187.400   3.98980e-11
      187.500   3.93750e-11
      187.600   3.88583e-11
      187.700   3.83479e-11
      187.800   3.78438e-11
      187.900   3.73458e-11
      188.000   3.68541e-11
      188.100   3.63471e-11
      188.200   3.57720e-11
      188.300   3.51117e-11
      188.400   3.44632e-11
      188.500   3.38264e-11
      188.600   3.32012e-11
      188.700   3.25876e-11
      188.800   3.19853e-11
      188.900   3.13939e-11
      189.000   3.08131e-11
      189.100   3.02427e-11
      189.200   2.96827e-11
      189.300   2.91329e-11
      189.400   2.85932e-11
      189.500   2.80659e-11
      189.600   2.75847e-11
      189.700   2.72523e-11
      189.800   2.69263e-11
      189.900   2.66046e-11
      190.000   2.62869e-11
      190.100   2.59731e-11
      190.200   2.56632e-11
      190.300   2.53571e-11
      190.400   2.50546e-11
      190.500   2.47559e-11
      190.600   2.44608e-11
      190.700   2.41693e-11
      190.800   2.38814e-11
      190.900   2.35971e-11
      191.000   2.33163e-11
      191.100   2.30391e-11
      191.200   2.27651e-11
      191.300   2.24945e-11
      191.400   2.22272e-11
      191.500   2.19630e-11
      191.600   2.17021e-11
      191.700   2.14443e-11
      191.800   2.11895e-11
      191.900   2.09377e-11
      192.000   2.06892e-11
      192.100   2.04435e-11
      192.200   2.02011e-11
      192.300   1.99615e-11
      192.400   1.97247e-11
      192.500   1.94772e-11
      192.600   1.91890e-11
      192.700   1.88699e-11
      192.800   1.85561e-11
      192.900   1.82473e-11
      193.000   1.79435e-11
      193.100   1.76450e-11
      193.200   1.73516e-11
      193.300   1.70632e-11
      193.400   1.67796e-11
      193.500   1.65006e-11
      193.600   1.62262e-11
      193.700   1.59562e-11
      193.800   1.56909e-11
      193.900   1.54300e-11
      194.000   1.51778e-11
      194.100   1.50169e-11
      194.200   1.48872e-11
      194.300   1.47608e-11
      194.400   1.46356e-11
      194.500   1.45115e-11
      194.600   1.43884e-11
      194.700   1.42665e-11
      194.800   1.41457e-11
      194.900   1.40258e-11
      195.000   1.39070e-11
      195.100   1.37893e-11
      195.200   1.36727e-11
      195.300   1.35569e-11
      195.400   1.34421e-11
      195.500   1.33267e-11
      195.600   1.31710e-11
      195.700   1.29481e-11
      195.800   1.27288e-11
      195.900   1.25131e-11
      196.000   1.22987e-11
      196.100   1.20878e-11
      196.200   1.18805e-11
      196.300   1.16765e-11
      196.400   1.14758e-11
      196.500   1.12784e-11
      196.600   1.10842e-11
      196.700   1.08932e-11
      196.800   1.07054e-11
      196.900   1.05209e-11
      197.000   1.03394e-11
      197.100   1.01608e-11
      197.200   9.98520e-12
      197.300   9.81239e-12
      197.400   9.64232e-12
      197.500   9.47507e-12
      197.600   9.31054e-12
      197.700   9.14899e-12
      197.800   8.99017e-12
      197.900   8.83387e-12
      198.000   8.68014e-12
      198.100   8.52897e-12
      198.200   8.38026e-12
      198.300   8.23396e-12
      198.400   8.09016e-12
      198.500   7.94895e-12
      198.600   7.81015e-12
      198.700   7.68522e-12
      198.800   7.57859e-12
      198.900   7.48134e-12
      199.000   7.38524e-12
      199.100   7.29031e-12
      199.200   7.19657e-12
      199.300   7.10412e-12
      199.400   7.01283e-12
      199.500   6.92269e-12
      199.600   6.83364e-12
      199.700   6.74572e-12
      199.800   6.65892e-12
      199.900   6.57318e-12
      200.000   6.48851e-12
      200.100   6.40534e-12
      200.200   6.32291e-12
      200.300   6.24159e-12
      200.400   6.16128e-12
      200.500   6.08197e-12
      200.600   6.00372e-12
      200.700   5.92646e-12
      200.800   5.85015e-12
      200.900   5.77487e-12
      201.000   5.70055e-12
      201.100   5.62723e-12
      201.200   5.55485e-12
      201.300   5.48338e-12
      201.400   5.41287e-12
      201.500   5.34324e-12
      201.600   5.27450e-12
      201.700   5.20666e-12
      201.800   5.13968e-12
      201.900   5.07205e-12
      202.000   4.98075e-12
      202.100   4.87944e-12
      202.200   4.78020e-12
      202.300   4.68345e-12
      202.400   4.58952e-12
      202.500   4.49771e-12
      202.600   4.40770e-12
      202.700   4.31951e-12
      202.800   4.23310e-12
      202.900   4.14845e-12
      203.000   4.06551e-12
      203.100   3.98428e-12
      203.200   3.90460e-12
      203.300   3.82650e-12
      203.400   3.74996e-12
      203.500   3.67496e-12
      203.600   3.60386e-12
      203.700   3.54091e-12
      203.800   3.47995e-12
      203.900   3.42011e-12
      204.000   3.36129e-12
      204.100   3.30350e-12
      204.200   3.24674e-12
      204.300   3.19095e-12
      204.400   3.13614e-12
      204.500   3.08229e-12
      204.600   3.02937e-12
      204.700   2.97738e-12
      204.800   2.92634e-12
      204.900   2.87620e-12
      205.000   2.82694e-12
      205.100   2.77855e-12
      205.200   2.73098e-12
      205.300   2.68426e-12
      205.400   2.63835e-12
      205.500   2.59322e-12
      205.600   2.54890e-12
      205.700   2.50496e-12
      205.800   2.46168e-12
      205.900   2.41917e-12
      206.000   2.37744e-12
      206.100   2.33641e-12
      206.200   2.29608e-12
      206.300   2.25646e-12
      206.400   2.21753e-12
      206.500   2.17924e-12
      206.600   2.14162e-12
      206.700   2.10465e-12
      206.800   2.06830e-12
      206.900   2.03256e-12
      207.000   1.99744e-12
      207.100   1.96293e-12
      207.200   1.92903e-12
      207.300   1.89568e-12
      207.400   1.86289e-12
      207.500   1.83065e-12
      207.600   1.79897e-12
      207.700   1.76780e-12
      207.800   1.73716e-12
      207.900   1.70703e-12
      208.000   1.67741e-12
      208.100   1.64828e-12
      208.200   1.61964e-12
      208.300   1.59148e-12
      208.400   1.56381e-12
      208.500   1.53661e-12
      208.600   1.50985e-12
      208.700   1.48354e-12
      208.800   1.45767e-12
      208.900   1.43139e-12
      209.000   1.40196e-12
      209.100   1.37071e-12
      209.200   1.34014e-12
      209.300   1.31021e-12
      209.400   1.28094e-12
      209.500   1.25230e-12
      209.600   1.22428e-12
      209.700   1.19688e-12
      209.800   1.17010e-12
      209.900   1.14389e-12
      210.000   1.11825e-12
      210.100   1.09317e-12
      210.200   1.06864e-12
      210.300   1.04464e-12
      210.400   1.02117e-12
      210.500   9.98206e-13
      210.600   9.75746e-13
      210.700   9.53780e-13
      210.800   9.32295e-13
      210.900   9.11278e-13
      211.000   8.90721e-13
      211.100   8.70621e-13
      211.200   8.50962e-13
      211.300   8.31752e-13
      211.400   8.12977e-13
      211.500   7.94606e-13
      211.600   7.76643e-13
      211.700   7.59080e-13
      211.800   7.41893e-13
      211.900   7.25089e-13
      212.000   7.08666e-13
      212.100   6.92601e-13
      212.200   6.76887e-13
      212.300   6.60914e-13
      212.400   6.43528e-13
      212.500   6.25889e-13
      212.600   6.08723e-13
      212.700   5.92016e-13
      212.800   5.75756e-13
      212.900   5.59938e-13
      213.000   5.44542e-13
      213.100   5.29575e-13
      213.200   5.15010e-13
      213.300   5.00837e-13
      213.400   4.87043e-13
      213.500   4.73622e-13
      213.600   4.60560e-13
      213.700   4.47855e-13
      213.800   4.35489e-13
      213.900   4.23465e-13
      214.000   4.11763e-13
      214.100   4.00562e-13
      214.200   3.91877e-13
      214.300   3.84832e-13
      214.400   3.77913e-13
      214.500   3.71117e-13
      214.600   3.64445e-13
      214.700   3.57892e-13
      214.800   3.51457e-13
      214.900   3.45139e-13
      215.000   3.38932e-13
      215.100   3.32838e-13
      215.200   3.26858e-13
      215.300   3.20987e-13
      215.400   3.15222e-13
      215.500   3.09560e-13
      215.600   3.04006e-13
      215.700   2.98548e-13
      215.800   2.93188e-13
      215.900   2.87929e-13
      216.000   2.82326e-13
      216.100   2.75783e-13
      216.200   2.68998e-13
      216.300   2.62380e-13
      216.400   2.55925e-13
      216.500   2.49626e-13
      216.600   2.43484e-13
      216.700   2.37494e-13
      216.800   2.31650e-13
      216.900   2.25951e-13
      217.000   2.20391e-13
      217.100   2.14967e-13
      217.200   2.09677e-13
      217.300   2.04518e-13
      217.400   1.99484e-13
      217.500   1.94576e-13
      217.600   1.89786e-13
      217.700   1.85113e-13
      217.800   1.80556e-13
      217.900   1.76096e-13
      218.000   1.71321e-13
      218.100   1.66673e-13
      218.200   1.62151e-13
      218.300   1.57753e-13
      218.400   1.53477e-13
      218.500   1.49313e-13
      218.600   1.45263e-13
      218.700   1.41320e-13
      218.800   1.37483e-13
      218.900   1.33750e-13
      219.000   1.30115e-13
      219.100   1.26577e-13
      219.200   1.23135e-13
      219.300   1.19786e-13
      219.400   1.16524e-13
      219.500   1.13351e-13
      219.600   1.10263e-13
      219.700   1.07256e-13
      219.800   1.04332e-13
      219.900   1.01485e-13
      220.000   9.87134e-14
      220.100   9.60162e-14
      220.200   9.33915e-14
      220.300   9.08375e-14
      220.400   8.83512e-14
      220.500   8.59325e-14
      220.600   8.35788e-14
      220.700   8.12872e-14
      220.800   7.90568e-14
      220.900   7.68878e-14
      221.000   7.47761e-14
      221.100   7.27206e-14
      221.200   7.07216e-14
      221.300   6.87759e-14
      221.400   6.68823e-14
      221.500   6.50402e-14
      221.600   6.32475e-14
      221.700   6.15029e-14
      221.800   5.99160e-14
      221.900   5.86607e-14
      222.000   5.75126e-14
      222.100   5.63860e-14
      222.200   5.52813e-14
      222.300   5.41974e-14
      222.400   5.31346e-14
      222.500   5.20919e-14
      222.600   5.10695e-14
      222.700   5.00665e-14
      222.800   4.90825e-14
      222.900   4.81176e-14
      223.000   4.71711e-14
      223.100   4.62426e-14
      223.200   4.53322e-14
      223.300   4.44391e-14
      223.400   4.35634e-14
      223.500   4.27042e-14
      223.600   4.18619e-14
      223.700   4.10357e-14
      223.800   4.02108e-14
      223.900   3.93008e-14
      224.000   3.83961e-14
      224.100   3.75118e-14
      224.200   3.66475e-14
      224.300   3.58027e-14
      224.400   3.49766e-14
      224.500   3.41696e-14
      224.600   3.33803e-14
      224.700   3.26094e-14
      224.800   3.18555e-14
      224.900   3.11186e-14
      225.000   3.03984e-14
      225.100   2.96944e-14
      225.200   2.90062e-14
      225.300   2.83341e-14
      225.400   2.76767e-14
      225.500   2.70342e-14
      225.600   2.64063e-14
      225.700   2.57929e-14
      225.800   2.51931e-14
      225.900   2.47454e-14
      226.000   2.43617e-14
      226.100   2.39897e-14
      226.200   2.36233e-14
      226.300   2.32639e-14
      226.400   2.29108e-14
      226.500   2.25625e-14
      226.600   2.22188e-14
      226.700   2.18800e-14
      226.800   2.15459e-14
      226.900   2.12168e-14
      227.000   2.08925e-14
      227.100   2.05729e-14
      227.200   2.02584e-14
      227.300   1.99485e-14
      227.400   1.96433e-14
      227.500   1.93427e-14
      227.600   1.90467e-14
      227.700   1.87552e-14
      227.800   1.84681e-14
      227.900   1.81629e-14
      228.000   1.78042e-14
      228.100   1.74194e-14
      228.200   1.70427e-14
      228.300   1.66742e-14
      228.400   1.63137e-14
      228.500   1.59608e-14
      228.600   1.56156e-14
      228.700   1.52779e-14
      228.800   1.49473e-14
      228.900   1.46241e-14
      229.000   1.43078e-14
      229.100   1.39983e-14
      229.200   1.36955e-14
      229.300   1.33993e-14
      229.400   1.31095e-14
      229.500   1.28260e-14
      229.600   1.25486e-14
      229.700   1.22773e-14
      229.800   1.20119e-14
      229.900   1.17522e-14
      230.000   1.14953e-14
      230.100   1.12228e-14
      230.200   1.09440e-14
      230.300   1.06724e-14
      230.400   1.04073e-14
      230.500   1.01489e-14
      230.600   9.89699e-15
      230.700   9.65128e-15
      230.800   9.41171e-15
      230.900   9.17812e-15
      231.000   8.95025e-15
      231.100   8.72802e-15
      231.200   8.51136e-15
      231.300   8.30009e-15
      231.400   8.09412e-15
      231.500   7.89313e-15
      231.600   7.69709e-15
      231.700   7.50598e-15
      231.800   7.31963e-15
      231.900   7.13785e-15
      232.000   6.96057e-15
      232.100   6.78766e-15
      232.200   6.64108e-15
      232.300   6.52859e-15
      232.400   6.42623e-15
      232.500   6.32550e-15
      232.600   6.22639e-15
      232.700   6.12885e-15
      232.800   6.03287e-15
      232.900   5.93835e-15
      233.000   5.84524e-15
      233.100   5.75363e-15
      233.200   5.66347e-15
      233.300   5.57475e-15
      233.400   5.48744e-15
      233.500   5.40150e-15
      233.600   5.31695e-15
      233.700   5.23373e-15
      233.800   5.14958e-15
      233.900   5.06649e-15
      234.000   4.98474e-15
      234.100   4.90429e-15
      234.200   4.82519e-15
      234.300   4.74734e-15
      234.400   4.67074e-15
      234.500   4.59539e-15
      234.600   4.52124e-15
      234.700   4.44831e-15
      234.800   4.37656e-15
      234.900   4.30595e-15
      235.000   4.23647e-15
      235.100   4.16811e-15
      235.200   4.10086e-15
      235.300   4.03470e-15
      235.400   3.96957e-15
      235.500   3.90552e-15
      235.600   3.84251e-15
      235.700   3.78048e-15
      235.800   3.71949e-15
      235.900   3.65948e-15
      236.000   3.60046e-15
      236.100   3.54235e-15
      236.200   3.48518e-15
      236.300   3.42892e-15
      236.400   3.37358e-15
      236.500   3.31911e-15
      236.600   3.26781e-15
      236.700   3.22233e-15
      236.800   3.18065e-15
      236.900   3.13950e-15
      237.000   3.09887e-15
      237.100   3.05875e-15
      237.200   3.01915e-15
      237.300   2.98005e-15
      237.400   2.94145e-15
      237.500   2.90334e-15
      237.600   2.86565e-15
      237.700   2.82848e-15
      237.800   2.79179e-15
      237.900   2.75553e-15
      238.000   2.71975e-15
      238.100   2.68441e-15
      238.200   2.64952e-15
      238.300   2.61506e-15
      238.400   2.58102e-15
      238.500   2.54742e-15
      238.600   2.51423e-15
      238.700   2.48147e-15
      238.800   2.44911e-15
      238.900   2.41903e-15
      239.000   2.39590e-15
      239.100   2.37372e-15
      239.200   2.35174e-15
      239.300   2.32994e-15
      239.400   2.30832e-15
      239.500   2.28690e-15
      239.600   2.26563e-15
      239.700   2.24456e-15
      239.800   2.22367e-15
      239.900   2.20294e-15
      240.000   2.18239e-15
      240.100   2.16200e-15
      240.200   2.14179e-15
      240.300   2.12175e-15
      240.400   2.10187e-15
      240.500   2.08217e-15
      240.600   2.06263e-15
      240.700   2.04325e-15
      240.800   2.02403e-15
      240.900   2.00498e-15
      241.000   1.98608e-15
      241.100   1.96735e-15
      241.200   1.94879e-15
      241.300   1.93037e-15
      241.400   1.91211e-15
      241.500   1.89402e-15
      241.600   1.87608e-15
      241.700   1.85829e-15
      241.800   1.84065e-15
      241.900   1.82317e-15
      242.000   1.80584e-15
      242.100   1.78867e-15
      242.200   1.77165e-15
      242.300   1.75479e-15
      242.400   1.73807e-15
      242.500   1.72151e-15
      242.600   1.70509e-15
      242.700   1.68882e-15
      242.800   1.67270e-15
      242.900   1.65673e-15
      243.000   1.64090e-15
      243.100   1.62521e-15
      243.200   1.60967e-15
      243.300   1.59427e-15
      243.400   1.57902e-15
      243.500   1.56391e-15
      243.600   1.54895e-15
      243.700   1.53412e-15
      243.800   1.51944e-15
      243.900   1.50489e-15
      244.000   1.49048e-15
      244.100   1.47621e-15
      244.200   1.46208e-15
      244.300   1.44807e-15
      244.400   1.43420e-15
      244.500   1.42047e-15
      244.600   1.40686e-15
      244.700   1.39339e-15
      244.800   1.38006e-15
      244.900   1.36685e-15
      245.000   1.35377e-15
      245.100   1.34082e-15
      245.200   1.32800e-15
      245.300   1.31530e-15
      245.400   1.30271e-15
      245.500   1.29026e-15
      245.600   1.27793e-15
      245.700   1.26572e-15
      245.800   1.25362e-15
      245.900   1.24165e-15
      246.000   1.22981e-15
      246.100   1.21808e-15
      246.200   1.20646e-15
      246.300   1.19495e-15
      246.400   1.18357e-15
      246.500   1.17229e-15
      246.600   1.16113e-15
      246.700   1.15007e-15
      246.800   1.13913e-15
      246.900   1.12829e-15
      247.000   1.11757e-15
      247.100   1.10694e-15
      247.200   1.09643e-15
      247.300   1.08602e-15
      247.400   1.07572e-15
      247.500   1.06552e-15
      247.600   1.05541e-15
      247.700   1.04541e-15
      247.800   1.03550e-15
      247.900   1.02569e-15
      248.000   1.01599e-15
      248.100   1.00639e-15
      248.200   9.96880e-16
      248.300   9.87461e-16
      248.400   9.78134e-16
      248.500   9.66564e-16
      248.600   9.51256e-16
      248.700   9.33713e-16
      248.800   9.16490e-16
      248.900   8.99590e-16
      249.000   8.82999e-16
      249.100   8.66737e-16
      249.200   8.50783e-16
      249.300   8.35120e-16
      249.400   8.19744e-16
      249.500   8.04652e-16
      249.600   7.89835e-16
      249.700   7.75292e-16
      249.800   7.61014e-16
      249.900   7.46999e-16
      250.000   7.33244e-16
      250.100   7.19761e-16
      250.200   7.06521e-16
      250.300   6.93540e-16
      250.400   6.80792e-16
      250.500   6.68280e-16
      250.600   6.56001e-16
      250.700   6.43944e-16
      250.800   6.32111e-16
      250.900   6.20495e-16
      251.000   6.09093e-16
      251.100   5.97900e-16
      251.200   5.86919e-16
      251.300   5.76149e-16
      251.400   5.65578e-16
      251.500   5.55198e-16
      251.600   5.41200e-16
      251.700   5.20254e-16
      251.800   4.99056e-16
      251.900   4.78701e-16
      252.000   4.59154e-16
      252.100   4.40397e-16
      252.200   4.22382e-16
      252.300   4.05109e-16
      252.400   3.88548e-16
      252.500   3.72658e-16
      252.600   3.58197e-16
      252.700   3.49028e-16
      252.800   3.44933e-16
      252.900   3.40888e-16
      253.000   3.36890e-16
      253.100   3.32940e-16
      253.200   3.29036e-16
      253.300   3.25259e-16
      253.400   3.21560e-16
      253.500   3.17908e-16
      253.600   3.14297e-16
      253.700   3.10671e-16
      253.800   3.06820e-16
      253.900   3.02965e-16
      254.000   2.99157e-16
      254.100   2.95396e-16
      254.200   2.91681e-16
      254.300   2.88013e-16
      254.400   2.84391e-16
      254.500   2.80814e-16
      254.600   2.77279e-16
      254.700   2.73790e-16
      254.800   2.70346e-16
      254.900   2.66944e-16
      255.000   2.63584e-16
      255.100   2.60262e-16
      255.200   2.56983e-16
      255.300   2.53744e-16
      255.400   2.50544e-16
      255.500   2.47384e-16
      255.600   2.44262e-16
      255.700   2.41178e-16
      255.800   2.38131e-16
      255.900   2.35122e-16
      256.000   2.32148e-16
      256.100   2.29213e-16
      256.200   2.26313e-16
      256.300   2.23447e-16
      256.400   2.20620e-16
      256.500   2.17824e-16
      256.600   2.15062e-16
      256.700   2.12334e-16
      256.800   2.09639e-16
      256.900   2.06503e-16
      257.000   2.02651e-16
      257.100   1.98634e-16
      257.200   1.94695e-16
      257.300   1.90832e-16
      257.400   1.87072e-16
      257.500   1.83395e-16
      257.600   1.79792e-16
      257.700   1.76258e-16
      257.800   1.72791e-16
      257.900   1.69391e-16
      258.000   1.66057e-16
      258.100   1.62785e-16
      258.200   1.59577e-16
      258.300   1.56431e-16
      258.400   1.53344e-16
      258.500   1.50316e-16
      258.600   1.47347e-16
      258.700   1.44435e-16
      258.800   1.41579e-16
      258.900   1.38779e-16
      259.000   1.36031e-16
      259.100   1.33338e-16
      259.200   1.30696e-16
      259.300   1.28108e-16
      259.400   1.25569e-16
      259.500   1.23078e-16
      259.600   1.20637e-16
      259.700   1.18243e-16
      259.800   1.15895e-16
      259.900   1.13591e-16
      260.000   1.11334e-16
      260.100   1.08979e-16
      260.200   1.06498e-16
      260.300   1.04041e-16
      260.400   1.01640e-16
      260.500   9.92932e-17
      260.600   9.69986e-17
      260.700   9.47562e-17
      260.800   9.25662e-17
      260.900   9.04243e-17
      261.000   8.83326e-17
      261.100   8.62883e-17
      261.200   8.42807e-17
      261.300   8.23182e-17
      261.400   8.04009e-17
      261.500   7.85294e-17
      261.600   7.67067e-17
      261.700   7.49271e-17
      261.800   7.31882e-17
      261.900   7.14883e-17
      262.000   6.98275e-17
      262.100   6.82046e-17
      262.200   6.66197e-17
      262.300   6.50704e-17
      262.400   6.35569e-17
      262.500   6.20776e-17
      262.600   6.06322e-17
      262.700   5.92204e-17
      262.800   5.78411e-17
      262.900   5.64927e-17
      263.000   5.51767e-17
      263.100   5.38904e-17
      263.200   5.26344e-17
      263.300   5.14074e-17
      263.400   5.02085e-17
      263.500   4.90376e-17
      263.600   4.78937e-17
      263.700   4.67761e-17
      263.800   4.56840e-17
      263.900   4.46181e-17
      264.000   4.35762e-17
      264.100   4.25582e-17
      264.200   4.15636e-17
      264.300   4.05928e-17
      264.400   3.96443e-17
      264.500   3.87175e-17
      264.600   3.78121e-17
      264.700   3.69280e-17
      264.800   3.60639e-17
      264.900   3.52205e-17
      265.000   3.43965e-17
      265.100   3.35913e-17
      265.200   3.28051e-17
      265.300   3.20371e-17
      265.400   3.12778e-17
      265.500   3.05328e-17
      265.600   2.98057e-17
      265.700   2.90952e-17
      265.800   2.84026e-17
      265.900   2.77261e-17
      266.000   2.70661e-17
      266.100   2.64217e-17
      266.200   2.57926e-17
      266.300   2.51782e-17
      266.400   2.45786e-17
      266.500   2.39930e-17
      266.600   2.34214e-17
      266.700   2.28634e-17
      266.800   2.23189e-17
      266.900   2.17871e-17
      267.000   2.12678e-17
      267.100   2.07609e-17
      267.200   2.02664e-17
      267.300   1.97835e-17
      267.400   1.93119e-17
      267.500   1.88516e-17
      267.600   1.84023e-17
      267.700   1.79637e-17
      267.800   1.75354e-17
      267.900   1.71174e-17
      268.000   1.67094e-17
      268.100   1.63111e-17
      268.200   1.59224e-17
      268.300   1.55430e-17
      268.400   1.51724e-17
      268.500   1.48107e-17
      268.600   1.44576e-17
      268.700   1.41130e-17
      268.800   1.37766e-17
      268.900   1.34482e-17
      269.000   1.31277e-17
      269.100   1.28148e-17
      269.200   1.25094e-17
      269.300   1.22113e-17
      269.400   1.19201e-17
      269.500   1.16360e-17
      269.600   1.13587e-17
      269.700   1.10511e-17
      269.800   1.07428e-17
      269.900   1.04427e-17
      270.000   1.01511e-17
      270.100   9.86764e-18
      270.200   9.59231e-18
      270.300   9.32452e-18
      270.400   9.06419e-18
      270.500   8.81108e-18
      270.600   8.56499e-18
      270.700   8.32573e-18
      270.800   8.09324e-18
      270.900   7.86702e-18
      271.000   7.64722e-18
      271.100   7.43344e-18
      271.200   7.22557e-18
      271.300   7.02357e-18
      271.400   6.82710e-18
      271.500   6.63618e-18
      271.600   6.45043e-18
      271.700   6.26992e-18
      271.800   6.09444e-18
      271.900   5.92382e-18
      272.000   5.75798e-18
      272.100   5.59668e-18
      272.200   5.43991e-18
      272.300   5.28744e-18
      272.400   5.13920e-18
      272.500   4.99515e-18
      272.600   4.85503e-18
      272.700   4.71880e-18
      272.800   4.59183e-18
      272.900   4.48413e-18
      273.000   4.38620e-18
      273.100   4.29036e-18
      273.200   4.19659e-18
      273.300   4.10490e-18
      273.400   4.01517e-18
      273.500   3.92739e-18
      273.600   3.84151e-18
      273.700   3.75749e-18
      273.800   3.67529e-18
      273.900   3.58314e-18
      274.000   3.47025e-18
      274.100   3.36059e-18
      274.200   3.25436e-18
      274.300   3.15145e-18
      274.400   3.05129e-18
      274.500   2.95331e-18
      274.600   2.85821e-18
      274.700   2.76616e-18
      274.800   2.67699e-18
      274.900   2.59063e-18
      275.000   2.50703e-18
      275.100   2.42610e-18
      275.200   2.34773e-18
      275.300   2.27184e-18
      275.400   2.19839e-18
      275.500   2.12728e-18
      275.600   2.05839e-18
      275.700   1.99173e-18
      275.800   1.92721e-18
      275.900   1.86472e-18
      276.000   1.80816e-18
      276.100   1.76372e-18
      276.200   1.72241e-18
      276.300   1.68205e-18
      276.400   1.64262e-18
      276.500   1.60408e-18
      276.600   1.56646e-18
      276.700   1.52968e-18
      276.800   1.49377e-18
      276.900   1.45867e-18
      277.000   1.42439e-18
      277.100   1.39089e-18
      277.200   1.35817e-18
      277.300   1.32621e-18
      277.400   1.29498e-18
      277.500   1.26447e-18
      277.600   1.23467e-18
      277.700   1.20555e-18
      277.800   1.17711e-18
      277.900   1.14933e-18
      278.000   1.12220e-18
      278.100   1.09511e-18
      278.200   1.06203e-18
      278.300   1.02833e-18
      278.400   9.95688e-19
      278.500   9.64043e-19
      278.600   9.33385e-19
      278.700   9.03700e-19
      278.800   8.74944e-19
      278.900   8.47055e-19
      279.000   8.20022e-19
      279.100   7.93844e-19
      279.200   7.69604e-19
      279.300   7.48469e-19
      279.400   7.28125e-19
      279.500   7.08338e-19
      279.600   6.89073e-19
      279.700   6.70332e-19
      279.800   6.52083e-19
      279.900   6.34318e-19
      280.000   6.17030e-19
      280.100   6.00200e-19
      280.200   5.83829e-19
      280.300   5.67891e-19
      280.400   5.52377e-19
      280.500   5.37289e-19
      280.600   5.22601e-19
      280.700   5.08307e-19
      280.800   4.94397e-19
      280.900   4.80859e-19
      281.000   4.67685e-19
      281.100   4.54865e-19
      281.200   4.42388e-19
      281.300   4.30895e-19
      281.400   4.20907e-19
      281.500   4.11744e-19
      281.600   4.02774e-19
      281.700   3.93997e-19
      281.800   3.85413e-19
      281.900   3.77006e-19
      282.000   3.68780e-19
      282.100   3.60730e-19
      282.200   3.52859e-19
      282.300   3.45150e-19
      282.400   3.37607e-19
      282.500   3.30225e-19
      282.600   3.23003e-19
      282.700   3.15934e-19
      282.800   3.09016e-19
      282.900   3.02253e-19
      283.000   2.95631e-19
      283.100   2.89156e-19
      283.200   2.82820e-19
      283.300   2.76621e-19
      283.400   2.70557e-19
      283.500   2.63914e-19
      283.600   2.57269e-19
      283.700   2.50777e-19
      283.800   2.44449e-19
      283.900   2.38281e-19
      284.000   2.32263e-19
      284.100   2.26394e-19
      284.200   2.20671e-19
      284.300   2.15093e-19
      284.400   2.09652e-19
      284.500   2.04348e-19
      284.600   1.99176e-19
      284.700   1.94135e-19
      284.800   1.89219e-19
      284.900   1.84425e-19
      285.000   1.79749e-19
      285.100   1.75191e-19
      285.200   1.70749e-19
      285.300   1.66417e-19
      285.400   1.62193e-19
      285.500   1.58076e-19
      285.600   1.54063e-19
      285.700   1.50149e-19
      285.800   1.46336e-19
      285.900   1.42618e-19
      286.000   1.38996e-19
      286.100   1.35467e-19
      286.200   1.32023e-19
      286.300   1.28667e-19
      286.400   1.25397e-19
      286.500   1.22208e-19
      286.600   1.18969e-19
      286.700   1.15474e-19
      286.800   1.11925e-19
      286.900   1.08484e-19
      287.000   1.05148e-19
      287.100   1.01913e-19
      287.200   9.87775e-20
      287.300   9.57365e-20
      287.400   9.27879e-20
      287.500   8.99294e-20
      287.600   8.71582e-20
      287.700   8.44708e-20
      287.800   8.18667e-20
      287.900   7.93416e-20
      288.000   7.68945e-20
      288.100   7.45216e-20
      288.200   7.22242e-20
      288.300   6.99978e-20
      288.400   6.78380e-20
      288.500   6.57455e-20
      288.600   6.37153e-20
      288.700   6.17703e-20
      288.800   6.02249e-20
      288.900   5.88834e-20
      289.000   5.75712e-20
      289.100   5.62882e-20
      289.200   5.50339e-20
      289.300   5.38078e-20
      289.400   5.26087e-20
      289.500   5.14365e-20
      289.600   5.02903e-20
      289.700   4.91703e-20
      289.800   4.80747e-20
      289.900   4.70031e-20
      290.000   4.59560e-20
      290.100   4.49325e-20
      290.200   4.39325e-20
      290.300   4.29547e-20
      290.400   4.19988e-20
      290.500   4.10646e-20
      290.600   4.01506e-20
      290.700   3.92572e-20
      290.800   3.83842e-20
      290.900   3.75302e-20
      291.000   3.66948e-20
      291.100   3.58783e-20
      291.200   3.50803e-20
      291.300   3.42998e-20
      291.400   3.35370e-20
      291.500   3.27909e-20
      291.600   3.20613e-20
      291.700   3.13483e-20
      291.800   3.06513e-20
      291.900   2.99705e-20
      292.000   2.90943e-20
      292.100   2.82108e-20
      292.200   2.73521e-20
      292.300   2.65188e-20
      292.400   2.57109e-20
      292.500   2.49271e-20
      292.600   2.41671e-20
      292.700   2.34303e-20
      292.800   2.27158e-20
      292.900   2.20230e-20
      293.000   2.13510e-20
      293.100   2.06993e-20
      293.200   2.00672e-20
      293.300   1.94544e-20
      293.400   1.88606e-20
      293.500   1.82853e-20
      293.600   1.77275e-20
      293.700   1.71864e-20
      293.800   1.66618e-20
      293.900   1.61532e-20
      294.000   1.56651e-20
      294.100   1.52360e-20
      294.200   1.48518e-20
      294.300   1.44773e-20
      294.400   1.41119e-20
      294.500   1.37558e-20
      294.600   1.34087e-20
      294.700   1.30702e-20
      294.800   1.27402e-20
      294.900   1.24188e-20
      295.000   1.21056e-20
      295.100   1.18004e-20
      295.200   1.15028e-20
      295.300   1.12126e-20
      295.400   1.09297e-20
      295.500   1.06540e-20
      295.600   1.03852e-20
      295.700   1.01230e-20
      295.800   9.86746e-21
      295.900   9.61815e-21
      296.000   9.37519e-21
      296.100   9.13823e-21
      296.200   8.90734e-21
      296.300   8.68232e-21
      296.400   8.46333e-21
      296.500   8.24960e-21
      296.600   8.04125e-21
      296.700   7.83813e-21
      296.800   7.64014e-21
      296.900   7.44704e-21
      297.000   7.25879e-21
      297.100   7.07522e-21
      297.200   6.89626e-21
      297.300   6.72176e-21
      297.400   6.55163e-21
      297.500   6.38572e-21
      297.600   6.22411e-21
      297.700   6.06663e-21
      297.800   5.91316e-21
      297.900   5.76352e-21
      298.000   5.61765e-21
      298.100   5.47539e-21
      298.200   5.33670e-21
      298.300   5.19044e-21
      298.400   5.03116e-21
      298.500   4.87084e-21
      298.600   4.71554e-21
      298.700   4.56514e-21
      298.800   4.41939e-21
      298.900   4.27864e-21
      299.000   4.14233e-21
      299.100   4.01026e-21
      299.200   3.88227e-21
      299.300   3.75833e-21
      299.400   3.63826e-21
      299.500   3.52196e-21
      299.600   3.40931e-21
      299.700   3.30021e-21
      299.800   3.19446e-21
      299.900   3.09213e-21
      300.000   2.99299e-21
      300.100   2.89704e-21
      300.192   2.81151e-21
      300.285   2.72754e-21
      300.377   2.64693e-21
      300.470   2.56787e-21
      300.562   2.49194e-21
      300.654   2.41821e-21
      300.747   2.34585e-21
      300.839   2.27640e-21
      300.932   2.20821e-21
      301.025   2.14205e-21
      301.117   2.07856e-21
      301.210   2.01624e-21
      301.303   1.95576e-21
      301.395   1.89775e-21
      301.488   1.84464e-21
      301.581   1.80575e-21
      301.674   1.76803e-21
      301.766   1.73149e-21
      301.859   1.69528e-21
      301.952   1.65985e-21
      302.045   1.62514e-21
      302.138   1.59116e-21
      302.231   1.55792e-21
      302.324   1.52536e-21
      302.417   1.49347e-21
      302.510   1.46222e-21
      302.603   1.43166e-21
      302.696   1.40168e-21
      302.789   1.37234e-21
      302.882   1.34358e-21
      302.976   1.31515e-21
      303.069   1.28758e-21
      303.162   1.26059e-21
      303.255   1.23415e-21
      303.349   1.20798e-21
      303.442   1.18260e-21
      303.535   1.15778e-21
      303.629   1.13321e-21
      303.722   1.10940e-21
      303.816   1.08583e-21
      303.909   1.06300e-21
      304.003   1.04040e-21
      304.096   1.01850e-21
      304.190   9.96825e-22
      304.283   9.75826e-22
      304.377   9.55060e-22
      304.471   9.34705e-22
      304.564   9.14992e-22
      304.658   8.94610e-22
      304.752   8.69053e-22
      304.846   8.43641e-22
      304.939   8.19220e-22
      305.033   7.95236e-22
      305.127   7.71943e-22
      305.221   7.49324e-22
      305.315   7.27363e-22
      305.409   7.06027e-22
      305.503   6.85316e-22
      305.597   6.65197e-22
      305.691   6.45659e-22
      305.785   6.32153e-22
      305.879   6.20404e-22
      305.973   6.08982e-22
      306.067   5.97755e-22
      306.161   5.86740e-22
      306.255   5.75922e-22
      306.350   5.65183e-22
      306.444   5.54749e-22
      306.538   5.44504e-22
      306.633   5.34347e-22
      306.727   5.24472e-22
      306.821   5.14775e-22
      306.916   5.05159e-22
      307.010   4.95815e-22
      307.105   4.86548e-22
      307.199   4.77547e-22
      307.294   4.68610e-22
      307.388   4.59935e-22
      307.483   4.51327e-22
      307.577   4.42965e-22
      307.672   4.34668e-22
      307.767   4.26525e-22
      307.861   4.17432e-22
      307.956   4.06483e-22
      308.051   3.95472e-22
      308.146   3.84758e-22
      308.240   3.74439e-22
      308.335   3.64285e-22
      308.430   3.54398e-22
      308.525   3.44778e-22
      308.620   3.35419e-22
      308.715   3.26310e-22
      308.810   3.17444e-22
      308.905   3.08815e-22
      309.000   3.00418e-22
      309.095   2.92245e-22
      309.190   2.84296e-22
      309.285   2.76557e-22
      309.380   2.69027e-22
      309.476   2.61625e-22
      309.571   2.54494e-22
      309.666   2.47555e-22
      309.761   2.40805e-22
      309.857   2.34169e-22
      309.952   2.27810e-22
      310.047   2.21927e-22
      310.143   2.16212e-22
      310.238   2.10699e-22
      310.334   2.05271e-22
      310.429   2.00032e-22
      310.525   1.94875e-22
      310.620   1.89902e-22
      310.716   1.85002e-22
      310.811   1.80188e-22
      310.907   1.75421e-22
      311.003   1.70777e-22
      311.098   1.66301e-22
      311.194   1.61895e-22
      311.290   1.57606e-22
      311.386   1.53430e-22
      311.481   1.49405e-22
      311.577   1.45445e-22
      311.673   1.41587e-22
      311.769   1.37831e-22
      311.865   1.34175e-22
      311.961   1.30618e-22
      312.057   1.27175e-22
      312.153   1.23828e-22
      312.249   1.20569e-22
      312.345   1.17396e-22
      312.441   1.14304e-22
      312.537   1.11294e-22
      312.633   1.08363e-22
      312.730   1.05478e-22
      312.826   1.02699e-22
      312.922   9.99925e-23
      313.018   9.73568e-23
      313.115   9.47636e-23
      313.211   9.22642e-23
      313.307   8.98308e-23
      313.404   8.74374e-23
      313.500   8.51300e-23
      313.597   8.28616e-23
      313.693   8.06756e-23
      313.790   7.85243e-23
      313.886   7.66155e-23
      313.983   7.52001e-23
      314.079   7.39901e-23
      314.176   7.27876e-23
      314.273   7.16040e-23
      314.369   7.04528e-23
      314.466   6.93082e-23
      314.563   6.81818e-23
      314.660   6.70743e-23
      314.756   6.59956e-23
      314.853   6.49233e-23
      314.950   6.38688e-23
      315.047   6.28318e-23
      315.144   6.18117e-23
      315.241   6.08082e-23
      315.338   5.98210e-23
      315.435   5.88500e-23
      315.532   5.78951e-23
      315.629   5.69561e-23
      315.726   5.60321e-23
      315.823   5.51228e-23
      315.921   5.42199e-23
      316.018   5.33406e-23
      316.115   5.24762e-23
      316.212   5.16255e-23
      316.310   5.06414e-23
      316.407   4.95074e-23
      316.504   4.83432e-23
      316.602   4.71950e-23
      316.699   4.60857e-23
      316.796   4.50027e-23
      316.894   4.39344e-23
      316.991   4.29029e-23
      317.089   4.18923e-23
      317.187   4.09086e-23
      317.284   3.99578e-23
      317.382   3.90197e-23
      317.479   3.81126e-23
      317.577   3.72181e-23
      317.675   3.63447e-23
      317.773   3.54916e-23
      317.870   3.46672e-23
      317.968   3.38531e-23
      318.066   3.30585e-23
      318.164   3.22826e-23
      318.262   3.15251e-23
      318.360   3.07852e-23
      318.458   3.00629e-23
      318.556   2.93580e-23
      318.654   2.86693e-23
      318.752   2.78562e-23
      318.850   2.69000e-23
      318.948   2.59265e-23
      319.046   2.49879e-23
      319.144   2.40829e-23
      319.242   2.32108e-23
      319.341   2.23615e-23
      319.439   2.15512e-23
      319.537   2.07702e-23
      319.635   2.00172e-23
      319.734   1.92841e-23
      319.832   1.85846e-23
      319.930   1.79102e-23
      320.029   1.72537e-23
      320.127   1.66275e-23
      320.226   1.60176e-23
      320.324   1.54356e-23
      320.423   1.48689e-23
      320.522   1.43234e-23
      320.620   1.38028e-23
      320.719   1.32958e-23
      320.818   1.28073e-23
      320.916   1.23414e-23
      321.015   1.18876e-23
      321.114   1.14504e-23
      321.213   1.10293e-23
      321.311   1.06276e-23
      321.410   1.02366e-23
      321.509   9.85971e-24
      321.608   9.49680e-24
      321.707   9.14701e-24
      321.806   8.80994e-24
      321.905   8.48537e-24
      322.004   8.17245e-24
      322.103   7.87119e-24
      322.202   7.58085e-24
      322.301   7.30115e-24
      322.401   7.02905e-24
      322.500   6.76958e-24
      322.599   6.51963e-24
      322.698   6.27885e-24
      322.798   6.04456e-24
      322.897   5.82111e-24
      322.996   5.60594e-24
      323.096   5.39646e-24
      323.195   5.19680e-24
      323.294   5.00448e-24
      323.394   4.81742e-24
      323.493   4.63900e-24
      323.593   4.46547e-24
      323.692   4.30000e-24
      323.792   4.13904e-24
      323.892   3.98406e-24
      323.991   3.83622e-24
      324.091   3.69250e-24
      324.191   3.55406e-24
      324.291   3.42078e-24
      324.390   3.29377e-24
      324.490   3.17011e-24
      324.590   3.05116e-24
      324.690   2.93662e-24
      324.790   2.82630e-24
      324.890   2.72012e-24
      324.990   2.61785e-24
      325.090   2.51937e-24
      325.190   2.42461e-24
      325.290   2.33341e-24
      325.390   2.24551e-24
      325.490   2.16097e-24
      325.590   2.07959e-24
      325.690   2.00118e-24
      325.790   1.92573e-24
      325.891   1.85238e-24
      325.991   1.78249e-24
      326.091   1.71518e-24
      326.192   1.64978e-24
      326.292   1.58744e-24
      326.392   1.52746e-24
      326.493   1.46914e-24
      326.593   1.41355e-24
      326.694   1.35957e-24
      326.794   1.30809e-24
      326.895   1.25806e-24
      326.995   1.21038e-24
      327.096   1.16407e-24
      327.197   1.11949e-24
      327.297   1.07701e-24
      327.398   1.03574e-24
      327.499   9.96024e-25
      327.599   9.58177e-25
      327.700   9.21396e-25
      327.801   8.86018e-25
      327.902   8.51996e-25
      328.003   8.19245e-25
      328.104   7.87743e-25
      328.205   7.57437e-25
      328.306   7.28286e-25
      328.407   7.00250e-25
      328.508   6.73267e-25
      328.609   6.47316e-25
      328.710   6.22359e-25
      328.811   5.98349e-25
      328.912   5.75255e-25
      329.013   5.53041e-25
      329.115   5.31474e-25
      329.216   5.10929e-25
      329.317   4.91169e-25
      329.419   4.71991e-25
      329.520   4.53715e-25
      329.621   4.36137e-25
      329.723   4.19067e-25
      329.824   4.02831e-25
      329.926   3.87057e-25
      330.027   3.72034e-25
      330.129   3.57447e-25
      330.230   3.43568e-25
      330.332   3.30083e-25
      330.434   3.17125e-25
      330.535   3.04783e-25
      330.637   2.92802e-25
      330.739   2.81293e-25
      330.840   2.70331e-25
      330.942   2.59688e-25
      331.044   2.49460e-25
      331.146   2.39629e-25
      331.248   2.30181e-25
      331.350   2.21103e-25
      331.452   2.12377e-25
      331.554   2.04042e-25
      331.656   1.96100e-25
      331.758   1.88465e-25
      331.860   1.81120e-25
      331.962   1.74059e-25
      332.064   1.67269e-25
      332.166   1.60744e-25
      332.268   1.54465e-25
      332.371   1.48376e-25
      332.473   1.42574e-25
      332.575   1.36995e-25
      332.677   1.31635e-25
      332.780   1.26433e-25
      332.882   1.21480e-25
      332.985   1.16675e-25
      333.087   1.12097e-25
      333.190   1.07657e-25
      333.292   1.03416e-25
      333.395   9.92648e-26
      333.497   9.53049e-26
      333.600   9.14642e-26
      333.702   8.78109e-26
      333.805   8.42699e-26
      333.908   8.08662e-26
      334.011   7.76007e-26
      334.113   7.44941e-26
      334.216   7.14812e-26
      334.319   6.85894e-26
      334.422   6.58121e-26
      334.525   6.31461e-26
      334.628   6.05863e-26
      334.731   5.81304e-26
      334.834   5.57722e-26
      334.937   5.35074e-26
      335.040   5.13329e-26
      335.143   4.92474e-26
      335.246   4.72444e-26
      335.349   4.53220e-26
      335.452   4.34769e-26
      335.555   4.17064e-26
      335.659   3.99900e-26
      335.762   3.83590e-26
      335.865   3.67944e-26
      335.969   3.52779e-26
      336.072   3.38359e-26
      336.175   3.24536e-26
      336.279   3.11141e-26
      336.382   2.98412e-26
      336.486   2.86077e-26
      336.589   2.74356e-26
      336.693   2.63011e-26
      336.796   2.52229e-26
      336.900   2.41781e-26
      337.004   2.31757e-26
      337.107   2.22244e-26
      337.211   2.13022e-26
      337.315   2.04185e-26
      337.419   1.95705e-26
      337.523   1.87572e-26
      337.626   1.79848e-26
      337.730   1.72369e-26
      337.834   1.65196e-26
      337.938   1.58319e-26
      338.042   1.51728e-26
      338.146   1.45427e-26
      338.250   1.39389e-26
      338.354   1.33598e-26
      338.458   1.28042e-26
      338.562   1.22716e-26
      338.667   1.17562e-26
      338.771   1.12666e-26
      338.875   1.07973e-26
      338.979   1.03471e-26
      339.084   9.91183e-27
      339.188   9.49834e-27
      339.292   9.10197e-27
      339.397   8.71822e-27
      339.501   8.35407e-27
      339.606   8.00142e-27
      339.710   7.66681e-27
      339.815   7.34294e-27
      339.919   7.03567e-27
      340.024   6.73810e-27
      340.128   6.45592e-27
      340.233   6.18262e-27
      340.338   5.92102e-27
      340.442   5.67252e-27
      340.547   5.43216e-27
      340.652   5.20186e-27
      340.757   4.98124e-27
      340.862   4.76983e-27
      340.966   4.56925e-27
      341.071   4.37522e-27
      341.176   4.18932e-27
      341.281   4.01123e-27
      341.386   3.84070e-27
      341.491   3.67723e-27
      341.596   3.52076e-27
      341.702   3.36946e-27
      341.807   3.22591e-27
      341.912   3.08843e-27
      342.017   2.95673e-27
      342.122   2.83057e-27
      342.228   2.70874e-27
      342.333   2.59308e-27
      342.438   2.48232e-27
      342.544   2.37532e-27
      342.649   2.27376e-27
      342.754   2.17658e-27
      342.860   2.08261e-27
      342.965   1.99342e-27
      343.071   1.90736e-27
      343.176   1.82567e-27
      343.282   1.74670e-27
      343.388   1.67116e-27
      343.493   1.59962e-27
      343.599   1.53140e-27
      343.705   1.46615e-27
      343.810   1.40421e-27
      343.916   1.34435e-27
      344.022   1.28701e-27
      344.128   1.23211e-27
      344.234   1.17950e-27
      344.340   1.12915e-27
      344.446   1.08090e-27
      344.552   1.03470e-27
      344.658   9.90467e-28
      344.764   9.48132e-28
      344.870   9.07558e-28
      344.976   8.68738e-28
      345.082   8.31539e-28
      345.188   7.95942e-28
      345.294   7.61834e-28
      345.401   7.28891e-28
      345.507   6.97640e-28
      345.613   6.67737e-28
      345.719   6.39089e-28
      345.826   6.11416e-28
      345.932   5.85168e-28
      346.039   5.59814e-28
      346.145   5.35765e-28
      346.252   5.12540e-28
      346.358   4.90509e-28
      346.465   4.69240e-28
      346.571   4.49055e-28
      346.678   4.29556e-28
      346.785   4.10896e-28
      346.891   3.93214e-28
      346.998   3.76136e-28
      347.105   3.59789e-28
      347.212   3.44144e-28
      347.319   3.29173e-28
      347.425   3.14976e-28
      347.532   3.01267e-28
      347.639   2.88156e-28
      347.746   2.75607e-28
      347.853   2.63594e-28
      347.960   2.52109e-28
      348.067   2.41124e-28
      348.174   2.30615e-28
      348.281   2.20557e-28
      348.389   2.10849e-28
      348.496   2.01645e-28
      348.603   1.92848e-28
      348.710   1.84428e-28
      348.818   1.76301e-28
      348.925   1.68597e-28
      349.032   1.61231e-28
      349.140   1.54116e-28
      349.247   1.47375e-28
      349.355   1.40873e-28
      349.462   1.34708e-28
      349.570   1.28753e-28
      349.677   1.23117e-28
      349.785   1.17673e-28
      349.892   1.12518e-28
      350.000   1.07543e-28
      350.100   1.03130e-28
      350.193   9.91900e-29
      350.287   9.53555e-29
      350.380   9.17116e-29
      350.473   8.82040e-29
      350.567   8.47916e-29
      350.660   8.15475e-29
      350.754   7.83930e-29
      350.847   7.53930e-29
      350.941   7.24757e-29
      351.034   6.97006e-29
      351.128   6.70018e-29
      351.221   6.44359e-29
      351.315   6.19391e-29
      351.409   5.95383e-29
      351.502   5.72563e-29
      351.596   5.50375e-29
      351.690   5.29022e-29
      351.783   5.08737e-29
      351.877   4.89008e-29
      351.971   4.70034e-29
      352.065   4.51791e-29
      352.159   4.34250e-29
      352.252   4.17569e-29
      352.346   4.01347e-29
      352.440   3.85761e-29
      352.534   3.70784e-29
      352.628   3.56369e-29
      352.722   3.42511e-29
      352.816   3.29197e-29
      352.910   3.16400e-29
      353.004   3.04096e-29
      353.098   2.92261e-29
      353.192   2.80885e-29
      353.287   2.69835e-29
      353.381   2.59323e-29
      353.475   2.49229e-29
      353.569   2.39515e-29
      353.663   2.30187e-29
      353.758   2.21123e-29
      353.852   2.12504e-29
      353.946   2.04218e-29
      354.041   1.96168e-29
      354.135   1.88514e-29
      354.229   1.81157e-29
      354.324   1.74011e-29
      354.418   1.67218e-29
      354.513   1.60618e-29
      354.607   1.54347e-29
      354.702   1.48246e-29
      354.796   1.42431e-29
      354.891   1.36783e-29
      354.985   1.31417e-29
      355.080   1.26205e-29
      355.175   1.21195e-29
      355.269   1.16435e-29
      355.364   1.11811e-29
      355.459   1.07372e-29
      355.553   1.03149e-29
      355.648   9.90520e-30
      355.743   9.51176e-30
      355.838   9.13325e-30
      355.933   8.77024e-30
      356.027   8.42503e-30
      356.122   8.08963e-30
      356.217   7.76764e-30
      356.312   7.45858e-30
      356.407   7.16150e-30
      356.502   6.87628e-30
      356.597   6.60219e-30
      356.692   6.33911e-30
      356.787   6.08639e-30
      356.882   5.84350e-30
      356.977   5.61051e-30
      357.073   5.38431e-30
      357.168   5.16927e-30
      357.263   4.96292e-30
      357.358   4.76465e-30
      357.453   4.57434e-30
      357.549   4.38962e-30
      357.644   4.21414e-30
      357.739   4.04573e-30
      357.835   3.88211e-30
      357.930   3.72678e-30
      358.025   3.57761e-30
      358.121   3.43290e-30
      358.216   3.29541e-30
      358.312   3.16196e-30
      358.407   3.03528e-30
      358.503   2.91233e-30
      358.598   2.79560e-30
      358.694   2.68231e-30
      358.790   2.57350e-30
      358.885   2.47018e-30
      358.981   2.36993e-30
      359.076   2.27479e-30
      359.172   2.18248e-30
      359.268   2.09377e-30
      359.364   2.00869e-30
      359.459   1.92796e-30
      359.555   1.84957e-30
      359.651   1.77434e-30
      359.747   1.70216e-30
      359.843   1.63289e-30
      359.939   1.56641e-30
      360.035   1.50262e-30
      360.131   1.44143e-30
      360.227   1.38264e-30
      360.323   1.32629e-30
      360.419   1.27149e-30
      360.515   1.21231e-30
      360.611   1.15408e-30
      360.707   1.09857e-30
      360.803   1.04581e-30
      360.899   9.95490e-31
      360.995   9.47605e-31
      361.092   9.01515e-31
      361.188   8.58083e-31
      361.284   8.16729e-31
      361.380   7.77354e-31
      361.477   7.39462e-31
      361.573   7.03760e-31
      361.669   6.69786e-31
      361.766   6.37083e-31
      361.862   6.06298e-31
      361.959   5.76682e-31
      362.055   5.48754e-31
      362.152   5.21929e-31
      362.248   4.96649e-31
      362.345   4.72320e-31
      362.441   4.49427e-31
      362.538   4.27408e-31
      362.635   4.06454e-31
      362.731   3.86710e-31
      362.828   3.67728e-31
      362.925   3.49674e-31
      363.021   3.32661e-31
      363.118   3.16315e-31
      363.215   3.00753e-31
      363.312   2.85948e-31
      363.409   2.71874e-31
      363.505   2.58616e-31
      363.602   2.45863e-31
      363.699   2.33739e-31
      363.796   2.22207e-31
      363.893   2.11237e-31
      363.990   2.00803e-31
      364.087   1.90880e-31
      364.184   1.81442e-31
      364.281   1.72463e-31
      364.378   1.63927e-31
      364.475   1.55808e-31
      364.573   1.48007e-31
      364.670   1.40669e-31
      364.767   1.33691e-31
      364.864   1.27054e-31
      364.961   1.20744e-31
      365.059   1.14683e-31
      365.156   1.08984e-31
      365.253   1.03562e-31
      365.351   9.83548e-32
      365.448   9.34557e-32
      365.545   8.87997e-32
      365.643   8.43268e-32
      365.740   8.01191e-32
      365.838   7.60799e-32
      365.935   7.22821e-32
      366.033   6.86338e-32
      366.130   6.52020e-32
      366.228   6.19041e-32
      366.326   5.84104e-32
      366.423   5.49660e-32
      366.521   5.16892e-32
      366.618   4.86349e-32
      366.716   4.57317e-32
      366.814   4.30007e-32
      366.912   4.04317e-32
      367.010   3.80120e-32
      367.107   3.57592e-32
      367.205   3.36164e-32
      367.303   3.16013e-32
      367.401   2.97059e-32
      367.499   2.79222e-32
      367.597   2.62449e-32
      367.695   2.46676e-32
      367.793   2.31844e-32
      367.891   2.17891e-32
      367.989   2.04758e-32
      368.087   1.92417e-32
      368.185   1.80813e-32
      368.283   1.69896e-32
      368.381   1.59628e-32
      368.480   1.49886e-32
      368.578   1.40816e-32
      368.676   1.32294e-32
      368.774   1.24282e-32
      368.873   1.16673e-32
      368.971   1.09596e-32
      369.069   1.02943e-32
      369.168   9.66241e-33
      369.266   9.07510e-33
      369.364   8.52299e-33
      369.463   7.99888e-33
      369.561   7.51164e-33
      369.660   7.04918e-33
      369.758   6.61916e-33
      369.857   6.21112e-33
      369.955   5.83171e-33
      370.054   5.47160e-33
      370.153   5.13353e-33
      370.251   4.81928e-33
      370.350   4.52112e-33
      370.449   4.24131e-33
      370.547   3.98115e-33
      370.646   3.73416e-33
      370.745   3.50256e-33
      370.844   3.28508e-33
      370.943   3.08099e-33
      371.041   2.89135e-33
      371.140   2.71142e-33
      371.239   2.54253e-33
      371.338   2.38413e-33
      371.437   2.23552e-33
      371.536   2.09608e-33
      371.635   1.96515e-33
      371.734   1.84238e-33
      371.833   1.72721e-33
      371.932   1.61915e-33
      372.032   1.51676e-33
      372.131   1.42171e-33
      372.230   1.33260e-33
      372.329   1.24899e-33
      372.428   1.17056e-33
      372.528   1.09631e-33
      372.627   1.02741e-33
      372.726   9.62783e-34
      372.826   9.01584e-34
      372.925   8.44770e-34
      373.024   7.91502e-34
      373.124   7.41065e-34
      373.223   6.94306e-34
      373.323   6.50023e-34
      373.422   6.08925e-34
      373.522   5.70021e-34
      373.621   5.33955e-34
      373.721   4.99795e-34
      373.820   4.68122e-34
      373.920   4.38141e-34
      374.020   4.10039e-34
      374.119   3.84008e-34
      374.219   3.59350e-34
      374.319   3.36275e-34
      374.419   3.14675e-34
      374.518   2.94630e-34
      374.618   2.75669e-34
      374.718   2.57903e-34
      374.818   2.41292e-34
      374.918   2.25741e-34
      375.018   2.11170e-34
      375.118   1.97538e-34
      375.218   1.84769e-34
      375.318   1.72823e-34
      375.418   1.61636e-34
      375.518   1.51174e-34
      375.618   1.41382e-34
      375.718   1.32215e-34
      375.818   1.23638e-34
      375.918   1.15612e-34
      376.019   1.08032e-34
      376.119   1.01007e-34
      376.219   9.44385e-35
      376.319   8.82890e-35
      376.420   8.24846e-35
      376.520   7.71092e-35
      376.620   7.20818e-35
      376.721   6.73313e-35
      376.821   6.29352e-35
      376.922   5.87833e-35
      377.022   5.49388e-35
      377.122   5.13453e-35
      377.223   4.79515e-35
      377.323   4.48106e-35
      377.424   4.18436e-35
      377.525   3.90728e-35
      377.625   3.65085e-35
      377.726   3.40880e-35
      377.827   3.18262e-35
      377.927   2.97327e-35
      378.028   2.77580e-35
      378.129   2.59123e-35
      378.230   2.41883e-35
      378.330   2.25939e-35
      378.431   2.10896e-35
      378.532   1.96854e-35
      378.633   1.83726e-35
      378.734   1.71467e-35
      378.835   1.60023e-35
      378.936   1.49337e-35
      379.037   1.39357e-35
      379.138   1.30038e-35
      379.239   1.21334e-35
      379.340   1.13213e-35
      379.441   1.05628e-35
      379.542   9.85453e-36
      379.643   9.19357e-36
      379.745   8.57065e-36
      379.846   7.99486e-36
      379.947   7.45746e-36
      380.048   6.95610e-36
      380.150   6.48348e-36
      380.251   6.04687e-36
      380.352   5.63957e-36
      380.454   5.25590e-36
      380.555   4.90133e-36
      380.656   4.57044e-36
      380.758   4.25878e-36
      380.859   3.97100e-36
      380.961   3.70007e-36
      381.062   3.44977e-36
      381.164   3.21395e-36
      381.266   2.99418e-36
      381.367   2.79120e-36
      381.469   2.60012e-36
      381.570   2.42372e-36
      381.672   2.25762e-36
      381.774   2.10273e-36
      381.876   1.95844e-36
      381.977   1.82522e-36
      382.079   1.69982e-36
      382.181   1.58295e-36
      382.283   1.47412e-36
      382.385   1.37265e-36
      382.487   1.27806e-36
      382.589   1.19002e-36
      382.691   1.10798e-36
      382.793   1.03155e-36
      382.895   9.60344e-37
      382.997   8.94000e-37
      383.099   8.32208e-37
      383.201   7.74671e-37
      383.303   7.21053e-37
      383.405   6.71129e-37
      383.507   6.24644e-37
      383.610   5.80951e-37
      383.712   5.40647e-37
      383.814   5.03149e-37
      383.916   4.68219e-37
      384.019   4.35386e-37
      384.121   4.05116e-37
      384.223   3.76945e-37
      384.326   3.50475e-37
      384.428   3.26070e-37
      384.531   3.03142e-37
      384.633   2.82012e-37
      384.736   2.62155e-37
      384.838   2.43856e-37
      384.941   2.26668e-37
      385.043   2.10829e-37
      385.146   1.95954e-37
      385.249   1.82121e-37
      385.351   1.69373e-37
      385.454   1.57398e-37
      385.557   1.46271e-37
      385.660   1.35918e-37
      385.762   1.26386e-37
      385.865   1.17434e-37
      385.968   1.09108e-37
      386.071   1.01368e-37
      386.174   9.41739e-38
      386.277   8.74895e-38
      386.380   8.12747e-38
      386.483   7.54975e-38
      386.586   7.01302e-38
      386.689   6.51396e-38
      386.792   6.05011e-38
      386.895   5.61914e-38
      386.998   5.21867e-38
      387.101   4.84661e-38
      387.204   4.50063e-38
      387.308   4.17631e-38
      387.411   3.87793e-38
      387.514   3.60075e-38
      387.617   3.34328e-38
      387.721   3.10191e-38
      387.824   2.87986e-38
      387.927   2.67343e-38
      388.031   2.48006e-38
      388.134   2.30221e-38
      388.238   2.13560e-38
      388.341   1.98221e-38
      388.445   1.83850e-38
      388.548   1.70632e-38
      388.652   1.58251e-38
      388.755   1.46866e-38
      388.859   1.36198e-38
      388.962   1.26388e-38
      389.066   1.17192e-38
      389.170   1.08669e-38
      389.274   1.00755e-38
      389.377   9.34801e-39
      389.481   8.66639e-39
      389.585   8.03454e-39
      389.689   7.44824e-39
      389.793   6.90418e-39
      389.897   6.40004e-39
      390.000   5.93627e-39
      390.104   5.50228e-39
      390.208   5.09956e-39
      390.312   4.72616e-39
      390.416   4.38003e-39
      390.520   4.05890e-39
      390.625   3.75824e-39
      390.729   3.48253e-39
      390.833   3.22672e-39
      390.937   2.98957e-39
      391.041   2.76982e-39
      391.145   2.56613e-39
      391.250   2.37547e-39
      391.354   2.20061e-39
      391.458   2.03847e-39
      391.563   1.88681e-39
      391.667   1.74764e-39
      391.771   1.61868e-39
      391.876   1.49803e-39
      391.980   1.38733e-39
      392.085   1.28384e-39
      392.189   1.18887e-39
      392.294   1.10006e-39
      392.398   1.01860e-39
      392.503   9.42446e-40
      392.607   8.72589e-40
      392.712   8.07284e-40
      392.817   7.46800e-40
      392.921   6.91357e-40
      393.026   6.39513e-40
      393.131   5.91547e-40
      393.236   5.47124e-40
      393.340   5.06401e-40
      393.445   4.68352e-40
      393.550   4.33144e-40
      393.655   4.00546e-40
      393.760   3.70405e-40
      393.865   3.42500e-40
      393.970   3.16703e-40
      394.075   2.92815e-40
      394.180   2.70731e-40
      394.285   2.50290e-40
      394.390   2.31392e-40
      394.495   2.13900e-40
      394.600   1.97726e-40
      394.706   1.82634e-40
      394.811   1.68812e-40
      394.916   1.56019e-40
      395.021   1.44195e-40
      395.126   1.33262e-40
      395.232   1.23061e-40
      395.337   1.13715e-40
      395.443   1.04999e-40
      395.548   9.70217e-41
      395.653   8.96439e-41
      395.759   8.27593e-41
      395.864   7.64590e-41
      395.970   7.05834e-41
      396.075   6.52024e-41
      396.181   6.01830e-41
      396.286   5.55895e-41
      396.392   5.13085e-41
      396.498   4.73527e-41
      396.603   4.37331e-41
      396.709   4.03588e-41
      396.815   3.72409e-41
      396.921   3.43612e-41
      397.026   3.17296e-41
      397.132   2.92759e-41
      397.238   2.70100e-41
      397.344   2.49179e-41
      397.450   2.29883e-41
      397.556   2.12044e-41
      397.662   1.95593e-41
      397.768   1.80417e-41
      397.874   1.66390e-41
      397.980   1.53456e-41
      398.086   1.41503e-41
      398.192   1.30517e-41
      398.298   1.20358e-41
      398.404   1.10955e-41
      398.510   1.02309e-41
      398.617   9.42513e-42
      398.723   8.69085e-42
      398.829   8.01262e-42
      398.935   7.38624e-42
      399.042   6.80190e-42
      399.148   6.27221e-42
      399.255   5.77615e-42
      399.361   5.32213e-42
      399.467   4.90454e-42
      399.574   4.51779e-42
      399.680   4.16326e-42
      399.787   3.83395e-42
      399.893       0.00000
      400.000       0.00000
