Filter Be-thin
observation_date 22-Sept-2023 22:45:45
wavelength effective area 
      1.00000   2.78436e-10
      1.10000   7.94894e-10
      1.20000   2.06653e-09
      1.30000   4.94173e-09
      1.40000   1.12137e-08
      1.50000   2.39244e-08
      1.60000   4.84350e-08
      1.70000   9.40348e-08
      1.80000   1.75076e-07
      1.90000   3.14679e-07
      2.00000   5.47088e-07
      2.10000   9.24093e-07
      2.20000   1.52378e-06
      2.30000   2.44952e-06
      2.40000   3.84566e-06
      2.50000   5.87717e-06
      2.60000   8.96898e-06
      2.70000   1.33715e-05
      2.80000   1.95535e-05
      2.90000   2.82992e-05
      3.00000   4.03167e-05
      3.10000   5.66989e-05
      3.20000   7.88659e-05
      3.30000   0.000108581
      3.40000   0.000147932
      3.50000   0.000199587
      3.60000   0.000268032
      3.70000   0.000356115
      3.80000   0.000471170
      3.90000   0.000619914
      4.00000   0.000810510
      4.10000    0.00105476
      4.20000    0.00136771
      4.30000    0.00176842
      4.40000    0.00228033
      4.50000    0.00293221
      4.60000    0.00375764
      4.70000    0.00481500
      4.80000    0.00616323
      4.90000    0.00778718
      5.00000     0.0100973
      5.10000     0.0129077
      5.20000     0.0165477
      5.30000     0.0210338
      5.40000     0.0266908
      5.50000     0.0339261
      5.60000     0.0417969
      5.70000     0.0542457
      5.80000     0.0634869
      5.90000     0.0967620
      6.00000      0.129828
      6.10000      0.165603
      6.20000      0.202947
      6.30000      0.238391
      6.40000      0.268581
      6.50000      0.290529
      6.60000      0.300022
      6.70000      0.308600
      6.80000      0.308222
      6.90000      0.403281
      7.00000      0.437330
      7.10000      0.461153
      7.20000      0.479616
      7.30000      0.494222
      7.40000      0.504836
      7.50000      0.512805
      7.60000      0.518251
      7.70000      0.519828
      7.80000      0.516579
      7.90000      0.513877
      8.00000      0.739779
      8.10000      0.806086
      8.20000      0.815258
      8.30000      0.820639
      8.40000      0.822581
      8.50000      0.823037
      8.60000      0.821770
      8.70000      0.819359
      8.80000      0.815551
      8.90000      0.810781
      9.00000      0.805003
      9.10000      0.798282
      9.20000      0.790799
      9.30000      0.782493
      9.40000      0.773500
      9.50000      0.763884
      9.60000      0.753619
      9.70000      0.742811
      9.80000      0.731561
      9.90000      0.719908
      10.0000      0.707908
      10.1000      0.695589
      10.2000      0.682981
      10.3000      0.670078
      10.4000      0.656918
      10.5000      0.643533
      10.6000      0.629957
      10.7000      0.616218
      10.8000      0.602343
      10.9000      0.588371
      11.0000      0.574314
      11.1000      0.560211
      11.2000      0.546074
      11.3000      0.531935
      11.4000      0.517796
      11.5000      0.503670
      11.6000      0.489578
      11.7000      0.475502
      11.8000      0.461492
      11.9000      0.447472
      12.0000      0.433011
      12.1000      0.420222
      12.2000      0.414870
      12.3000      0.405167
      12.4000      0.392584
      12.5000      0.379919
      12.6000      0.367343
      12.7000      0.354925
      12.8000      0.342691
      12.9000      0.330648
      13.0000      0.318822
      13.1000      0.307226
      13.2000      0.295888
      13.3000      0.284867
      13.4000      0.274147
      13.5000      0.263716
      13.6000      0.253585
      13.7000      0.243712
      13.8000      0.234094
      13.9000      0.224736
      14.0000      0.215635
      14.1000      0.206771
      14.2000      0.198135
      14.3000      0.189730
      14.4000      0.181560
      14.5000      0.173640
      14.6000      0.165977
      14.7000      0.158543
      14.8000      0.151339
      14.9000      0.144360
      15.0000      0.137606
      15.1000      0.131076
      15.2000      0.124810
      15.3000      0.118770
      15.4000      0.112941
      15.5000      0.107321
      15.6000      0.101911
      15.7000     0.0967248
      15.8000     0.0917695
      15.9000     0.0870060
      16.0000     0.0824280
      16.1000     0.0780316
      16.2000     0.0738561
      16.3000     0.0698635
      16.4000     0.0660316
      16.5000     0.0623551
      16.6000     0.0588557
      16.7000     0.0555340
      16.8000     0.0523504
      16.9000     0.0493006
      17.0000     0.0464093
      17.1000     0.0436862
      17.2000     0.0410922
      17.3000     0.0386216
      17.4000     0.0363076
      17.5000     0.0341124
      17.6000     0.0320306
      17.7000     0.0300900
      17.8000     0.0283314
      17.9000     0.0266541
      18.0000     0.0250459
      18.1000     0.0235462
      18.2000     0.0220965
      18.3000     0.0206899
      18.4000     0.0193384
      18.5000     0.0180444
      18.6000     0.0167924
      18.7000     0.0155944
      18.8000     0.0144740
      18.9000     0.0134076
      19.0000     0.0124190
      19.1000     0.0114975
      19.2000     0.0106215
      19.3000    0.00981688
      19.4000    0.00907271
      19.5000    0.00837195
      19.6000    0.00775378
      19.7000    0.00716997
      19.8000    0.00661684
      19.9000    0.00611778
      20.0000    0.00564193
      20.1000    0.00519952
      20.2000    0.00479342
      20.3000    0.00440623
      20.4000    0.00405561
      20.5000    0.00372633
      20.6000    0.00341618
      20.7000    0.00313762
      20.8000    0.00287159
      20.9000    0.00262995
      21.0000    0.00240548
      21.1000    0.00219422
      21.2000    0.00200567
      21.3000    0.00182534
      21.4000    0.00166388
      21.5000    0.00151289
      21.6000    0.00137242
      21.7000    0.00124634
      21.8000    0.00112559
      21.9000    0.00101937
      22.0000   0.000917886
      22.1000   0.000826673
      22.2000   0.000741627
      22.3000   0.000661993
      22.4000   0.000582322
      22.5000   0.000503014
      22.6000   0.000403456
      22.7000   0.000329296
      22.8000   0.000370741
      22.9000   0.000429169
      23.0000   0.000507555
      23.1000   0.000539234
      23.2000   0.000528486
      23.3000   0.000496163
      23.4000   0.000453264
      23.5000   0.000414627
      23.6000   0.000377186
      23.7000   0.000343841
      23.8000   0.000311156
      23.9000   0.000283146
      24.0000   0.000255807
      24.1000   0.000232087
      24.2000   0.000209249
      24.3000   0.000189418
      24.4000   0.000170527
      24.5000   0.000154004
      24.6000   0.000138418
      24.7000   0.000124762
      24.8000   0.000111966
      24.9000   0.000100727
      25.0000   9.02440e-05
      25.1000   8.10522e-05
      25.2000   7.24894e-05
      25.3000   6.50049e-05
      25.4000   5.80231e-05
      25.5000   5.19662e-05
      25.6000   4.62884e-05
      25.7000   4.14113e-05
      25.8000   3.68004e-05
      25.9000   3.28942e-05
      26.0000   2.91557e-05
      26.1000   2.60420e-05
      26.2000   2.30146e-05
      26.3000   2.05476e-05
      26.4000   1.81013e-05
      26.5000   1.61565e-05
      26.6000   1.42240e-05
      26.7000   1.26584e-05
      26.8000   1.11450e-05
      26.9000   9.88176e-06
      27.0000   8.70166e-06
      27.1000   7.68196e-06
      27.2000   6.76580e-06
      27.3000   5.95549e-06
      27.4000   5.27520e-06
      27.5000   4.63405e-06
      27.6000   4.09626e-06
      27.7000   3.56871e-06
      27.8000   3.15694e-06
      27.9000   2.74783e-06
      28.0000   2.42099e-06
      28.1000   2.11174e-06
      28.2000   1.84849e-06
      28.3000   1.61628e-06
      28.4000   1.40492e-06
      28.5000   1.23172e-06
      28.6000   1.06267e-06
      28.7000   9.34479e-07
      28.8000   8.07142e-07
      28.9000   7.05613e-07
      29.0000   6.11860e-07
      29.1000   5.29993e-07
      29.2000   4.61444e-07
      29.3000   3.95851e-07
      29.4000   3.46102e-07
      29.5000   2.96692e-07
      29.6000   2.58085e-07
      29.7000   2.22493e-07
      29.8000   1.91271e-07
      29.9000   1.65823e-07
      30.0000   1.40832e-07
      30.1000   1.22776e-07
      30.2000   1.04845e-07
      30.3000   9.14547e-08
      30.4000   8.06824e-08
      30.5000   7.02511e-08
      30.6000   6.08782e-08
      30.7000   5.15710e-08
      30.8000   4.44440e-08
      30.9000   3.80016e-08
      31.0000   3.22240e-08
      31.1000   2.78864e-08
      31.2000   2.35797e-08
      31.3000   2.03630e-08
      31.4000   1.73954e-08
      31.5000   1.47386e-08
      31.6000   1.27105e-08
      31.7000   1.06971e-08
      31.8000   9.19850e-09
      31.9000   7.83636e-09
      32.0000   6.60097e-09
      32.1000   5.71271e-09
      32.2000   4.83087e-09
      32.3000   4.14553e-09
      32.4000   3.54895e-09
      32.5000   2.97749e-09
      32.6000   2.57769e-09
      32.7000   2.18076e-09
      32.8000   1.85126e-09
      32.9000   1.58703e-09
      33.0000   1.32472e-09
      33.1000   1.14034e-09
      33.2000   9.67527e-10
      33.3000   8.09402e-10
      33.4000   6.96256e-10
      33.5000   5.83913e-10
      33.6000   4.93966e-10
      33.7000   4.21081e-10
      33.8000   3.48701e-10
      33.9000   2.98776e-10
      34.0000   2.52232e-10
      34.1000   2.08783e-10
      34.2000   1.79137e-10
      34.3000   1.49688e-10
      34.4000   1.25024e-10
      34.5000   1.06440e-10
      34.6000   8.79816e-11
      34.7000   7.42115e-11
      34.8000   6.26557e-11
      34.9000   5.11776e-11
      35.0000   4.36336e-11
      35.1000   3.65392e-11
      35.2000   2.97803e-11
      35.3000   2.54396e-11
      35.4000   2.11282e-11
      35.5000   1.73201e-11
      35.6000   1.47096e-11
      35.7000   1.21168e-11
      35.8000   9.98974e-12
      35.9000   8.43628e-12
      36.0000   6.89343e-12
      36.1000   5.71417e-12
      36.2000   4.79990e-12
      36.3000   3.89190e-12
      36.4000   3.24196e-12
      36.5000   2.70981e-12
      36.6000   2.18135e-12
      36.7000   1.82451e-12
      36.8000   1.51827e-12
      36.9000   1.21416e-12
      37.0000   1.01855e-12
      37.1000   8.44328e-13
      37.2000   6.71311e-13
      37.3000   5.64023e-13
      37.4000   4.66076e-13
      37.5000   3.68817e-13
      37.6000   3.09818e-13
      37.7000   2.55422e-13
      37.8000   2.01410e-13
      37.9000   1.68812e-13
      38.0000   1.38967e-13
      38.1000   1.09331e-13
      38.2000   9.12192e-14
      38.3000   7.50429e-14
      38.4000   5.89809e-14
      38.5000   4.88649e-14
      38.6000   4.02129e-14
      38.7000   3.16225e-14
      38.8000   2.59481e-14
      38.9000   2.13817e-14
      39.0000   1.68476e-14
      39.1000   1.36560e-14
      39.2000   1.12772e-14
      39.3000   8.91523e-15
      39.4000   7.11233e-15
      39.5000   5.87580e-15
      39.6000   4.64822e-15
      39.7000   3.63076e-15
      39.8000   3.01057e-15
      39.9000   2.39485e-15
      40.0000   1.83200e-15
      40.1000   1.52606e-15
      40.2000   1.22233e-15
      40.3000   9.20842e-16
      40.4000   7.65327e-16
      40.5000   6.17698e-16
      40.6000   4.71139e-16
      40.7000   3.79411e-16
      40.8000   3.08719e-16
      40.9000   2.38548e-16
      41.0000   1.85751e-16
      41.1000   1.52446e-16
      41.2000   1.19388e-16
      41.3000   8.97616e-17
      41.4000   7.43263e-17
      41.5000   5.90031e-17
      41.6000   4.37938e-17
      41.7000   3.57513e-17
      41.8000   2.87614e-17
      41.9000   2.18230e-17
      42.0000   1.69486e-17
      42.1000   1.38125e-17
      42.2000   1.06995e-17
      42.3000   7.91119e-18
      42.4000   6.52815e-18
      42.5000   5.15525e-18
      42.6000   3.79262e-18
      42.7000   3.03405e-18
      42.8000   2.43917e-18
      42.9000   1.84865e-18
      43.0000   1.38568e-18
      43.1000   1.13238e-18
      43.2000   8.80978e-19
      43.3000   6.31453e-19
      43.4000   6.31777e-19
      43.5000   7.40030e-19
      43.6000   8.83850e-19
      43.7000   9.49904e-19
      43.8000   8.39634e-19
      43.9000   6.51797e-19
      44.0000   4.64456e-19
      44.1000   3.82245e-19
      44.2000   3.04762e-19
      44.3000   2.27492e-19
      44.4000   1.70096e-19
      44.5000   1.38743e-19
      44.6000   1.07474e-19
      44.7000   7.62895e-20
      44.8000   6.15276e-20
      44.9000   4.91182e-20
      45.0000   3.67416e-20
      45.1000   2.65862e-20
      45.2000   2.17590e-20
      45.3000   1.69451e-20
      45.4000   1.21435e-20
      45.5000   9.35695e-21
      45.6000   7.52217e-21
      45.7000   5.69235e-21
      45.8000   3.90988e-21
      45.9000   3.22494e-21
      46.0000   2.54179e-21
      46.1000   1.86046e-21
      46.2000   1.33839e-21
      46.3000   1.08935e-21
      46.4000   8.40990e-22
      46.5000   5.93275e-22
      46.6000   4.51200e-22
      46.7000   3.62005e-22
      46.8000   2.73050e-22
      46.9000   1.84326e-22
      47.0000   1.49316e-22
      47.1000   1.18032e-22
      47.2000   8.68312e-23
      47.3000   5.92915e-23
      47.4000   4.85174e-23
      47.5000   3.77712e-23
      47.6000   2.70535e-23
      47.7000   1.90905e-23
      47.8000   1.54727e-23
      47.9000   1.18639e-23
      48.0000   8.26509e-24
      48.1000   6.03253e-24
      48.2000   4.84508e-24
      48.3000   3.66069e-24
      48.4000   2.47943e-24
      48.5000   1.87057e-24
      48.6000   1.48990e-24
      48.7000   1.11022e-24
      48.8000   7.31495e-25
      48.9000   5.69007e-25
      49.0000   4.49956e-25
      49.1000   3.31217e-25
      49.2000   2.12782e-25
      49.3000   1.72748e-25
      49.4000   1.39576e-25
      49.5000   1.06490e-25
      49.6000   7.34888e-26
      49.7000   6.61773e-26
      49.8000   5.95170e-26
      49.9000   5.28741e-26
      50.0000   4.62487e-26
      50.1000   4.05631e-26
      50.2000   3.27407e-26
      50.3000   2.64725e-26
      50.4000   2.29000e-26
      50.5000   2.06373e-26
      50.6000   1.84264e-26
      50.7000   1.42418e-26
      50.8000   1.18684e-26
      50.9000   6.49877e-27
      51.0000   4.35412e-27
      51.1000   3.52028e-27
      51.2000   3.52721e-27
      51.3000   3.15908e-27
      51.4000   1.94815e-27
      51.5000   1.17478e-27
      51.6000   8.28512e-28
      51.7000   5.58704e-28
      51.8000   4.22569e-28
      51.9000   3.51633e-28
      52.0000   2.78607e-28
      52.1000   1.92575e-28
      52.2000   1.47326e-28
      52.3000   9.70398e-29
      52.4000   6.33226e-29
      52.5000   5.00387e-29
      52.6000   4.44827e-29
      52.7000   3.79492e-29
      52.8000   2.57950e-29
      52.9000   1.47542e-29
      53.0000   9.86635e-30
      53.1000   6.50563e-30
      53.2000   4.36510e-30
      53.3000   2.89700e-30
      53.4000   1.89826e-30
      53.5000   1.08352e-30
      53.6000   5.47647e-31
      53.7000   3.19926e-31
      53.8000   2.38940e-31
      53.9000   1.64093e-31
      54.0000   1.10331e-31
      54.1000   7.17907e-32
      54.2000   5.08723e-32
      54.3000   3.06419e-32
      54.4000   1.29774e-32
      54.5000   7.08602e-33
      54.6000   5.07580e-33
      54.7000   3.85165e-33
      54.8000   2.70606e-33
      54.9000   1.83469e-33
      55.0000   1.33515e-33
      55.1000   9.65538e-34
      55.2000   6.93010e-34
      55.3000   6.40427e-34
      55.4000   5.70919e-34
      55.5000   4.10169e-34
      55.6000   2.62967e-34
      55.7000   1.89232e-34
      55.8000   1.29215e-34
      55.9000   9.05924e-35
      56.0000   6.62736e-35
      56.1000   4.58001e-35
      56.2000   4.24372e-35
      56.3000   3.46074e-35
      56.4000   2.50649e-35
      56.5000   1.72752e-35
      56.6000   1.19025e-35
      56.7000   8.67212e-36
      56.8000   6.36223e-36
      56.9000   4.50810e-36
      57.0000   3.01024e-36
      57.1000   2.01029e-36
      57.2000   1.38450e-36
      57.3000   9.80001e-37
      57.4000   6.99877e-37
      57.5000   4.96561e-37
      57.6000   3.22896e-37
      57.7000   2.24427e-37
      57.8000   2.03387e-37
      57.9000   1.52288e-37
      58.0000   1.08499e-37
      58.1000   7.15600e-38
      58.2000   4.11911e-38
      58.3000   2.70956e-38
      58.4000   2.04981e-38
      58.5000   1.63438e-38
      58.6000   1.11551e-38
      58.7000   7.53364e-39
      58.8000   5.05700e-39
      58.9000   3.40654e-39
      59.0000   2.47514e-39
      59.1000   1.83664e-39
      59.2000   1.35852e-39
      59.3000   1.00141e-39
      59.4000   7.35464e-40
      59.5000   5.18005e-40
      59.6000   3.42647e-40
      59.7000   2.62386e-40
      59.8000   1.82375e-40
      59.9000   1.08396e-40
      60.0000   7.98264e-41
      60.1000   5.88896e-41
      60.2000   4.33015e-41
      60.3000   3.17324e-41
      60.4000   2.31859e-41
      60.5000   1.70860e-41
      60.6000   1.27000e-41
      60.7000   9.99686e-42
      60.8000   8.25645e-42
      60.9000   6.79910e-42
      61.0000   5.61640e-42
      61.1000   4.65511e-42
      61.2000   3.87179e-42
      61.3000   3.20757e-42
      61.4000   2.65546e-42
      61.5000   2.21125e-42
      61.6000   1.75723e-42
      61.7000   1.38028e-42
      61.8000   1.08601e-42
      61.9000   8.58996e-43
      62.0000   6.58610e-43
      62.1000   4.76441e-43
      62.2000   3.34910e-43
      62.3000   2.42425e-43
      62.4000   2.01787e-43
      62.5000   1.72360e-43
      62.6000   1.49939e-43
      62.7000   1.27518e-43
      62.8000   1.12104e-43
      62.9000   8.26766e-44
      63.0000   5.74532e-44
      63.1000   3.78351e-44
      63.2000   3.22299e-44
      63.3000   2.52234e-44
      63.4000   2.24208e-44
      63.5000   1.54143e-44
      63.6000   1.26117e-44
      63.7000   9.80909e-45
      63.8000   9.80909e-45
      63.9000   7.00649e-45
      64.0000   2.80260e-45
      64.1000   2.80260e-45
      64.2000   2.80260e-45
      64.3000   2.80260e-45
      64.4000       0.00000
      64.5000       0.00000
      64.6000       0.00000
      64.7000       0.00000
      64.8000       0.00000
      64.9000       0.00000
      65.0000       0.00000
      65.1000       0.00000
      65.2000       0.00000
      65.3000       0.00000
      65.4000       0.00000
      65.5000       0.00000
      65.6000       0.00000
      65.7000       0.00000
      65.8000       0.00000
      65.9000       0.00000
      66.0000       0.00000
      66.1000       0.00000
      66.2000       0.00000
      66.3000       0.00000
      66.4000       0.00000
      66.5000       0.00000
      66.6000       0.00000
      66.7000       0.00000
      66.8000       0.00000
      66.9000       0.00000
      67.0000       0.00000
      67.1000       0.00000
      67.2000       0.00000
      67.3000       0.00000
      67.4000       0.00000
      67.5000       0.00000
      67.6000       0.00000
      67.7000       0.00000
      67.8000       0.00000
      67.9000       0.00000
      68.0000       0.00000
      68.1000       0.00000
      68.2000       0.00000
      68.3000       0.00000
      68.4000       0.00000
      68.5000       0.00000
      68.6000       0.00000
      68.7000       0.00000
      68.8000       0.00000
      68.9000       0.00000
      69.0000       0.00000
      69.1000       0.00000
      69.2000       0.00000
      69.3000       0.00000
      69.4000       0.00000
      69.5000       0.00000
      69.6000       0.00000
      69.7000       0.00000
      69.8000       0.00000
      69.9000       0.00000
      70.0000       0.00000
      70.1000       0.00000
      70.2000       0.00000
      70.3000       0.00000
      70.4000       0.00000
      70.5000       0.00000
      70.6000       0.00000
      70.7000       0.00000
      70.8000       0.00000
      70.9000       0.00000
      71.0000       0.00000
      71.1000       0.00000
      71.2000       0.00000
      71.3000       0.00000
      71.4000       0.00000
      71.5000       0.00000
      71.6000       0.00000
      71.7000       0.00000
      71.8000       0.00000
      71.9000       0.00000
      72.0000       0.00000
      72.1000       0.00000
      72.2000       0.00000
      72.3000       0.00000
      72.4000       0.00000
      72.5000       0.00000
      72.6000       0.00000
      72.7000       0.00000
      72.8000       0.00000
      72.9000       0.00000
      73.0000       0.00000
      73.1000       0.00000
      73.2000       0.00000
      73.3000       0.00000
      73.4000       0.00000
      73.5000       0.00000
      73.6000       0.00000
      73.7000       0.00000
      73.8000       0.00000
      73.9000       0.00000
      74.0000       0.00000
      74.1000       0.00000
      74.2000       0.00000
      74.3000       0.00000
      74.4000       0.00000
      74.5000       0.00000
      74.6000       0.00000
      74.7000       0.00000
      74.8000       0.00000
      74.9000       0.00000
      75.0000       0.00000
      75.1000       0.00000
      75.2000       0.00000
      75.3000       0.00000
      75.4000       0.00000
      75.5000       0.00000
      75.6000       0.00000
      75.7000       0.00000
      75.8000       0.00000
      75.9000       0.00000
      76.0000       0.00000
      76.1000       0.00000
      76.2000       0.00000
      76.3000       0.00000
      76.4000       0.00000
      76.5000       0.00000
      76.6000       0.00000
      76.7000       0.00000
      76.8000       0.00000
      76.9000       0.00000
      77.0000       0.00000
      77.1000       0.00000
      77.2000       0.00000
      77.3000       0.00000
      77.4000       0.00000
      77.5000       0.00000
      77.6000       0.00000
      77.7000       0.00000
      77.8000       0.00000
      77.9000       0.00000
      78.0000       0.00000
      78.1000       0.00000
      78.2000       0.00000
      78.3000       0.00000
      78.4000       0.00000
      78.5000       0.00000
      78.6000       0.00000
      78.7000       0.00000
      78.8000       0.00000
      78.9000       0.00000
      79.0000       0.00000
      79.1000       0.00000
      79.2000       0.00000
      79.3000       0.00000
      79.4000       0.00000
      79.5000       0.00000
      79.6000       0.00000
      79.7000       0.00000
      79.8000       0.00000
      79.9000       0.00000
      80.0000       0.00000
      80.1000       0.00000
      80.2000       0.00000
      80.3000       0.00000
      80.4000       0.00000
      80.5000       0.00000
      80.6000       0.00000
      80.7000       0.00000
      80.8000       0.00000
      80.9000       0.00000
      81.0000       0.00000
      81.1000       0.00000
      81.2000       0.00000
      81.3000       0.00000
      81.4000       0.00000
      81.5000       0.00000
      81.6000       0.00000
      81.7000       0.00000
      81.8000       0.00000
      81.9000       0.00000
      82.0000       0.00000
      82.1000       0.00000
      82.2000       0.00000
      82.3000       0.00000
      82.4000       0.00000
      82.5000       0.00000
      82.6000       0.00000
      82.7000       0.00000
      82.8000       0.00000
      82.9000       0.00000
      83.0000       0.00000
      83.1000       0.00000
      83.2000       0.00000
      83.3000       0.00000
      83.4000       0.00000
      83.5000       0.00000
      83.6000       0.00000
      83.7000       0.00000
      83.8000       0.00000
      83.9000       0.00000
      84.0000       0.00000
      84.1000       0.00000
      84.2000       0.00000
      84.3000       0.00000
      84.4000       0.00000
      84.5000       0.00000
      84.6000       0.00000
      84.7000       0.00000
      84.8000       0.00000
      84.9000       0.00000
      85.0000       0.00000
      85.1000       0.00000
      85.2000       0.00000
      85.3000       0.00000
      85.4000       0.00000
      85.5000       0.00000
      85.6000       0.00000
      85.7000       0.00000
      85.8000       0.00000
      85.9000       0.00000
      86.0000       0.00000
      86.1000       0.00000
      86.2000       0.00000
      86.3000       0.00000
      86.4000       0.00000
      86.5000       0.00000
      86.6000       0.00000
      86.7000       0.00000
      86.8000       0.00000
      86.9000       0.00000
      87.0000       0.00000
      87.1000       0.00000
      87.2000       0.00000
      87.3000       0.00000
      87.4000       0.00000
      87.5000       0.00000
      87.6000       0.00000
      87.7000       0.00000
      87.8000       0.00000
      87.9000       0.00000
      88.0000       0.00000
      88.1000       0.00000
      88.2000       0.00000
      88.3000       0.00000
      88.4000       0.00000
      88.5000       0.00000
      88.6000       0.00000
      88.7000       0.00000
      88.8000       0.00000
      88.9000       0.00000
      89.0000       0.00000
      89.1000       0.00000
      89.2000       0.00000
      89.3000       0.00000
      89.4000       0.00000
      89.5000       0.00000
      89.6000       0.00000
      89.7000       0.00000
      89.8000       0.00000
      89.9000       0.00000
      90.0000       0.00000
      90.1000       0.00000
      90.2000       0.00000
      90.3000       0.00000
      90.4000       0.00000
      90.5000       0.00000
      90.6000       0.00000
      90.7000       0.00000
      90.8000       0.00000
      90.9000       0.00000
      91.0000       0.00000
      91.1000       0.00000
      91.2000       0.00000
      91.3000       0.00000
      91.4000       0.00000
      91.5000       0.00000
      91.6000       0.00000
      91.7000       0.00000
      91.8000       0.00000
      91.9000       0.00000
      92.0000       0.00000
      92.1000       0.00000
      92.2000       0.00000
      92.3000       0.00000
      92.4000       0.00000
      92.5000       0.00000
      92.6000       0.00000
      92.7000       0.00000
      92.8000       0.00000
      92.9000       0.00000
      93.0000       0.00000
      93.1000       0.00000
      93.2000       0.00000
      93.3000       0.00000
      93.4000       0.00000
      93.5000       0.00000
      93.6000       0.00000
      93.7000       0.00000
      93.8000       0.00000
      93.9000       0.00000
      94.0000       0.00000
      94.1000       0.00000
      94.2000       0.00000
      94.3000       0.00000
      94.4000       0.00000
      94.5000       0.00000
      94.6000       0.00000
      94.7000       0.00000
      94.8000       0.00000
      94.9000       0.00000
      95.0000       0.00000
      95.1000       0.00000
      95.2000       0.00000
      95.3000       0.00000
      95.4000       0.00000
      95.5000       0.00000
      95.6000       0.00000
      95.7000       0.00000
      95.8000       0.00000
      95.9000       0.00000
      96.0000       0.00000
      96.1000       0.00000
      96.2000       0.00000
      96.3000       0.00000
      96.4000       0.00000
      96.5000       0.00000
      96.6000       0.00000
      96.7000       0.00000
      96.8000       0.00000
      96.9000       0.00000
      97.0000       0.00000
      97.1000       0.00000
      97.2000       0.00000
      97.3000       0.00000
      97.4000       0.00000
      97.5000       0.00000
      97.6000       0.00000
      97.7000       0.00000
      97.8000       0.00000
      97.9000       0.00000
      98.0000       0.00000
      98.1000       0.00000
      98.2000       0.00000
      98.3000       0.00000
      98.4000       0.00000
      98.5000       0.00000
      98.6000       0.00000
      98.7000       0.00000
      98.8000       0.00000
      98.9000       0.00000
      99.0000       0.00000
      99.1000       0.00000
      99.2000       0.00000
      99.3000       0.00000
      99.4000       0.00000
      99.5000       0.00000
      99.6000       0.00000
      99.7000       0.00000
      99.8000       0.00000
      99.9000       0.00000
      100.000       0.00000
      100.100       0.00000
      100.200       0.00000
      100.300       0.00000
      100.400       0.00000
      100.500       0.00000
      100.600       0.00000
      100.700       0.00000
      100.800       0.00000
      100.900       0.00000
      101.000       0.00000
      101.100       0.00000
      101.200       0.00000
      101.300       0.00000
      101.400       0.00000
      101.500       0.00000
      101.600       0.00000
      101.700       0.00000
      101.800       0.00000
      101.900       0.00000
      102.000       0.00000
      102.100       0.00000
      102.200       0.00000
      102.300       0.00000
      102.400       0.00000
      102.500       0.00000
      102.600       0.00000
      102.700       0.00000
      102.800       0.00000
      102.900       0.00000
      103.000       0.00000
      103.100       0.00000
      103.200       0.00000
      103.300       0.00000
      103.400       0.00000
      103.500       0.00000
      103.600       0.00000
      103.700       0.00000
      103.800       0.00000
      103.900       0.00000
      104.000       0.00000
      104.100       0.00000
      104.200       0.00000
      104.300       0.00000
      104.400       0.00000
      104.500       0.00000
      104.600       0.00000
      104.700       0.00000
      104.800       0.00000
      104.900       0.00000
      105.000       0.00000
      105.100       0.00000
      105.200       0.00000
      105.300       0.00000
      105.400       0.00000
      105.500       0.00000
      105.600       0.00000
      105.700       0.00000
      105.800       0.00000
      105.900       0.00000
      106.000       0.00000
      106.100       0.00000
      106.200       0.00000
      106.300       0.00000
      106.400       0.00000
      106.500       0.00000
      106.600       0.00000
      106.700       0.00000
      106.800       0.00000
      106.900       0.00000
      107.000       0.00000
      107.100       0.00000
      107.200       0.00000
      107.300       0.00000
      107.400       0.00000
      107.500       0.00000
      107.600       0.00000
      107.700       0.00000
      107.800       0.00000
      107.900       0.00000
      108.000       0.00000
      108.100       0.00000
      108.200       0.00000
      108.300       0.00000
      108.400       0.00000
      108.500       0.00000
      108.600       0.00000
      108.700       0.00000
      108.800       0.00000
      108.900       0.00000
      109.000       0.00000
      109.100       0.00000
      109.200       0.00000
      109.300       0.00000
      109.400       0.00000
      109.500       0.00000
      109.600       0.00000
      109.700       0.00000
      109.800       0.00000
      109.900       0.00000
      110.000       0.00000
      110.100       0.00000
      110.200       0.00000
      110.300       0.00000
      110.400       0.00000
      110.500       0.00000
      110.600   1.03612e-41
      110.700   2.67084e-29
      110.800   7.35476e-20
      110.900   2.62370e-15
      111.000   9.10498e-13
      111.100   3.27808e-11
      111.200   1.05771e-10
      111.300   2.01082e-10
      111.400   3.17012e-10
      111.500   3.52823e-10
      111.600   3.93262e-10
      111.700   4.87812e-10
      111.800   6.13866e-10
      111.900   6.78921e-10
      112.000   8.01633e-10
      112.100   9.96790e-10
      112.200   1.16827e-09
      112.300   1.28320e-09
      112.400   1.39380e-09
      112.500   1.54633e-09
      112.600   1.75715e-09
      112.700   1.97136e-09
      112.800   2.07783e-09
      112.900   2.28171e-09
      113.000   2.50254e-09
      113.100   2.67460e-09
      113.200   2.81614e-09
      113.300   2.83562e-09
      113.400   3.07489e-09
      113.500   3.32396e-09
      113.600   3.36034e-09
      113.700   3.59640e-09
      113.800   3.76836e-09
      113.900   3.91893e-09
      114.000   4.01125e-09
      114.100   4.07068e-09
      114.200   4.45112e-09
      114.300   4.69981e-09
      114.400   4.64777e-09
      114.500   4.49908e-09
      114.600   4.49657e-09
      114.700   4.52358e-09
      114.800   4.59486e-09
      114.900   4.76940e-09
      115.000   4.93760e-09
      115.100   5.04327e-09
      115.200   5.07091e-09
      115.300   5.10337e-09
      115.400   5.13139e-09
      115.500   5.16177e-09
      115.600   5.19027e-09
      115.700   5.21588e-09
      115.800   5.24552e-09
      115.900   5.27314e-09
      116.000   5.29822e-09
      116.100   5.31278e-09
      116.200   5.32497e-09
      116.300   5.33603e-09
      116.400   5.33792e-09
      116.500   5.30012e-09
      116.600   5.26132e-09
      116.700   5.22375e-09
      116.800   5.18525e-09
      116.900   5.14225e-09
      117.000   5.10490e-09
      117.100   5.08308e-09
      117.200   5.07207e-09
      117.300   5.05055e-09
      117.400   5.02837e-09
      117.500   4.99763e-09
      117.600   4.94297e-09
      117.700   4.88159e-09
      117.800   4.81781e-09
      117.900   4.75325e-09
      118.000   4.68659e-09
      118.100   4.61809e-09
      118.200   4.55270e-09
      118.300   4.48911e-09
      118.400   4.41587e-09
      118.500   4.34460e-09
      118.600   4.27910e-09
      118.700   4.21288e-09
      118.800   4.14539e-09
      118.900   4.08043e-09
      119.000   4.01109e-09
      119.100   3.93682e-09
      119.200   3.88089e-09
      119.300   3.85045e-09
      119.400   3.82797e-09
      119.500   3.80011e-09
      119.600   3.75958e-09
      119.700   3.71262e-09
      119.800   3.65836e-09
      119.900   3.59445e-09
      120.000   3.53458e-09
      120.100   3.47802e-09
      120.200   3.43457e-09
      120.300   3.39869e-09
      120.400   3.36305e-09
      120.500   3.31780e-09
      120.600   3.26551e-09
      120.700   3.21143e-09
      120.800   3.15955e-09
      120.900   3.12096e-09
      121.000   3.10244e-09
      121.100   3.08231e-09
      121.200   3.05802e-09
      121.300   3.02721e-09
      121.400   2.99136e-09
      121.500   2.95150e-09
      121.600   2.88459e-09
      121.700   2.82161e-09
      121.800   2.75434e-09
      121.900   2.68751e-09
      122.000   2.61828e-09
      122.100   2.55286e-09
      122.200   2.48901e-09
      122.300   2.43836e-09
      122.400   2.40152e-09
      122.500   2.36791e-09
      122.600   2.33310e-09
      122.700   2.29863e-09
      122.800   2.26176e-09
      122.900   2.22702e-09
      123.000   2.20717e-09
      123.100   2.21267e-09
      123.200   2.22383e-09
      123.300   2.26072e-09
      123.400   2.30813e-09
      123.500   2.37056e-09
      123.600   2.42320e-09
      123.700   2.44209e-09
      123.800   2.44114e-09
      123.900   2.44710e-09
      124.000   2.46417e-09
      124.100   2.51873e-09
      124.200   2.65737e-09
      124.300   2.87229e-09
      124.400   3.07711e-09
      124.500   3.12558e-09
      124.600   3.09954e-09
      124.700   3.05488e-09
      124.800   3.01164e-09
      124.900   2.96894e-09
      125.000   2.92668e-09
      125.100   2.88401e-09
      125.200   2.84183e-09
      125.300   2.80021e-09
      125.400   2.75917e-09
      125.500   2.71872e-09
      125.600   2.66738e-09
      125.700   2.61430e-09
      125.800   2.56894e-09
      125.900   2.55152e-09
      126.000   2.53613e-09
      126.100   2.52082e-09
      126.200   2.50560e-09
      126.300   2.49046e-09
      126.400   2.47541e-09
      126.500   2.46043e-09
      126.600   2.44555e-09
      126.700   2.43076e-09
      126.800   2.41605e-09
      126.900   2.40142e-09
      127.000   2.38680e-09
      127.100   2.36721e-09
      127.200   2.34201e-09
      127.300   2.31515e-09
      127.400   2.28858e-09
      127.500   2.26229e-09
      127.600   2.23629e-09
      127.700   2.21058e-09
      127.800   2.18513e-09
      127.900   2.15996e-09
      128.000   2.13506e-09
      128.100   2.11043e-09
      128.200   2.08606e-09
      128.300   2.06195e-09
      128.400   2.03810e-09
      128.500   2.01451e-09
      128.600   1.99118e-09
      128.700   1.96811e-09
      128.800   1.94529e-09
      128.900   1.92271e-09
      129.000   1.90040e-09
      129.100   1.87829e-09
      129.200   1.85632e-09
      129.300   1.83458e-09
      129.400   1.81309e-09
      129.500   1.79184e-09
      129.600   1.77084e-09
      129.700   1.75007e-09
      129.800   1.72954e-09
      129.900   1.70925e-09
      130.000   1.68920e-09
      130.100   1.66938e-09
      130.200   1.64979e-09
      130.300   1.63042e-09
      130.400   1.61129e-09
      130.500   1.59235e-09
      130.600   1.57358e-09
      130.700   1.55499e-09
      130.800   1.53663e-09
      130.900   1.51847e-09
      131.000   1.50053e-09
      131.100   1.48279e-09
      131.200   1.46525e-09
      131.300   1.44787e-09
      131.400   1.43069e-09
      131.500   1.41371e-09
      131.600   1.39691e-09
      131.700   1.38031e-09
      131.800   1.36389e-09
      131.900   1.34765e-09
      132.000   1.33160e-09
      132.100   1.31572e-09
      132.200   1.30002e-09
      132.300   1.28450e-09
      132.400   1.26915e-09
      132.500   1.25397e-09
      132.600   1.23898e-09
      132.700   1.22329e-09
      132.800   1.20750e-09
      132.900   1.19186e-09
      133.000   1.17641e-09
      133.100   1.16115e-09
      133.200   1.14608e-09
      133.300   1.13119e-09
      133.400   1.11648e-09
      133.500   1.10195e-09
      133.600   1.08760e-09
      133.700   1.07343e-09
      133.800   1.05944e-09
      133.900   1.04565e-09
      134.000   1.03203e-09
      134.100   1.01858e-09
      134.200   1.00530e-09
      134.300   9.92188e-10
      134.400   9.79245e-10
      134.500   9.66472e-10
      134.600   9.53857e-10
      134.700   9.41403e-10
      134.800   9.29111e-10
      134.900   9.16981e-10
      135.000   9.05003e-10
      135.100   8.93186e-10
      135.200   8.81520e-10
      135.300   8.70003e-10
      135.400   8.58629e-10
      135.500   8.47372e-10
      135.600   8.36236e-10
      135.700   8.25240e-10
      135.800   8.14379e-10
      135.900   8.03656e-10
      136.000   7.93065e-10
      136.100   7.82604e-10
      136.200   7.72288e-10
      136.300   7.62096e-10
      136.400   7.52035e-10
      136.500   7.42100e-10
      136.600   7.32285e-10
      136.700   7.22594e-10
      136.800   7.13025e-10
      136.900   7.03578e-10
      137.000   6.94256e-10
      137.100   6.85065e-10
      137.200   6.75994e-10
      137.300   6.67046e-10
      137.400   6.58213e-10
      137.500   6.49489e-10
      137.600   6.40873e-10
      137.700   6.32356e-10
      137.800   6.23941e-10
      137.900   6.15632e-10
      138.000   6.07432e-10
      138.100   5.99337e-10
      138.200   5.91358e-10
      138.300   5.83481e-10
      138.400   5.75709e-10
      138.500   5.68036e-10
      138.600   5.60463e-10
      138.700   5.52989e-10
      138.800   5.45612e-10
      138.900   5.38330e-10
      139.000   5.31143e-10
      139.100   5.24057e-10
      139.200   5.17099e-10
      139.300   5.10267e-10
      139.400   5.03534e-10
      139.500   4.96887e-10
      139.600   4.90322e-10
      139.700   4.83842e-10
      139.800   4.77444e-10
      139.900   4.71126e-10
      140.000   4.64894e-10
      140.100   4.58740e-10
      140.200   4.52664e-10
      140.300   4.46666e-10
      140.400   4.40743e-10
      140.500   4.34893e-10
      140.600   4.29116e-10
      140.700   4.23412e-10
      140.800   4.17788e-10
      140.900   4.12236e-10
      141.000   4.06752e-10
      141.100   4.01337e-10
      141.200   3.95992e-10
      141.300   3.90712e-10
      141.400   3.85514e-10
      141.500   3.80461e-10
      141.600   3.75525e-10
      141.700   3.70651e-10
      141.800   3.65839e-10
      141.900   3.61085e-10
      142.000   3.56390e-10
      142.100   3.51892e-10
      142.200   3.47850e-10
      142.300   3.44196e-10
      142.400   3.40583e-10
      142.500   3.37002e-10
      142.600   3.33455e-10
      142.700   3.29941e-10
      142.800   3.26462e-10
      142.900   3.23017e-10
      143.000   3.19605e-10
      143.100   3.16227e-10
      143.200   3.12885e-10
      143.300   3.09574e-10
      143.400   3.06297e-10
      143.500   3.03052e-10
      143.600   2.99837e-10
      143.700   2.96679e-10
      143.800   2.93881e-10
      143.900   2.91169e-10
      144.000   2.88484e-10
      144.100   2.85820e-10
      144.200   2.83180e-10
      144.300   2.80561e-10
      144.400   2.77994e-10
      144.500   2.75863e-10
      144.600   2.73876e-10
      144.700   2.71914e-10
      144.800   2.69960e-10
      144.900   2.68016e-10
      145.000   2.66082e-10
      145.100   2.64158e-10
      145.200   2.62242e-10
      145.300   2.60337e-10
      145.400   2.58440e-10
      145.500   2.56552e-10
      145.600   2.54673e-10
      145.700   2.52802e-10
      145.800   2.50941e-10
      145.900   2.49090e-10
      146.000   2.47246e-10
      146.100   2.45384e-10
      146.200   2.43514e-10
      146.300   2.41653e-10
      146.400   2.39801e-10
      146.500   2.37960e-10
      146.600   2.36129e-10
      146.700   2.34308e-10
      146.800   2.32483e-10
      146.900   2.30647e-10
      147.000   2.28821e-10
      147.100   2.27006e-10
      147.200   2.25203e-10
      147.300   2.23411e-10
      147.400   2.21629e-10
      147.500   2.19859e-10
      147.600   2.18098e-10
      147.700   2.16350e-10
      147.800   2.14613e-10
      147.900   2.12886e-10
      148.000   2.11170e-10
      148.100   2.09465e-10
      148.200   2.07772e-10
      148.300   2.06090e-10
      148.400   2.04728e-10
      148.500   2.03614e-10
      148.600   2.02587e-10
      148.700   2.01562e-10
      148.800   2.00540e-10
      148.900   1.99521e-10
      149.000   1.98506e-10
      149.100   1.97493e-10
      149.200   1.96482e-10
      149.300   1.95474e-10
      149.400   1.94468e-10
      149.500   1.93465e-10
      149.600   1.92465e-10
      149.700   1.91466e-10
      149.800   1.90471e-10
      149.900   1.89479e-10
      150.000   1.88490e-10
      150.100   1.87503e-10
      150.200   1.86517e-10
      150.300   1.85536e-10
      150.400   1.84556e-10
      150.500   1.83579e-10
      150.600   1.82605e-10
      150.700   1.81633e-10
      150.800   1.80664e-10
      150.900   1.79697e-10
      151.000   1.78732e-10
      151.100   1.77770e-10
      151.200   1.76811e-10
      151.300   1.75853e-10
      151.400   1.74899e-10
      151.500   1.73948e-10
      151.600   1.73001e-10
      151.700   1.72060e-10
      151.800   1.71121e-10
      151.900   1.70185e-10
      152.000   1.69315e-10
      152.100   1.69107e-10
      152.200   1.68982e-10
      152.300   1.68853e-10
      152.400   1.68721e-10
      152.500   1.68588e-10
      152.600   1.68454e-10
      152.700   1.67656e-10
      152.800   1.66621e-10
      152.900   1.65589e-10
      153.000   1.64562e-10
      153.100   1.63539e-10
      153.200   1.62520e-10
      153.300   1.61718e-10
      153.400   1.61121e-10
      153.500   1.60547e-10
      153.600   1.59975e-10
      153.700   1.59404e-10
      153.800   1.58833e-10
      153.900   1.58263e-10
      154.000   1.57712e-10
      154.100   1.57203e-10
      154.200   1.56708e-10
      154.300   1.56213e-10
      154.400   1.55719e-10
      154.500   1.55224e-10
      154.600   1.54729e-10
      154.700   1.54235e-10
      154.800   1.53742e-10
      154.900   1.53247e-10
      155.000   1.52753e-10
      155.100   1.52259e-10
      155.200   1.51764e-10
      155.300   1.51269e-10
      155.400   1.50774e-10
      155.500   1.50280e-10
      155.600   1.49784e-10
      155.700   1.49288e-10
      155.800   1.48792e-10
      155.900   1.48296e-10
      156.000   1.47799e-10
      156.100   1.47302e-10
      156.200   1.46805e-10
      156.300   1.46308e-10
      156.400   1.45810e-10
      156.500   1.45305e-10
      156.600   1.44768e-10
      156.700   1.44230e-10
      156.800   1.43692e-10
      156.900   1.43153e-10
      157.000   1.42616e-10
      157.100   1.42031e-10
      157.200   1.41121e-10
      157.300   1.39865e-10
      157.400   1.38618e-10
      157.500   1.37380e-10
      157.600   1.36151e-10
      157.700   1.34931e-10
      157.800   1.33720e-10
      157.900   1.33247e-10
      158.000   1.32839e-10
      158.100   1.32432e-10
      158.200   1.32024e-10
      158.300   1.31616e-10
      158.400   1.31208e-10
      158.500   1.30799e-10
      158.600   1.30390e-10
      158.700   1.29981e-10
      158.800   1.29572e-10
      158.900   1.29163e-10
      159.000   1.28754e-10
      159.100   1.28322e-10
      159.200   1.27631e-10
      159.300   1.26517e-10
      159.400   1.25412e-10
      159.500   1.24315e-10
      159.600   1.23226e-10
      159.700   1.22145e-10
      159.800   1.21072e-10
      159.900   1.20523e-10
      160.000   1.20327e-10
      160.100   1.20143e-10
      160.200   1.19957e-10
      160.300   1.19770e-10
      160.400   1.19583e-10
      160.500   1.19336e-10
      160.600   1.18749e-10
      160.700   1.17914e-10
      160.800   1.17083e-10
      160.900   1.16256e-10
      161.000   1.15434e-10
      161.100   1.14616e-10
      161.200   1.13803e-10
      161.300   1.12994e-10
      161.400   1.12189e-10
      161.500   1.11390e-10
      161.600   1.10593e-10
      161.700   1.09800e-10
      161.800   1.09011e-10
      161.900   1.08241e-10
      162.000   1.07602e-10
      162.100   1.07041e-10
      162.200   1.06483e-10
      162.300   1.05925e-10
      162.400   1.05369e-10
      162.500   1.04814e-10
      162.600   1.04261e-10
      162.700   1.03710e-10
      162.800   1.03159e-10
      162.900   1.02611e-10
      163.000   1.02064e-10
      163.100   1.01519e-10
      163.200   1.00974e-10
      163.300   1.00432e-10
      163.400   9.98906e-11
      163.500   9.93514e-11
      163.600   9.88136e-11
      163.700   9.82772e-11
      163.800   9.77433e-11
      163.900   9.72107e-11
      164.000   9.66796e-11
      164.100   9.60369e-11
      164.200   9.50896e-11
      164.300   9.41558e-11
      164.400   9.32301e-11
      164.500   9.23128e-11
      164.600   9.14036e-11
      164.700   9.05018e-11
      164.800   8.97138e-11
      164.900   8.91633e-11
      165.000   8.87090e-11
      165.100   8.82560e-11
      165.200   8.78044e-11
      165.300   8.73544e-11
      165.400   8.69066e-11
      165.500   8.64599e-11
      165.600   8.57200e-11
      165.700   8.48579e-11
      165.800   8.39940e-11
      165.900   8.31381e-11
      166.000   8.22908e-11
      166.100   8.14512e-11
      166.200   8.06197e-11
      166.300   7.97960e-11
      166.400   7.89798e-11
      166.500   7.81710e-11
      166.600   7.73698e-11
      166.700   7.65761e-11
      166.800   7.57889e-11
      166.900   7.50094e-11
      167.000   7.42384e-11
      167.100   7.34733e-11
      167.200   7.27152e-11
      167.300   7.19643e-11
      167.400   7.12205e-11
      167.500   7.04833e-11
      167.600   6.97530e-11
      167.700   6.90297e-11
      167.800   6.83131e-11
      167.900   6.76030e-11
      168.000   6.68995e-11
      168.100   6.62024e-11
      168.200   6.55119e-11
      168.300   6.48277e-11
      168.400   6.41499e-11
      168.500   6.34842e-11
      168.600   6.29624e-11
      168.700   6.25173e-11
      168.800   6.20748e-11
      168.900   6.16349e-11
      169.000   6.11976e-11
      169.100   6.07622e-11
      169.200   6.03297e-11
      169.300   5.98995e-11
      169.400   5.94716e-11
      169.500   5.90428e-11
      169.600   5.86025e-11
      169.700   5.81492e-11
      169.800   5.76940e-11
      169.900   5.72411e-11
      170.000   5.67907e-11
      170.100   5.61505e-11
      170.200   5.52354e-11
      170.300   7.19300e-11
      170.400   1.54397e-10
      170.500   2.92347e-10
      170.600   4.29931e-10
      170.700   5.39372e-10
      170.800   5.89404e-10
      170.900   5.91737e-10
      171.000   5.83489e-10
      171.100   5.75561e-10
      171.200   5.67705e-10
      171.300   5.59920e-10
      171.400   5.52208e-10
      171.500   5.44567e-10
      171.600   5.37000e-10
      171.700   5.29515e-10
      171.800   5.22112e-10
      171.900   5.14794e-10
      172.000   5.07570e-10
      172.100   5.00439e-10
      172.200   4.93408e-10
      172.300   4.86458e-10
      172.400   4.79510e-10
      172.500   4.72645e-10
      172.600   4.65883e-10
      172.700   4.59225e-10
      172.800   4.52666e-10
      172.900   4.46205e-10
      173.000   4.39846e-10
      173.100   4.33585e-10
      173.200   4.27419e-10
      173.300   4.21349e-10
      173.400   4.15369e-10
      173.500   4.09483e-10
      173.600   4.03689e-10
      173.700   3.97981e-10
      173.800   3.92363e-10
      173.900   3.86830e-10
      174.000   3.81378e-10
      174.100   3.76008e-10
      174.200   3.70719e-10
      174.300   3.65506e-10
      174.400   3.60369e-10
      174.500   3.55306e-10
      174.600   3.50313e-10
      174.700   3.45393e-10
      174.800   3.40543e-10
      174.900   3.35759e-10
      175.000   3.31039e-10
      175.100   3.26382e-10
      175.200   3.21803e-10
      175.300   3.17283e-10
      175.400   3.12823e-10
      175.500   3.08427e-10
      175.600   3.04089e-10
      175.700   2.99811e-10
      175.800   2.95590e-10
      175.900   2.91426e-10
      176.000   2.87320e-10
      176.100   2.83271e-10
      176.200   2.79276e-10
      176.300   2.75336e-10
      176.400   2.71451e-10
      176.500   2.67609e-10
      176.600   2.62314e-10
      176.700   2.56413e-10
      176.800   2.50640e-10
      176.900   2.44995e-10
      177.000   2.39473e-10
      177.100   2.34070e-10
      177.200   2.28788e-10
      177.300   2.23621e-10
      177.400   2.18565e-10
      177.500   2.13619e-10
      177.600   2.08781e-10
      177.700   2.04051e-10
      177.800   1.99423e-10
      177.900   1.94894e-10
      178.000   1.90478e-10
      178.100   1.86159e-10
      178.200   1.81934e-10
      178.300   1.77800e-10
      178.400   1.73759e-10
      178.500   1.69805e-10
      178.600   1.66012e-10
      178.700   1.62705e-10
      178.800   1.60094e-10
      178.900   1.57524e-10
      179.000   1.54993e-10
      179.100   1.52500e-10
      179.200   1.50046e-10
      179.300   1.47630e-10
      179.400   1.45252e-10
      179.500   1.42911e-10
      179.600   1.40608e-10
      179.700   1.38342e-10
      179.800   1.36111e-10
      179.900   1.33916e-10
      180.000   1.31755e-10
      180.100   1.29630e-10
      180.200   1.27540e-10
      180.300   1.25484e-10
      180.400   1.23461e-10
      180.500   1.21471e-10
      180.600   1.19514e-10
      180.700   1.17589e-10
      180.800   1.15696e-10
      180.900   1.13834e-10
      181.000   1.12002e-10
      181.100   1.10201e-10
      181.200   1.08429e-10
      181.300   1.06686e-10
      181.400   1.04973e-10
      181.500   1.03287e-10
      181.600   1.01629e-10
      181.700   9.99987e-11
      181.800   9.83946e-11
      181.900   9.68168e-11
      182.000   9.52655e-11
      182.100   9.37383e-11
      182.200   9.22477e-11
      182.300   9.08828e-11
      182.400   8.95455e-11
      182.500   8.82277e-11
      182.600   8.69294e-11
      182.700   8.56501e-11
      182.800   8.43897e-11
      182.900   8.31475e-11
      183.000   8.19238e-11
      183.100   8.07181e-11
      183.200   7.95299e-11
      183.300   7.83585e-11
      183.400   7.72043e-11
      183.500   7.60670e-11
      183.600   7.49462e-11
      183.700   7.38416e-11
      183.800   7.27541e-11
      183.900   7.16827e-11
      184.000   7.06268e-11
      184.100   6.95867e-11
      184.200   6.85617e-11
      184.300   6.75517e-11
      184.400   6.65568e-11
      184.500   6.55764e-11
      184.600   6.46099e-11
      184.700   6.36578e-11
      184.800   6.27196e-11
      184.900   6.17949e-11
      185.000   6.08836e-11
      185.100   5.99948e-11
      185.200   5.91645e-11
      185.300   5.84055e-11
      185.400   5.76560e-11
      185.500   5.69157e-11
      185.600   5.61846e-11
      185.700   5.54627e-11
      185.800   5.47504e-11
      185.900   5.40469e-11
      186.000   5.33522e-11
      186.100   5.26659e-11
      186.200   5.19880e-11
      186.300   5.13182e-11
      186.400   5.06569e-11
      186.500   5.00037e-11
      186.600   4.93581e-11
      186.700   4.87201e-11
      186.800   4.80898e-11
      186.900   4.74671e-11
      187.000   4.68519e-11
      187.100   4.62437e-11
      187.200   4.56432e-11
      187.300   4.50502e-11
      187.400   4.44642e-11
      187.500   4.38854e-11
      187.600   4.33135e-11
      187.700   4.27485e-11
      187.800   4.21904e-11
      187.900   4.16390e-11
      188.000   4.10946e-11
      188.100   4.05329e-11
      188.200   3.98952e-11
      188.300   3.91623e-11
      188.400   3.84425e-11
      188.500   3.77355e-11
      188.600   3.70415e-11
      188.700   3.63602e-11
      188.800   3.56914e-11
      188.900   3.50347e-11
      189.000   3.43897e-11
      189.100   3.37561e-11
      189.200   3.31341e-11
      189.300   3.25233e-11
      189.400   3.19238e-11
      189.500   3.13380e-11
      189.600   3.08035e-11
      189.700   3.04351e-11
      189.800   3.00739e-11
      189.900   2.97172e-11
      190.000   2.93651e-11
      190.100   2.90174e-11
      190.200   2.86739e-11
      190.300   2.83345e-11
      190.400   2.79992e-11
      190.500   2.76680e-11
      190.600   2.73409e-11
      190.700   2.70177e-11
      190.800   2.66985e-11
      190.900   2.63831e-11
      191.000   2.60718e-11
      191.100   2.57644e-11
      191.200   2.54605e-11
      191.300   2.51604e-11
      191.400   2.48640e-11
      191.500   2.45710e-11
      191.600   2.42816e-11
      191.700   2.39957e-11
      191.800   2.37130e-11
      191.900   2.34338e-11
      192.000   2.31580e-11
      192.100   2.28855e-11
      192.200   2.26166e-11
      192.300   2.23507e-11
      192.400   2.20880e-11
      192.500   2.18133e-11
      192.600   2.14929e-11
      192.700   2.11379e-11
      192.800   2.07887e-11
      192.900   2.04451e-11
      193.000   2.01071e-11
      193.100   1.97749e-11
      193.200   1.94484e-11
      193.300   1.91273e-11
      193.400   1.88116e-11
      193.500   1.85011e-11
      193.600   1.81956e-11
      193.700   1.78951e-11
      193.800   1.75997e-11
      193.900   1.73092e-11
      194.000   1.70284e-11
      194.100   1.68499e-11
      194.200   1.67066e-11
      194.300   1.65669e-11
      194.400   1.64284e-11
      194.500   1.62912e-11
      194.600   1.61552e-11
      194.700   1.60204e-11
      194.800   1.58868e-11
      194.900   1.57543e-11
      195.000   1.56229e-11
      195.100   1.54929e-11
      195.200   1.53639e-11
      195.300   1.52359e-11
      195.400   1.51090e-11
      195.500   1.49813e-11
      195.600   1.48083e-11
      195.700   1.45598e-11
      195.800   1.43152e-11
      195.900   1.40746e-11
      196.000   1.38354e-11
      196.100   1.36002e-11
      196.200   1.33688e-11
      196.300   1.31412e-11
      196.400   1.29172e-11
      196.500   1.26968e-11
      196.600   1.24801e-11
      196.700   1.22668e-11
      196.800   1.20572e-11
      196.900   1.18511e-11
      197.000   1.16484e-11
      197.100   1.14490e-11
      197.200   1.12528e-11
      197.300   1.10597e-11
      197.400   1.08697e-11
      197.500   1.06828e-11
      197.600   1.04989e-11
      197.700   1.03183e-11
      197.800   1.01407e-11
      197.900   9.96598e-12
      198.000   9.79407e-12
      198.100   9.62499e-12
      198.200   9.45866e-12
      198.300   9.29498e-12
      198.400   9.13408e-12
      198.500   8.97605e-12
      198.600   8.82070e-12
      198.700   8.68098e-12
      198.800   8.56187e-12
      198.900   8.45335e-12
      199.000   8.34607e-12
      199.100   8.24009e-12
      199.200   8.13542e-12
      199.300   8.03218e-12
      199.400   7.93023e-12
      199.500   7.82953e-12
      199.600   7.73004e-12
      199.700   7.63179e-12
      199.800   7.53478e-12
      199.900   7.43894e-12
      200.000   7.34428e-12
      200.100   7.25128e-12
      200.200   7.15910e-12
      200.300   7.06814e-12
      200.400   6.97829e-12
      200.500   6.88954e-12
      200.600   6.80197e-12
      200.700   6.71549e-12
      200.800   6.63006e-12
      200.900   6.54577e-12
      201.000   6.46253e-12
      201.100   6.38041e-12
      201.200   6.29931e-12
      201.300   6.21923e-12
      201.400   6.14020e-12
      201.500   6.06215e-12
      201.600   5.98508e-12
      201.700   5.90901e-12
      201.800   5.83388e-12
      201.900   5.75799e-12
      202.000   5.65520e-12
      202.100   5.54101e-12
      202.200   5.42913e-12
      202.300   5.32002e-12
      202.400   5.21405e-12
      202.500   5.11044e-12
      202.600   5.00884e-12
      202.700   4.90928e-12
      202.800   4.81172e-12
      202.900   4.71613e-12
      203.000   4.62246e-12
      203.100   4.53069e-12
      203.200   4.44067e-12
      203.300   4.35241e-12
      203.400   4.26590e-12
      203.500   4.18113e-12
      203.600   4.10077e-12
      203.700   4.02965e-12
      203.800   3.96078e-12
      203.900   3.89315e-12
      204.000   3.82668e-12
      204.100   3.76136e-12
      204.200   3.69719e-12
      204.300   3.63411e-12
      204.400   3.57213e-12
      204.500   3.51122e-12
      204.600   3.45135e-12
      204.700   3.39252e-12
      204.800   3.33476e-12
      204.900   3.27802e-12
      205.000   3.22225e-12
      205.100   3.16747e-12
      205.200   3.11360e-12
      205.300   3.06068e-12
      205.400   3.00868e-12
      205.500   2.95755e-12
      205.600   2.90733e-12
      205.700   2.85751e-12
      205.800   2.80844e-12
      205.900   2.76024e-12
      206.000   2.71291e-12
      206.100   2.66637e-12
      206.200   2.62061e-12
      206.300   2.57565e-12
      206.400   2.53147e-12
      206.500   2.48802e-12
      206.600   2.44532e-12
      206.700   2.40334e-12
      206.800   2.36206e-12
      206.900   2.32148e-12
      207.000   2.28159e-12
      207.100   2.24239e-12
      207.200   2.20387e-12
      207.300   2.16598e-12
      207.400   2.12872e-12
      207.500   2.09208e-12
      207.600   2.05606e-12
      207.700   2.02063e-12
      207.800   1.98579e-12
      207.900   1.95152e-12
      208.000   1.91783e-12
      208.100   1.88471e-12
      208.200   1.85213e-12
      208.300   1.82009e-12
      208.400   1.78860e-12
      208.500   1.75765e-12
      208.600   1.72720e-12
      208.700   1.69725e-12
      208.800   1.66780e-12
      208.900   1.63787e-12
      209.000   1.60433e-12
      209.100   1.56871e-12
      209.200   1.53385e-12
      209.300   1.49973e-12
      209.400   1.46636e-12
      209.500   1.43369e-12
      209.600   1.40173e-12
      209.700   1.37047e-12
      209.800   1.33993e-12
      209.900   1.31002e-12
      210.000   1.28077e-12
      210.100   1.25215e-12
      210.200   1.22415e-12
      210.300   1.19677e-12
      210.400   1.16997e-12
      210.500   1.14376e-12
      210.600   1.11812e-12
      210.700   1.09304e-12
      210.800   1.06851e-12
      210.900   1.04451e-12
      211.000   1.02103e-12
      211.100   9.98073e-13
      211.200   9.75618e-13
      211.300   9.53674e-13
      211.400   9.32225e-13
      211.500   9.11236e-13
      211.600   8.90712e-13
      211.700   8.70642e-13
      211.800   8.51002e-13
      211.900   8.31797e-13
      212.000   8.13027e-13
      212.100   7.94663e-13
      212.200   7.76701e-13
      212.300   7.58437e-13
      212.400   7.38549e-13
      212.500   7.18368e-13
      212.600   6.98726e-13
      212.700   6.79609e-13
      212.800   6.61000e-13
      212.900   6.42897e-13
      213.000   6.25275e-13
      213.100   6.08143e-13
      213.200   5.91469e-13
      213.300   5.75244e-13
      213.400   5.59451e-13
      213.500   5.44083e-13
      213.600   5.29127e-13
      213.700   5.14577e-13
      213.800   5.00415e-13
      213.900   4.86643e-13
      214.000   4.73239e-13
      214.100   4.60409e-13
      214.200   4.50468e-13
      214.300   4.42412e-13
      214.400   4.34499e-13
      214.500   4.26727e-13
      214.600   4.19095e-13
      214.700   4.11599e-13
      214.800   4.04238e-13
      214.900   3.97010e-13
      215.000   3.89909e-13
      215.100   3.82937e-13
      215.200   3.76094e-13
      215.300   3.69377e-13
      215.400   3.62779e-13
      215.500   3.56300e-13
      215.600   3.49942e-13
      215.700   3.43695e-13
      215.800   3.37560e-13
      215.900   3.31540e-13
      216.000   3.25123e-13
      216.100   3.17622e-13
      216.200   3.09841e-13
      216.300   3.02251e-13
      216.400   2.94847e-13
      216.500   2.87622e-13
      216.600   2.80576e-13
      216.700   2.73704e-13
      216.800   2.66998e-13
      216.900   2.60459e-13
      217.000   2.54079e-13
      217.100   2.47854e-13
      217.200   2.41782e-13
      217.300   2.35860e-13
      217.400   2.30082e-13
      217.500   2.24448e-13
      217.600   2.18948e-13
      217.700   2.13582e-13
      217.800   2.08349e-13
      217.900   2.03227e-13
      218.000   1.97740e-13
      218.100   1.92399e-13
      218.200   1.87202e-13
      218.300   1.82147e-13
      218.400   1.77231e-13
      218.500   1.72445e-13
      218.600   1.67788e-13
      218.700   1.63254e-13
      218.800   1.58842e-13
      218.900   1.54549e-13
      219.000   1.50368e-13
      219.100   1.46298e-13
      219.200   1.42339e-13
      219.300   1.38484e-13
      219.400   1.34732e-13
      219.500   1.31080e-13
      219.600   1.27525e-13
      219.700   1.24065e-13
      219.800   1.20698e-13
      219.900   1.17420e-13
      220.000   1.14229e-13
      220.100   1.11123e-13
      220.200   1.08100e-13
      220.300   1.05158e-13
      220.400   1.02294e-13
      220.500   9.95069e-14
      220.600   9.67948e-14
      220.700   9.41538e-14
      220.800   9.15832e-14
      220.900   8.90829e-14
      221.000   8.66484e-14
      221.100   8.42785e-14
      221.200   8.19733e-14
      221.300   7.97294e-14
      221.400   7.75452e-14
      221.500   7.54202e-14
      221.600   7.33518e-14
      221.700   7.13388e-14
      221.800   6.95080e-14
      221.900   6.80616e-14
      222.000   6.67392e-14
      222.100   6.54413e-14
      222.200   6.41685e-14
      222.300   6.29196e-14
      222.400   6.16947e-14
      222.500   6.04929e-14
      222.600   5.93143e-14
      222.700   5.81579e-14
      222.800   5.70232e-14
      222.900   5.59104e-14
      223.000   5.48187e-14
      223.100   5.37476e-14
      223.200   5.26973e-14
      223.300   5.16667e-14
      223.400   5.06561e-14
      223.500   4.96644e-14
      223.600   4.86921e-14
      223.700   4.77382e-14
      223.800   4.67854e-14
      223.900   4.57335e-14
      224.000   4.46874e-14
      224.100   4.36647e-14
      224.200   4.26650e-14
      224.300   4.16877e-14
      224.400   4.07319e-14
      224.500   3.97980e-14
      224.600   3.88846e-14
      224.700   3.79922e-14
      224.800   3.71194e-14
      224.900   3.62661e-14
      225.000   3.54321e-14
      225.100   3.46167e-14
      225.200   3.38194e-14
      225.300   3.30407e-14
      225.400   3.22789e-14
      225.500   3.15343e-14
      225.600   3.08064e-14
      225.700   3.00953e-14
      225.800   2.93998e-14
      225.900   2.88816e-14
      226.000   2.84380e-14
      226.100   2.80079e-14
      226.200   2.75841e-14
      226.300   2.71685e-14
      226.400   2.67601e-14
      226.500   2.63571e-14
      226.600   2.59594e-14
      226.700   2.55672e-14
      226.800   2.51806e-14
      226.900   2.47996e-14
      227.000   2.44240e-14
      227.100   2.40540e-14
      227.200   2.36896e-14
      227.300   2.33306e-14
      227.400   2.29770e-14
      227.500   2.26287e-14
      227.600   2.22855e-14
      227.700   2.19476e-14
      227.800   2.16148e-14
      227.900   2.12605e-14
      228.000   2.08436e-14
      228.100   2.03960e-14
      228.200   1.99577e-14
      228.300   1.95289e-14
      228.400   1.91094e-14
      228.500   1.86987e-14
      228.600   1.82968e-14
      228.700   1.79036e-14
      228.800   1.75187e-14
      228.900   1.71422e-14
      229.000   1.67737e-14
      229.100   1.64132e-14
      229.200   1.60603e-14
      229.300   1.57151e-14
      229.400   1.53773e-14
      229.500   1.50468e-14
      229.600   1.47234e-14
      229.700   1.44070e-14
      229.800   1.40973e-14
      229.900   1.37944e-14
      230.000   1.34948e-14
      230.100   1.31767e-14
      230.200   1.28512e-14
      230.300   1.25339e-14
      230.400   1.22242e-14
      230.500   1.19224e-14
      230.600   1.16280e-14
      230.700   1.13409e-14
      230.800   1.10609e-14
      230.900   1.07878e-14
      231.000   1.05214e-14
      231.100   1.02615e-14
      231.200   1.00081e-14
      231.300   9.76102e-15
      231.400   9.52005e-15
      231.500   9.28489e-15
      231.600   9.05547e-15
      231.700   8.83179e-15
      231.800   8.61365e-15
      231.900   8.40083e-15
      232.000   8.19324e-15
      232.100   7.99075e-15
      232.200   7.81919e-15
      232.300   7.68773e-15
      232.400   7.56817e-15
      232.500   7.45049e-15
      232.600   7.33468e-15
      232.700   7.22069e-15
      232.800   7.10850e-15
      232.900   6.99801e-15
      233.000   6.88915e-15
      233.100   6.78202e-15
      233.200   6.67658e-15
      233.300   6.57280e-15
      233.400   6.47066e-15
      233.500   6.37010e-15
      233.600   6.27115e-15
      233.700   6.17375e-15
      233.800   6.07528e-15
      233.900   5.97803e-15
      234.000   5.88232e-15
      234.100   5.78814e-15
      234.200   5.69551e-15
      234.300   5.60434e-15
      234.400   5.51462e-15
      234.500   5.42635e-15
      234.600   5.33947e-15
      234.700   5.25400e-15
      234.800   5.16992e-15
      234.900   5.08715e-15
      235.000   5.00569e-15
      235.100   4.92554e-15
      235.200   4.84668e-15
      235.300   4.76908e-15
      235.400   4.69269e-15
      235.500   4.61754e-15
      235.600   4.54361e-15
      235.700   4.47082e-15
      235.800   4.39924e-15
      235.900   4.32880e-15
      236.000   4.25950e-15
      236.100   4.19127e-15
      236.200   4.12413e-15
      236.300   4.05805e-15
      236.400   3.99305e-15
      236.500   3.92906e-15
      236.600   3.86881e-15
      236.700   3.81543e-15
      236.800   3.76654e-15
      236.900   3.71826e-15
      237.000   3.67059e-15
      237.100   3.62351e-15
      237.200   3.57703e-15
      237.300   3.53114e-15
      237.400   3.48582e-15
      237.500   3.44107e-15
      237.600   3.39682e-15
      237.700   3.35316e-15
      237.800   3.31006e-15
      237.900   3.26748e-15
      238.000   3.22544e-15
      238.100   3.18391e-15
      238.200   3.14291e-15
      238.300   3.10241e-15
      238.400   3.06240e-15
      238.500   3.02289e-15
      238.600   2.98388e-15
      238.700   2.94535e-15
      238.800   2.90729e-15
      238.900   2.87194e-15
      239.000   2.84481e-15
      239.100   2.81883e-15
      239.200   2.79307e-15
      239.300   2.76751e-15
      239.400   2.74217e-15
      239.500   2.71704e-15
      239.600   2.69211e-15
      239.700   2.66739e-15
      239.800   2.64289e-15
      239.900   2.61858e-15
      240.000   2.59446e-15
      240.100   2.57054e-15
      240.200   2.54683e-15
      240.300   2.52330e-15
      240.400   2.49998e-15
      240.500   2.47684e-15
      240.600   2.45391e-15
      240.700   2.43115e-15
      240.800   2.40858e-15
      240.900   2.38620e-15
      241.000   2.36401e-15
      241.100   2.34201e-15
      241.200   2.32020e-15
      241.300   2.29856e-15
      241.400   2.27711e-15
      241.500   2.25584e-15
      241.600   2.23476e-15
      241.700   2.21385e-15
      241.800   2.19311e-15
      241.900   2.17256e-15
      242.000   2.15218e-15
      242.100   2.13199e-15
      242.200   2.11197e-15
      242.300   2.09215e-15
      242.400   2.07248e-15
      242.500   2.05300e-15
      242.600   2.03368e-15
      242.700   2.01453e-15
      242.800   1.99557e-15
      242.900   1.97677e-15
      243.000   1.95814e-15
      243.100   1.93967e-15
      243.200   1.92138e-15
      243.300   1.90325e-15
      243.400   1.88529e-15
      243.500   1.86750e-15
      243.600   1.84988e-15
      243.700   1.83241e-15
      243.800   1.81512e-15
      243.900   1.79798e-15
      244.000   1.78100e-15
      244.100   1.76419e-15
      244.200   1.74753e-15
      244.300   1.73103e-15
      244.400   1.71468e-15
      244.500   1.69850e-15
      244.600   1.68246e-15
      244.700   1.66658e-15
      244.800   1.65086e-15
      244.900   1.63529e-15
      245.000   1.61986e-15
      245.100   1.60459e-15
      245.200   1.58946e-15
      245.300   1.57448e-15
      245.400   1.55964e-15
      245.500   1.54495e-15
      245.600   1.53040e-15
      245.700   1.51599e-15
      245.800   1.50172e-15
      245.900   1.48759e-15
      246.000   1.47361e-15
      246.100   1.45976e-15
      246.200   1.44604e-15
      246.300   1.43246e-15
      246.400   1.41902e-15
      246.500   1.40571e-15
      246.600   1.39252e-15
      246.700   1.37946e-15
      246.800   1.36653e-15
      246.900   1.35373e-15
      247.000   1.34106e-15
      247.100   1.32851e-15
      247.200   1.31609e-15
      247.300   1.30379e-15
      247.400   1.29161e-15
      247.500   1.27955e-15
      247.600   1.26760e-15
      247.700   1.25578e-15
      247.800   1.24407e-15
      247.900   1.23247e-15
      248.000   1.22099e-15
      248.100   1.20964e-15
      248.200   1.19839e-15
      248.300   1.18725e-15
      248.400   1.17622e-15
      248.500   1.16248e-15
      248.600   1.14425e-15
      248.700   1.12332e-15
      248.800   1.10277e-15
      248.900   1.08260e-15
      249.000   1.06280e-15
      249.100   1.04339e-15
      249.200   1.02434e-15
      249.300   1.00564e-15
      249.400   9.87279e-16
      249.500   9.69254e-16
      249.600   9.51555e-16
      249.700   9.34182e-16
      249.800   9.17122e-16
      249.900   9.00375e-16
      250.000   8.83936e-16
      250.100   8.67820e-16
      250.200   8.51992e-16
      250.300   8.36471e-16
      250.400   8.21228e-16
      250.500   8.06263e-16
      250.600   7.91576e-16
      250.700   7.77153e-16
      250.800   7.62994e-16
      250.900   7.49094e-16
      251.000   7.35447e-16
      251.100   7.22050e-16
      251.200   7.08904e-16
      251.300   6.96007e-16
      251.400   6.83349e-16
      251.500   6.70917e-16
      251.600   6.54107e-16
      251.700   6.28895e-16
      251.800   6.03369e-16
      251.900   5.78854e-16
      252.000   5.55309e-16
      252.100   5.32712e-16
      252.200   5.11004e-16
      252.300   4.90188e-16
      252.400   4.70227e-16
      252.500   4.51070e-16
      252.600   4.33639e-16
      252.700   4.22608e-16
      252.800   4.17719e-16
      252.900   4.12889e-16
      253.000   4.08115e-16
      253.100   4.03396e-16
      253.200   3.98733e-16
      253.300   3.94220e-16
      253.400   3.89799e-16
      253.500   3.85433e-16
      253.600   3.81116e-16
      253.700   3.76780e-16
      253.800   3.72170e-16
      253.900   3.67552e-16
      254.000   3.62991e-16
      254.100   3.58485e-16
      254.200   3.54034e-16
      254.300   3.49638e-16
      254.400   3.45296e-16
      254.500   3.41008e-16
      254.600   3.36770e-16
      254.700   3.32587e-16
      254.800   3.28456e-16
      254.900   3.24374e-16
      255.000   3.20343e-16
      255.100   3.16357e-16
      255.200   3.12422e-16
      255.300   3.08534e-16
      255.400   3.04693e-16
      255.500   3.00898e-16
      255.600   2.97149e-16
      255.700   2.93445e-16
      255.800   2.89785e-16
      255.900   2.86169e-16
      256.000   2.82596e-16
      256.100   2.79068e-16
      256.200   2.75582e-16
      256.300   2.72136e-16
      256.400   2.68737e-16
      256.500   2.65374e-16
      256.600   2.62052e-16
      256.700   2.58770e-16
      256.800   2.55527e-16
      256.900   2.51744e-16
      257.000   2.47089e-16
      257.100   2.42230e-16
      257.200   2.37466e-16
      257.300   2.32792e-16
      257.400   2.28242e-16
      257.500   2.23790e-16
      257.600   2.19429e-16
      257.700   2.15150e-16
      257.800   2.10951e-16
      257.900   2.06834e-16
      258.000   2.02794e-16
      258.100   1.98830e-16
      258.200   1.94943e-16
      258.300   1.91130e-16
      258.400   1.87388e-16
      258.500   1.83717e-16
      258.600   1.80117e-16
      258.700   1.76585e-16
      258.800   1.73120e-16
      258.900   1.69723e-16
      259.000   1.66390e-16
      259.100   1.63121e-16
      259.200   1.59914e-16
      259.300   1.56772e-16
      259.400   1.53689e-16
      259.500   1.50665e-16
      259.600   1.47699e-16
      259.700   1.44791e-16
      259.800   1.41938e-16
      259.900   1.39139e-16
      260.000   1.36395e-16
      260.100   1.33531e-16
      260.200   1.30512e-16
      260.300   1.27520e-16
      260.400   1.24597e-16
      260.500   1.21740e-16
      260.600   1.18945e-16
      260.700   1.16213e-16
      260.800   1.13545e-16
      260.900   1.10935e-16
      261.000   1.08386e-16
      261.100   1.05894e-16
      261.200   1.03446e-16
      261.300   1.01053e-16
      261.400   9.87149e-17
      261.500   9.64321e-17
      261.600   9.42086e-17
      261.700   9.20372e-17
      261.800   8.99152e-17
      261.900   8.78403e-17
      262.000   8.58130e-17
      262.100   8.38315e-17
      262.200   8.18961e-17
      262.300   8.00039e-17
      262.400   7.81551e-17
      262.500   7.63479e-17
      262.600   7.45817e-17
      262.700   7.28563e-17
      262.800   7.11703e-17
      262.900   6.95219e-17
      263.000   6.79128e-17
      263.100   6.63397e-17
      263.200   6.48036e-17
      263.300   6.33026e-17
      263.400   6.18357e-17
      263.500   6.04030e-17
      263.600   5.90030e-17
      263.700   5.76349e-17
      263.800   5.62979e-17
      263.900   5.49927e-17
      264.000   5.37168e-17
      264.100   5.24699e-17
      264.200   5.12514e-17
      264.300   5.00620e-17
      264.400   4.88996e-17
      264.500   4.77637e-17
      264.600   4.66538e-17
      264.700   4.55699e-17
      264.800   4.45104e-17
      264.900   4.34760e-17
      265.000   4.24653e-17
      265.100   4.14775e-17
      265.200   4.05128e-17
      265.300   3.95703e-17
      265.400   3.86384e-17
      265.500   3.77237e-17
      265.600   3.68309e-17
      265.700   3.59584e-17
      265.800   3.51078e-17
      265.900   3.42767e-17
      266.000   3.34658e-17
      266.100   3.26739e-17
      266.200   3.19007e-17
      266.300   3.11455e-17
      266.400   3.04084e-17
      266.500   2.96883e-17
      266.600   2.89854e-17
      266.700   2.82990e-17
      266.800   2.76292e-17
      266.900   2.69749e-17
      267.000   2.63360e-17
      267.100   2.57121e-17
      267.200   2.51034e-17
      267.300   2.45089e-17
      267.400   2.39282e-17
      267.500   2.33614e-17
      267.600   2.28080e-17
      267.700   2.22677e-17
      267.800   2.17400e-17
      267.900   2.12250e-17
      268.000   2.07222e-17
      268.100   2.02313e-17
      268.200   1.97520e-17
      268.300   1.92843e-17
      268.400   1.88273e-17
      268.500   1.83812e-17
      268.600   1.79456e-17
      268.700   1.75205e-17
      268.800   1.71054e-17
      268.900   1.67002e-17
      269.000   1.63046e-17
      269.100   1.59183e-17
      269.200   1.55413e-17
      269.300   1.51732e-17
      269.400   1.48135e-17
      269.500   1.44626e-17
      269.600   1.41200e-17
      269.700   1.37397e-17
      269.800   1.33584e-17
      269.900   1.29872e-17
      270.000   1.26264e-17
      270.100   1.22756e-17
      270.200   1.19349e-17
      270.300   1.16034e-17
      270.400   1.12811e-17
      270.500   1.09678e-17
      270.600   1.06630e-17
      270.700   1.03667e-17
      270.800   1.00787e-17
      270.900   9.79844e-18
      271.000   9.52609e-18
      271.100   9.26117e-18
      271.200   9.00352e-18
      271.300   8.75312e-18
      271.400   8.50954e-18
      271.500   8.27280e-18
      271.600   8.04243e-18
      271.700   7.81853e-18
      271.800   7.60085e-18
      271.900   7.38915e-18
      272.000   7.18335e-18
      272.100   6.98317e-18
      272.200   6.78857e-18
      272.300   6.59928e-18
      272.400   6.41522e-18
      272.500   6.23633e-18
      272.600   6.06230e-18
      272.700   5.89308e-18
      272.800   5.73536e-18
      272.900   5.60169e-18
      273.000   5.48017e-18
      273.100   5.36122e-18
      273.200   5.24483e-18
      273.300   5.13101e-18
      273.400   5.01960e-18
      273.500   4.91059e-18
      273.600   4.80394e-18
      273.700   4.69957e-18
      273.800   4.59744e-18
      273.900   4.48285e-18
      274.000   4.34226e-18
      274.100   4.20568e-18
      274.200   4.07334e-18
      274.300   3.94513e-18
      274.400   3.82034e-18
      274.500   3.69829e-18
      274.600   3.57981e-18
      274.700   3.46511e-18
      274.800   3.35398e-18
      274.900   3.24634e-18
      275.000   3.14212e-18
      275.100   3.04120e-18
      275.200   2.94347e-18
      275.300   2.84881e-18
      275.400   2.75717e-18
      275.500   2.66845e-18
      275.600   2.58247e-18
      275.700   2.49927e-18
      275.800   2.41872e-18
      275.900   2.34070e-18
      276.000   2.27010e-18
      276.100   2.21469e-18
      276.200   2.16319e-18
      276.300   2.11286e-18
      276.400   2.06369e-18
      276.500   2.01563e-18
      276.600   1.96868e-18
      276.700   1.92279e-18
      276.800   1.87798e-18
      276.900   1.83417e-18
      277.000   1.79138e-18
      277.100   1.74955e-18
      277.200   1.70870e-18
      277.300   1.66877e-18
      277.400   1.62976e-18
      277.500   1.59164e-18
      277.600   1.55440e-18
      277.700   1.51801e-18
      277.800   1.48245e-18
      277.900   1.44772e-18
      278.000   1.41379e-18
      278.100   1.37990e-18
      278.200   1.33845e-18
      278.300   1.29621e-18
      278.400   1.25529e-18
      278.500   1.21560e-18
      278.600   1.17715e-18
      278.700   1.13991e-18
      278.800   1.10384e-18
      278.900   1.06884e-18
      279.000   1.03491e-18
      279.100   1.00205e-18
      279.200   9.71630e-19
      279.300   9.45115e-19
      279.400   9.19591e-19
      279.500   8.94760e-19
      279.600   8.70582e-19
      279.700   8.47055e-19
      279.800   8.24143e-19
      279.900   8.01834e-19
      280.000   7.80121e-19
      280.100   7.58979e-19
      280.200   7.38409e-19
      280.300   7.18380e-19
      280.400   6.98881e-19
      280.500   6.79914e-19
      280.600   6.61446e-19
      280.700   6.43470e-19
      280.800   6.25975e-19
      280.900   6.08943e-19
      281.000   5.92367e-19
      281.100   5.76233e-19
      281.200   5.60529e-19
      281.300   5.46066e-19
      281.400   5.33505e-19
      281.500   5.21985e-19
      281.600   5.10707e-19
      281.700   4.99668e-19
      281.800   4.88870e-19
      281.900   4.78294e-19
      282.000   4.67943e-19
      282.100   4.57811e-19
      282.200   4.47903e-19
      282.300   4.38198e-19
      282.400   4.28700e-19
      282.500   4.19402e-19
      282.600   4.10305e-19
      282.700   4.01399e-19
      282.800   3.92681e-19
      282.900   3.84157e-19
      283.000   3.75810e-19
      283.100   3.67646e-19
      283.200   3.59656e-19
      283.300   3.51838e-19
      283.400   3.44187e-19
      283.500   3.35799e-19
      283.600   3.27403e-19
      283.700   3.19201e-19
      283.800   3.11203e-19
      283.900   3.03406e-19
      284.000   2.95798e-19
      284.100   2.88377e-19
      284.200   2.81139e-19
      284.300   2.74083e-19
      284.400   2.67199e-19
      284.500   2.60487e-19
      284.600   2.53941e-19
      284.700   2.47560e-19
      284.800   2.41335e-19
      284.900   2.35264e-19
      285.000   2.29342e-19
      285.100   2.23568e-19
      285.200   2.17939e-19
      285.300   2.12450e-19
      285.400   2.07095e-19
      285.500   2.01876e-19
      285.600   1.96788e-19
      285.700   1.91824e-19
      285.800   1.86987e-19
      285.900   1.82271e-19
      286.000   1.77674e-19
      286.100   1.73195e-19
      286.200   1.68823e-19
      286.300   1.64563e-19
      286.400   1.60411e-19
      286.500   1.56360e-19
      286.600   1.52245e-19
      286.700   1.47799e-19
      286.800   1.43284e-19
      286.900   1.38905e-19
      287.000   1.34658e-19
      287.100   1.30539e-19
      287.200   1.26547e-19
      287.300   1.22674e-19
      287.400   1.18918e-19
      287.500   1.15276e-19
      287.600   1.11744e-19
      287.700   1.08319e-19
      287.800   1.04999e-19
      287.900   1.01780e-19
      288.000   9.86591e-20
      288.100   9.56324e-20
      288.200   9.27015e-20
      288.300   8.98606e-20
      288.400   8.71044e-20
      288.500   8.44333e-20
      288.600   8.18414e-20
      288.700   7.93579e-20
      288.800   7.73870e-20
      288.900   7.56774e-20
      289.000   7.40049e-20
      289.100   7.23691e-20
      289.200   7.07698e-20
      289.300   6.92061e-20
      289.400   6.76765e-20
      289.500   6.61810e-20
      289.600   6.47184e-20
      289.700   6.32890e-20
      289.800   6.18904e-20
      289.900   6.05222e-20
      290.000   5.91851e-20
      290.100   5.78778e-20
      290.200   5.66004e-20
      290.300   5.53510e-20
      290.400   5.41295e-20
      290.500   5.29354e-20
      290.600   5.17669e-20
      290.700   5.06245e-20
      290.800   4.95081e-20
      290.900   4.84157e-20
      291.000   4.73469e-20
      291.100   4.63021e-20
      291.200   4.52808e-20
      291.300   4.42817e-20
      291.400   4.33050e-20
      291.500   4.23497e-20
      291.600   4.14151e-20
      291.700   4.05017e-20
      291.800   3.96087e-20
      291.900   3.87363e-20
      292.000   3.76108e-20
      292.100   3.64756e-20
      292.200   3.53720e-20
      292.300   3.43009e-20
      292.400   3.32622e-20
      292.500   3.22543e-20
      292.600   3.12768e-20
      292.700   3.03289e-20
      292.800   2.94096e-20
      292.900   2.85180e-20
      293.000   2.76532e-20
      293.100   2.68141e-20
      293.200   2.60001e-20
      293.300   2.52110e-20
      293.400   2.44461e-20
      293.500   2.37049e-20
      293.600   2.29861e-20
      293.700   2.22888e-20
      293.800   2.16125e-20
      293.900   2.09567e-20
      294.000   2.03274e-20
      294.100   1.97743e-20
      294.200   1.92793e-20
      294.300   1.87967e-20
      294.400   1.83257e-20
      294.500   1.78668e-20
      294.600   1.74191e-20
      294.700   1.69827e-20
      294.800   1.65570e-20
      294.900   1.61424e-20
      295.000   1.57383e-20
      295.100   1.53444e-20
      295.200   1.49602e-20
      295.300   1.45856e-20
      295.400   1.42203e-20
      295.500   1.38643e-20
      295.600   1.35169e-20
      295.700   1.31783e-20
      295.800   1.28480e-20
      295.900   1.25258e-20
      296.000   1.22117e-20
      296.100   1.19053e-20
      296.200   1.16067e-20
      296.300   1.13157e-20
      296.400   1.10323e-20
      296.500   1.07558e-20
      296.600   1.04861e-20
      296.700   1.02232e-20
      296.800   9.96687e-21
      296.900   9.71682e-21
      297.000   9.47299e-21
      297.100   9.23520e-21
      297.200   9.00332e-21
      297.300   8.77717e-21
      297.400   8.55666e-21
      297.500   8.34157e-21
      297.600   8.13201e-21
      297.700   7.92779e-21
      297.800   7.72871e-21
      297.900   7.53457e-21
      298.000   7.34528e-21
      298.100   7.16064e-21
      298.200   6.98061e-21
      298.300   6.79059e-21
      298.400   6.58346e-21
      298.500   6.37491e-21
      298.600   6.17284e-21
      298.700   5.97711e-21
      298.800   5.78738e-21
      298.900   5.60414e-21
      299.000   5.42665e-21
      299.100   5.25465e-21
      299.200   5.08792e-21
      299.300   4.92644e-21
      299.400   4.76996e-21
      299.500   4.61838e-21
      299.600   4.47153e-21
      299.700   4.32927e-21
      299.800   4.19135e-21
      299.900   4.05787e-21
      300.000   3.92853e-21
      300.100   3.80331e-21
      300.192   3.69169e-21
      300.285   3.58207e-21
      300.377   3.47683e-21
      300.470   3.37358e-21
      300.562   3.27442e-21
      300.654   3.17810e-21
      300.747   3.08356e-21
      300.839   2.99281e-21
      300.932   2.90368e-21
      301.025   2.81719e-21
      301.117   2.73419e-21
      301.210   2.65269e-21
      301.303   2.57357e-21
      301.395   2.49769e-21
      301.488   2.42823e-21
      301.581   2.37748e-21
      301.674   2.32823e-21
      301.766   2.28052e-21
      301.859   2.23324e-21
      301.952   2.18696e-21
      302.045   2.14162e-21
      302.138   2.09722e-21
      302.231   2.05378e-21
      302.324   2.01123e-21
      302.417   1.96954e-21
      302.510   1.92867e-21
      302.603   1.88871e-21
      302.696   1.84950e-21
      302.789   1.81111e-21
      302.882   1.77349e-21
      302.976   1.73628e-21
      303.069   1.70019e-21
      303.162   1.66486e-21
      303.255   1.63024e-21
      303.349   1.59595e-21
      303.442   1.56272e-21
      303.535   1.53020e-21
      303.629   1.49800e-21
      303.722   1.46680e-21
      303.816   1.43590e-21
      303.909   1.40597e-21
      304.003   1.37634e-21
      304.096   1.34761e-21
      304.190   1.31918e-21
      304.283   1.29163e-21
      304.377   1.26438e-21
      304.471   1.23766e-21
      304.564   1.21178e-21
      304.658   1.18501e-21
      304.752   1.15137e-21
      304.846   1.11792e-21
      304.939   1.08576e-21
      305.033   1.05417e-21
      305.127   1.02348e-21
      305.221   9.93680e-22
      305.315   9.64739e-22
      305.409   9.36616e-22
      305.503   9.09312e-22
      305.597   8.82785e-22
      305.691   8.57018e-22
      305.785   8.39248e-22
      305.879   8.23807e-22
      305.973   8.08793e-22
      306.067   7.94033e-22
      306.161   7.79548e-22
      306.255   7.65320e-22
      306.350   7.51194e-22
      306.444   7.37467e-22
      306.538   7.23985e-22
      306.633   7.10617e-22
      306.727   6.97618e-22
      306.821   6.84850e-22
      306.916   6.72186e-22
      307.010   6.59879e-22
      307.105   6.47671e-22
      307.199   6.35811e-22
      307.294   6.24033e-22
      307.388   6.12599e-22
      307.483   6.01249e-22
      307.577   5.90223e-22
      307.672   5.79281e-22
      307.767   5.68539e-22
      307.861   5.56526e-22
      307.956   5.42035e-22
      308.051   5.27454e-22
      308.146   5.13265e-22
      308.240   4.99596e-22
      308.335   4.86143e-22
      308.430   4.73041e-22
      308.525   4.60291e-22
      308.620   4.47884e-22
      308.715   4.35806e-22
      308.810   4.24050e-22
      308.905   4.12603e-22
      309.000   4.01464e-22
      309.095   3.90619e-22
      309.190   3.80069e-22
      309.285   3.69796e-22
      309.380   3.59798e-22
      309.476   3.49968e-22
      309.571   3.40497e-22
      309.666   3.31279e-22
      309.761   3.22310e-22
      309.857   3.13491e-22
      309.952   3.05039e-22
      310.047   2.97221e-22
      310.143   2.89625e-22
      310.238   2.82297e-22
      310.334   2.75079e-22
      310.429   2.68113e-22
      310.525   2.61253e-22
      310.620   2.54637e-22
      310.716   2.48117e-22
      310.811   2.41709e-22
      310.907   2.35362e-22
      311.003   2.29179e-22
      311.098   2.23216e-22
      311.194   2.17347e-22
      311.290   2.11632e-22
      311.386   2.06067e-22
      311.481   2.00701e-22
      311.577   1.95421e-22
      311.673   1.90277e-22
      311.769   1.85267e-22
      311.865   1.80389e-22
      311.961   1.75644e-22
      312.057   1.71047e-22
      312.153   1.66579e-22
      312.249   1.62227e-22
      312.345   1.57989e-22
      312.441   1.53858e-22
      312.537   1.49836e-22
      312.633   1.45920e-22
      312.730   1.42062e-22
      312.826   1.38347e-22
      312.922   1.34728e-22
      313.018   1.31203e-22
      313.115   1.27734e-22
      313.211   1.24390e-22
      313.307   1.21133e-22
      313.404   1.17930e-22
      313.500   1.14840e-22
      313.597   1.11803e-22
      313.693   1.08875e-22
      313.790   1.05994e-22
      313.886   1.03438e-22
      313.983   1.01547e-22
      314.079   9.99336e-23
      314.176   9.83295e-23
      314.273   9.67502e-23
      314.369   9.52140e-23
      314.466   9.36861e-23
      314.563   9.21825e-23
      314.660   9.07036e-23
      314.756   8.92630e-23
      314.853   8.78306e-23
      314.950   8.64217e-23
      315.047   8.50361e-23
      315.144   8.36727e-23
      315.241   8.23312e-23
      315.338   8.10111e-23
      315.435   7.97126e-23
      315.532   7.84354e-23
      315.629   7.71791e-23
      315.726   7.59427e-23
      315.823   7.47257e-23
      315.921   7.35171e-23
      316.018   7.23398e-23
      316.115   7.11823e-23
      316.212   7.00429e-23
      316.310   6.87221e-23
      316.407   6.71972e-23
      316.504   6.56306e-23
      316.602   6.40853e-23
      316.699   6.25920e-23
      316.796   6.11338e-23
      316.894   5.96952e-23
      316.991   5.83058e-23
      317.089   5.69440e-23
      317.187   5.56180e-23
      317.284   5.43362e-23
      317.382   5.30713e-23
      317.479   5.18479e-23
      317.577   5.06413e-23
      317.675   4.94629e-23
      317.773   4.83117e-23
      317.870   4.71990e-23
      317.968   4.60999e-23
      318.066   4.50270e-23
      318.164   4.39791e-23
      318.262   4.29559e-23
      318.360   4.19562e-23
      318.458   4.09802e-23
      318.556   4.00274e-23
      318.654   3.90965e-23
      318.752   3.79954e-23
      318.850   3.66986e-23
      318.948   3.53777e-23
      319.046   3.41039e-23
      319.144   3.28754e-23
      319.242   3.16914e-23
      319.341   3.05382e-23
      319.439   2.94376e-23
      319.537   2.83767e-23
      319.635   2.73535e-23
      319.734   2.63572e-23
      319.832   2.54064e-23
      319.930   2.44894e-23
      320.029   2.35967e-23
      320.127   2.27449e-23
      320.226   2.19152e-23
      320.324   2.11233e-23
      320.423   2.03520e-23
      320.522   1.96094e-23
      320.620   1.89006e-23
      320.719   1.82101e-23
      320.818   1.75448e-23
      320.916   1.69100e-23
      321.015   1.62917e-23
      321.114   1.56958e-23
      321.213   1.51216e-23
      321.311   1.45739e-23
      321.410   1.40407e-23
      321.509   1.35266e-23
      321.608   1.30314e-23
      321.707   1.25541e-23
      321.806   1.20940e-23
      321.905   1.16509e-23
      322.004   1.12236e-23
      322.103   1.08121e-23
      322.202   1.04155e-23
      322.301   1.00333e-23
      322.401   9.66144e-24
      322.500   9.30676e-24
      322.599   8.96501e-24
      322.698   8.63573e-24
      322.798   8.31527e-24
      322.897   8.00957e-24
      322.996   7.71512e-24
      323.096   7.42842e-24
      323.195   7.15508e-24
      323.294   6.89175e-24
      323.394   6.63557e-24
      323.493   6.39115e-24
      323.593   6.15339e-24
      323.692   5.92662e-24
      323.792   5.70600e-24
      323.892   5.49351e-24
      323.991   5.29079e-24
      324.091   5.09366e-24
      324.191   4.90372e-24
      324.291   4.72084e-24
      324.390   4.54653e-24
      324.490   4.37678e-24
      324.590   4.21344e-24
      324.690   4.05614e-24
      324.790   3.90460e-24
      324.890   3.75872e-24
      324.990   3.61817e-24
      325.090   3.48281e-24
      325.190   3.35253e-24
      325.290   3.22711e-24
      325.390   3.10621e-24
      325.490   2.98991e-24
      325.590   2.87793e-24
      325.690   2.77001e-24
      325.790   2.66615e-24
      325.891   2.56515e-24
      325.991   2.46889e-24
      326.091   2.37618e-24
      326.192   2.28606e-24
      326.292   2.20016e-24
      326.392   2.11748e-24
      326.493   2.03707e-24
      326.593   1.96042e-24
      326.694   1.88595e-24
      326.794   1.81494e-24
      326.895   1.74590e-24
      326.995   1.68009e-24
      327.096   1.61616e-24
      327.197   1.55461e-24
      327.297   1.49593e-24
      327.398   1.43891e-24
      327.499   1.38404e-24
      327.599   1.33174e-24
      327.700   1.28090e-24
      327.801   1.23198e-24
      327.902   1.18493e-24
      328.003   1.13963e-24
      328.104   1.09605e-24
      328.205   1.05411e-24
      328.306   1.01376e-24
      328.407   9.74942e-25
      328.508   9.37578e-25
      328.609   9.01634e-25
      328.710   8.67060e-25
      328.811   8.33789e-25
      328.912   8.01782e-25
      329.013   7.70988e-25
      329.115   7.41083e-25
      329.216   7.12589e-25
      329.317   6.85178e-25
      329.419   6.58568e-25
      329.520   6.33205e-25
      329.621   6.08805e-25
      329.723   5.85105e-25
      329.824   5.62558e-25
      329.926   5.40647e-25
      330.027   5.19775e-25
      330.129   4.99504e-25
      330.230   4.80213e-25
      330.332   4.61465e-25
      330.434   4.43446e-25
      330.535   4.26280e-25
      330.637   4.09612e-25
      330.739   3.93597e-25
      330.840   3.78340e-25
      330.942   3.63524e-25
      331.044   3.49282e-25
      331.146   3.35590e-25
      331.248   3.22429e-25
      331.350   3.09780e-25
      331.452   2.97619e-25
      331.554   2.86001e-25
      331.656   2.74928e-25
      331.758   2.64282e-25
      331.860   2.54038e-25
      331.962   2.44187e-25
      332.064   2.34712e-25
      332.166   2.25605e-25
      332.268   2.16840e-25
      332.371   2.08337e-25
      332.473   2.00234e-25
      332.575   1.92440e-25
      332.677   1.84951e-25
      332.780   1.77681e-25
      332.882   1.70758e-25
      332.985   1.64038e-25
      333.087   1.57636e-25
      333.190   1.51425e-25
      333.292   1.45492e-25
      333.395   1.39682e-25
      333.497   1.34139e-25
      333.600   1.28761e-25
      333.702   1.23645e-25
      333.805   1.18685e-25
      333.908   1.13916e-25
      334.011   1.09339e-25
      334.113   1.04985e-25
      334.216   1.00761e-25
      334.319   9.67053e-26
      334.422   9.28096e-26
      334.525   8.90693e-26
      334.628   8.54773e-26
      334.731   8.20302e-26
      334.834   7.87194e-26
      334.937   7.55392e-26
      335.040   7.24850e-26
      335.143   6.95552e-26
      335.246   6.67407e-26
      335.349   6.40388e-26
      335.452   6.14450e-26
      335.555   5.89554e-26
      335.659   5.65416e-26
      335.762   5.42472e-26
      335.865   5.20457e-26
      335.969   4.99115e-26
      336.072   4.78817e-26
      336.175   4.59354e-26
      336.279   4.40491e-26
      336.382   4.22561e-26
      336.486   4.05182e-26
      336.589   3.88665e-26
      336.693   3.72673e-26
      336.796   3.57473e-26
      336.900   3.42740e-26
      337.004   3.28601e-26
      337.107   3.15180e-26
      337.211   3.02168e-26
      337.315   2.89695e-26
      337.419   2.77724e-26
      337.523   2.66241e-26
      337.626   2.55331e-26
      337.730   2.44766e-26
      337.834   2.34630e-26
      337.938   2.24912e-26
      338.042   2.15595e-26
      338.146   2.06685e-26
      338.250   1.98146e-26
      338.354   1.89953e-26
      338.458   1.82093e-26
      338.562   1.74555e-26
      338.667   1.67260e-26
      338.771   1.60328e-26
      338.875   1.53682e-26
      338.979   1.47305e-26
      339.084   1.41138e-26
      339.188   1.35279e-26
      339.292   1.29661e-26
      339.397   1.24221e-26
      339.501   1.19057e-26
      339.606   1.14056e-26
      339.710   1.09309e-26
      339.815   1.04714e-26
      339.919   1.00353e-26
      340.024   9.61288e-27
      340.128   9.21224e-27
      340.233   8.82413e-27
      340.338   8.45253e-27
      340.442   8.09949e-27
      340.547   7.75793e-27
      340.652   7.43060e-27
      340.757   7.11695e-27
      340.862   6.81634e-27
      340.966   6.53107e-27
      341.071   6.25504e-27
      341.176   5.99053e-27
      341.281   5.73708e-27
      341.386   5.49434e-27
      341.491   5.26159e-27
      341.596   5.03877e-27
      341.702   4.82325e-27
      341.807   4.61874e-27
      341.912   4.42283e-27
      342.017   4.23511e-27
      342.122   4.05526e-27
      342.228   3.88153e-27
      342.333   3.71657e-27
      342.438   3.55857e-27
      342.544   3.40589e-27
      342.649   3.26096e-27
      342.754   3.12224e-27
      342.860   2.98807e-27
      342.965   2.86070e-27
      343.071   2.73778e-27
      343.176   2.62107e-27
      343.282   2.50823e-27
      343.388   2.40025e-27
      343.493   2.29798e-27
      343.599   2.20041e-27
      343.705   2.10708e-27
      343.810   2.01846e-27
      343.916   1.93279e-27
      344.022   1.85071e-27
      344.128   1.77211e-27
      344.234   1.69677e-27
      344.340   1.62466e-27
      344.446   1.55554e-27
      344.552   1.48934e-27
      344.658   1.42596e-27
      344.764   1.36528e-27
      344.870   1.30711e-27
      344.976   1.25144e-27
      345.082   1.19809e-27
      345.188   1.14703e-27
      345.294   1.09809e-27
      345.401   1.05081e-27
      345.507   1.00596e-27
      345.613   9.63027e-28
      345.719   9.21890e-28
      345.826   8.82145e-28
      345.932   8.44440e-28
      346.039   8.08011e-28
      346.145   7.73450e-28
      346.252   7.40068e-28
      346.358   7.08394e-28
      346.465   6.77811e-28
      346.571   6.48780e-28
      346.678   6.20731e-28
      346.785   5.93884e-28
      346.891   5.68438e-28
      346.998   5.43857e-28
      347.105   5.20322e-28
      347.212   4.97794e-28
      347.319   4.76234e-28
      347.425   4.55782e-28
      347.532   4.36030e-28
      347.639   4.17137e-28
      347.746   3.99049e-28
      347.853   3.81731e-28
      347.960   3.65170e-28
      348.067   3.49326e-28
      348.174   3.34168e-28
      348.281   3.19656e-28
      348.389   3.05647e-28
      348.496   2.92362e-28
      348.603   2.79663e-28
      348.710   2.67505e-28
      348.818   2.55767e-28
      348.925   2.44639e-28
      349.032   2.33997e-28
      349.140   2.23715e-28
      349.247   2.13971e-28
      349.355   2.04572e-28
      349.462   1.95658e-28
      349.570   1.87046e-28
      349.677   1.78894e-28
      349.785   1.71018e-28
      349.892   1.63558e-28
      350.000   1.56357e-28
      350.100   1.49969e-28
      350.193   1.44264e-28
      350.287   1.38711e-28
      350.380   1.33433e-28
      350.473   1.28352e-28
      350.567   1.23408e-28
      350.660   1.18707e-28
      350.754   1.14135e-28
      350.847   1.09786e-28
      350.941   1.05556e-28
      351.034   1.01532e-28
      351.128   9.76173e-29
      351.221   9.38951e-29
      351.315   9.02725e-29
      351.409   8.67886e-29
      351.502   8.34765e-29
      351.596   8.02555e-29
      351.690   7.71553e-29
      351.783   7.42095e-29
      351.877   7.13440e-29
      351.971   6.85877e-29
      352.065   6.59372e-29
      352.159   6.33882e-29
      352.252   6.09638e-29
      352.346   5.86056e-29
      352.440   5.63395e-29
      352.534   5.41616e-29
      352.628   5.20650e-29
      352.722   5.00491e-29
      352.816   4.81120e-29
      352.910   4.62498e-29
      353.004   4.44590e-29
      353.098   4.27362e-29
      353.192   4.10799e-29
      353.287   3.94709e-29
      353.381   3.79398e-29
      353.475   3.64694e-29
      353.569   3.50540e-29
      353.663   3.36947e-29
      353.758   3.23737e-29
      353.852   3.11172e-29
      353.946   2.99091e-29
      354.041   2.87353e-29
      354.135   2.76190e-29
      354.229   2.65457e-29
      354.324   2.55031e-29
      354.418   2.45119e-29
      354.513   2.35486e-29
      354.607   2.26332e-29
      354.702   2.17424e-29
      354.796   2.08934e-29
      354.891   2.00685e-29
      354.985   1.92846e-29
      355.080   1.85233e-29
      355.175   1.77912e-29
      355.269   1.70956e-29
      355.364   1.64196e-29
      355.459   1.57707e-29
      355.553   1.51532e-29
      355.648   1.45540e-29
      355.743   1.39785e-29
      355.838   1.34247e-29
      355.933   1.28935e-29
      356.027   1.23882e-29
      356.122   1.18973e-29
      356.217   1.14258e-29
      356.312   1.09732e-29
      356.407   1.05381e-29
      356.502   1.01203e-29
      356.597   9.71870e-30
      356.692   9.33317e-30
      356.787   8.96274e-30
      356.882   8.60667e-30
      356.977   8.26503e-30
      357.073   7.93331e-30
      357.168   7.61788e-30
      357.263   7.31515e-30
      357.358   7.02421e-30
      357.453   6.74491e-30
      357.549   6.47377e-30
      357.644   6.21613e-30
      357.739   5.96883e-30
      357.835   5.72852e-30
      357.930   5.50033e-30
      358.025   5.28117e-30
      358.121   5.06851e-30
      358.216   4.86642e-30
      358.312   4.67024e-30
      358.407   4.48397e-30
      358.503   4.30316e-30
      358.598   4.13146e-30
      358.694   3.96478e-30
      358.790   3.80467e-30
      358.885   3.65261e-30
      358.981   3.50505e-30
      359.076   3.36497e-30
      359.172   3.22903e-30
      359.268   3.09839e-30
      359.364   2.97305e-30
      359.459   2.85410e-30
      359.555   2.73857e-30
      359.651   2.62770e-30
      359.747   2.52129e-30
      359.843   2.41914e-30
      359.939   2.32110e-30
      360.035   2.22701e-30
      360.131   2.13674e-30
      360.227   2.04997e-30
      360.323   1.96680e-30
      360.419   1.88591e-30
      360.515   1.79848e-30
      360.611   1.71243e-30
      360.707   1.63038e-30
      360.803   1.55238e-30
      360.899   1.47797e-30
      360.995   1.40715e-30
      361.092   1.33897e-30
      361.188   1.27471e-30
      361.284   1.21351e-30
      361.380   1.15523e-30
      361.477   1.09914e-30
      361.573   1.04628e-30
      361.669   9.95962e-31
      361.766   9.47520e-31
      361.862   9.01912e-31
      361.959   8.58026e-31
      362.055   8.16632e-31
      362.152   7.76867e-31
      362.248   7.39385e-31
      362.345   7.03305e-31
      362.441   6.69348e-31
      362.538   6.36681e-31
      362.635   6.05588e-31
      362.731   5.76284e-31
      362.828   5.48107e-31
      362.925   5.21300e-31
      363.021   4.96036e-31
      363.118   4.71757e-31
      363.215   4.48637e-31
      363.312   4.26638e-31
      363.409   4.05721e-31
      363.505   3.86014e-31
      363.602   3.67052e-31
      363.699   3.49023e-31
      363.796   3.31869e-31
      363.893   3.15549e-31
      363.990   3.00024e-31
      364.087   2.85255e-31
      364.184   2.71206e-31
      364.281   2.57837e-31
      364.378   2.45126e-31
      364.475   2.33032e-31
      364.573   2.21410e-31
      364.670   2.10475e-31
      364.767   2.00076e-31
      364.864   1.90182e-31
      364.961   1.80774e-31
      365.059   1.71735e-31
      365.156   1.63234e-31
      365.253   1.55145e-31
      365.351   1.47375e-31
      365.448   1.40063e-31
      365.545   1.33112e-31
      365.643   1.26434e-31
      365.740   1.20150e-31
      365.838   1.14116e-31
      365.935   1.08442e-31
      366.033   1.02990e-31
      366.130   9.78607e-32
      366.228   9.29305e-32
      366.326   8.77040e-32
      366.423   8.25493e-32
      366.521   7.76446e-32
      366.618   7.30718e-32
      366.716   6.87243e-32
      366.814   6.46339e-32
      366.912   6.07852e-32
      367.010   5.71595e-32
      367.107   5.37832e-32
      367.205   5.05711e-32
      367.303   4.75497e-32
      367.401   4.47072e-32
      367.499   4.20317e-32
      367.597   3.95152e-32
      367.695   3.71483e-32
      367.793   3.49220e-32
      367.891   3.28274e-32
      367.989   3.08553e-32
      368.087   2.90019e-32
      368.185   2.72587e-32
      368.283   2.56184e-32
      368.381   2.40753e-32
      368.480   2.26108e-32
      368.578   2.12472e-32
      368.676   1.99657e-32
      368.774   1.87605e-32
      368.873   1.76158e-32
      368.971   1.65509e-32
      369.069   1.55495e-32
      369.168   1.45982e-32
      369.266   1.37139e-32
      369.364   1.28823e-32
      369.463   1.20928e-32
      369.561   1.13586e-32
      369.660   1.06617e-32
      369.758   1.00135e-32
      369.857   9.39826e-33
      369.955   8.82609e-33
      370.054   8.28290e-33
      370.153   7.77284e-33
      370.251   7.29864e-33
      370.350   6.84859e-33
      370.449   6.42615e-33
      370.547   6.03330e-33
      370.646   5.66027e-33
      370.745   5.31037e-33
      370.844   4.98176e-33
      370.943   4.67330e-33
      371.041   4.38662e-33
      371.140   4.11455e-33
      371.239   3.85913e-33
      371.338   3.61952e-33
      371.437   3.39466e-33
      371.536   3.18364e-33
      371.635   2.98544e-33
      371.734   2.79956e-33
      371.833   2.62515e-33
      371.932   2.46146e-33
      372.032   2.30634e-33
      372.131   2.16229e-33
      372.230   2.02722e-33
      372.329   1.90045e-33
      372.428   1.78152e-33
      372.528   1.66890e-33
      372.627   1.56437e-33
      372.726   1.46630e-33
      372.826   1.37341e-33
      372.925   1.28716e-33
      373.024   1.20627e-33
      373.124   1.12966e-33
      373.223   1.05862e-33
      373.323   9.91333e-34
      373.422   9.28867e-34
      373.522   8.69724e-34
      373.621   8.14883e-34
      373.721   7.62927e-34
      373.820   7.14743e-34
      373.920   6.69122e-34
      374.020   6.26351e-34
      374.119   5.86722e-34
      374.219   5.49175e-34
      374.319   5.14031e-34
      374.419   4.81126e-34
      374.518   4.50581e-34
      374.618   4.21683e-34
      374.718   3.94598e-34
      374.818   3.69270e-34
      374.918   3.45552e-34
      375.018   3.23322e-34
      375.118   3.02522e-34
      375.218   2.83034e-34
      375.318   2.64797e-34
      375.418   2.47714e-34
      375.518   2.31736e-34
      375.618   2.16777e-34
      375.718   2.02768e-34
      375.818   1.89660e-34
      375.918   1.77390e-34
      376.019   1.65798e-34
      376.119   1.55055e-34
      376.219   1.45006e-34
      376.319   1.35596e-34
      376.420   1.26711e-34
      376.520   1.18482e-34
      376.620   1.10784e-34
      376.721   1.03507e-34
      376.821   9.67724e-35
      376.922   9.04099e-35
      377.022   8.45172e-35
      377.122   7.90079e-35
      377.223   7.38036e-35
      377.323   6.89859e-35
      377.424   6.44337e-35
      377.525   6.01816e-35
      377.625   5.62455e-35
      377.726   5.25292e-35
      377.827   4.90557e-35
      377.927   4.58399e-35
      378.028   4.28058e-35
      378.129   3.99692e-35
      378.230   3.73191e-35
      378.330   3.48677e-35
      378.431   3.25541e-35
      378.532   3.03939e-35
      378.633   2.83740e-35
      378.734   2.64872e-35
      378.835   2.47255e-35
      378.936   2.30799e-35
      379.037   2.15429e-35
      379.138   2.01071e-35
      379.239   1.87659e-35
      379.340   1.75143e-35
      379.441   1.63448e-35
      379.542   1.52526e-35
      379.643   1.42331e-35
      379.745   1.32721e-35
      379.846   1.23835e-35
      379.947   1.15539e-35
      380.048   1.07798e-35
      380.150   1.00499e-35
      380.251   9.37546e-36
      380.352   8.74611e-36
      380.454   8.15314e-36
      380.555   7.60501e-36
      380.656   7.09335e-36
      380.758   6.61131e-36
      380.859   6.16610e-36
      380.961   5.74684e-36
      381.062   5.35941e-36
      381.164   4.99432e-36
      381.266   4.65397e-36
      381.367   4.33955e-36
      381.469   4.04350e-36
      381.570   3.77011e-36
      381.672   3.51263e-36
      381.774   3.27247e-36
      381.876   3.04868e-36
      381.977   2.84201e-36
      382.079   2.64742e-36
      382.181   2.46602e-36
      382.283   2.29706e-36
      382.385   2.13949e-36
      382.487   1.99256e-36
      382.589   1.85577e-36
      382.691   1.72827e-36
      382.793   1.60947e-36
      382.895   1.49874e-36
      382.997   1.39556e-36
      383.099   1.29943e-36
      383.201   1.20990e-36
      383.303   1.12644e-36
      383.405   1.04872e-36
      383.507   9.76330e-37
      383.610   9.08271e-37
      383.712   8.45475e-37
      383.814   7.87035e-37
      383.916   7.32584e-37
      384.019   6.81390e-37
      384.121   6.34178e-37
      384.223   5.90230e-37
      384.326   5.48924e-37
      384.428   5.10831e-37
      384.531   4.75035e-37
      384.633   4.42037e-37
      384.736   4.11019e-37
      384.838   3.82426e-37
      384.941   3.55564e-37
      385.043   3.30802e-37
      385.146   3.07543e-37
      385.249   2.85906e-37
      385.351   2.65962e-37
      385.454   2.47223e-37
      385.557   2.29805e-37
      385.660   2.13595e-37
      385.762   1.98668e-37
      385.865   1.84644e-37
      385.968   1.71598e-37
      386.071   1.59465e-37
      386.174   1.48187e-37
      386.277   1.37705e-37
      386.380   1.27956e-37
      386.483   1.18892e-37
      386.586   1.10468e-37
      386.689   1.02634e-37
      386.792   9.53504e-38
      386.895   8.85815e-38
      386.998   8.22898e-38
      387.101   7.64432e-38
      387.204   7.10047e-38
      387.308   6.59055e-38
      387.411   6.12129e-38
      387.514   5.68525e-38
      387.617   5.28011e-38
      387.721   4.90021e-38
      387.824   4.55061e-38
      387.927   4.22553e-38
      388.031   3.92095e-38
      388.134   3.64071e-38
      388.238   3.37814e-38
      388.341   3.13633e-38
      388.445   2.90971e-38
      388.548   2.70123e-38
      388.652   2.50589e-38
      388.755   2.32623e-38
      388.859   2.15782e-38
      388.962   2.00292e-38
      389.066   1.85769e-38
      389.170   1.72304e-38
      389.274   1.59798e-38
      389.377   1.48299e-38
      389.481   1.37522e-38
      389.585   1.27530e-38
      389.689   1.18255e-38
      389.793   1.09646e-38
      389.897   1.01667e-38
      390.000   9.43247e-39
      390.104   8.74521e-39
      390.208   8.10729e-39
      390.312   7.51568e-39
      390.416   6.96710e-39
      390.520   6.45801e-39
      390.625   5.98125e-39
      390.729   5.54394e-39
      390.833   5.13808e-39
      390.937   4.76171e-39
      391.041   4.41289e-39
      391.145   4.08945e-39
      391.250   3.78663e-39
      391.354   3.50883e-39
      391.458   3.25117e-39
      391.563   3.01009e-39
      391.667   2.78882e-39
      391.771   2.58372e-39
      391.876   2.39179e-39
      391.980   2.21563e-39
      392.085   2.05091e-39
      392.189   1.89970e-39
      392.294   1.75827e-39
      392.398   1.62851e-39
      392.503   1.50715e-39
      392.607   1.39581e-39
      392.712   1.29169e-39
      392.817   1.19524e-39
      392.921   1.10680e-39
      393.026   1.02408e-39
      393.131   9.47523e-40
      393.236   8.76607e-40
      393.340   8.11577e-40
      393.445   7.50803e-40
      393.550   6.94547e-40
      393.655   6.42449e-40
      393.760   5.94263e-40
      393.865   5.49645e-40
      393.970   5.08385e-40
      394.075   4.70164e-40
      394.180   4.34822e-40
      394.285   4.02098e-40
      394.390   3.71839e-40
      394.495   3.43823e-40
      394.600   3.17911e-40
      394.706   2.93722e-40
      394.811   2.71569e-40
      394.916   2.51057e-40
      395.021   2.32091e-40
      395.126   2.14554e-40
      395.232   1.98180e-40
      395.337   1.83183e-40
      395.443   1.69189e-40
      395.548   1.56374e-40
      395.653   1.44524e-40
      395.759   1.33460e-40
      395.864   1.23335e-40
      395.970   1.13885e-40
      396.075   1.05232e-40
      396.181   9.71590e-41
      396.286   8.97658e-41
      396.392   8.28770e-41
      396.498   7.65095e-41
      396.603   7.06759e-41
      396.709   6.52417e-41
      396.815   6.02222e-41
      396.921   5.55797e-41
      397.026   5.13366e-41
      397.132   4.73751e-41
      397.238   4.37233e-41
      397.344   4.03434e-41
      397.450   3.72311e-41
      397.556   3.43528e-41
      397.662   3.16974e-41
      397.768   2.92437e-41
      397.874   2.69778e-41
      397.980   2.48885e-41
      398.086   2.29589e-41
      398.192   2.11792e-41
      398.298   1.95341e-41
      398.404   1.80165e-41
      398.510   1.66166e-41
      398.617   1.53134e-41
      398.723   1.41223e-41
      398.829   1.30223e-41
      398.935   1.20063e-41
      399.042   1.10647e-41
      399.148   1.02015e-41
      399.255   9.39571e-42
      399.361   8.66423e-42
      399.467   7.98740e-42
      399.574   7.35822e-42
      399.680   6.78228e-42
      399.787   6.24559e-42
      399.893       0.00000
      400.000       0.00000
