Filter: Al-poly/Ti-poly
observation_date 22-Sept-2013 22:40:45
wavelength effective area 
      1.00000   2.76604e-10
      1.10000   7.87990e-10
      1.20000   2.04351e-09
      1.30000   4.87276e-09
      1.40000   1.10214e-08
      1.50000   2.34289e-08
      1.60000   4.72406e-08
      1.70000   9.13085e-08
      1.80000   1.69178e-07
      1.90000   3.02484e-07
      2.00000   5.22926e-07
      2.10000   8.77963e-07
      2.20000   1.43843e-06
      2.30000   2.29666e-06
      2.40000   3.58002e-06
      2.50000   5.73212e-06
      2.60000   8.86437e-06
      2.70000   1.31998e-05
      2.80000   1.92783e-05
      2.90000   2.78641e-05
      3.00000   3.96423e-05
      3.10000   5.56700e-05
      3.20000   7.73179e-05
      3.30000   0.000106283
      3.40000   0.000144564
      3.50000   0.000194716
      3.60000   0.000261033
      3.70000   0.000346195
      3.80000   0.000457196
      3.90000   0.000600382
      4.00000   0.000783440
      4.10000    0.00101748
      4.20000    0.00131660
      4.30000    0.00169865
      4.40000    0.00218551
      4.50000    0.00280393
      4.60000    0.00358498
      4.70000    0.00458294
      4.80000    0.00585208
      4.90000    0.00737612
      5.00000    0.00954051
      5.10000     0.0121654
      5.20000     0.0155562
      5.30000     0.0197228
      5.40000     0.0249618
      5.50000     0.0316448
      5.60000     0.0388835
      5.70000     0.0503307
      5.80000     0.0587447
      5.90000     0.0892924
      6.00000      0.119482
      6.10000      0.151995
      6.20000      0.185775
      6.30000      0.217619
      6.40000      0.244494
      6.50000      0.263728
      6.60000      0.271571
      6.70000      0.278523
      6.80000      0.277385
      6.90000      0.361883
      7.00000      0.391300
      7.10000      0.411434
      7.20000      0.426710
      7.30000      0.438546
      7.40000      0.446792
      7.50000      0.452661
      7.60000      0.456278
      7.70000      0.456483
      7.80000      0.452462
      7.90000      0.448942
      8.00000      0.751758
      8.10000      0.820708
      8.20000      0.831689
      8.30000      0.838774
      8.40000      0.842580
      8.50000      0.844987
      8.60000      0.845740
      8.70000      0.845406
      8.80000      0.843712
      8.90000      0.841094
      9.00000      0.837502
      9.10000      0.832988
      9.20000      0.827725
      9.30000      0.821649
      9.40000      0.814898
      9.50000      0.807530
      9.60000      0.799511
      9.70000      0.790940
      9.80000      0.781963
      9.90000      0.772612
      10.0000      0.762944
      10.1000      0.752972
      10.2000      0.742721
      10.3000      0.732148
      10.4000      0.721279
      10.5000      0.710141
      10.6000      0.698771
      10.7000      0.687194
      10.8000      0.675425
      10.9000      0.663496
      11.0000      0.651422
      11.1000      0.639233
      11.2000      0.626938
      11.3000      0.614568
      11.4000      0.602124
      11.5000      0.589611
      11.6000      0.577046
      11.7000      0.564394
      11.8000      0.551723
      11.9000      0.538988
      12.0000      0.525633
      12.1000      0.514269
      12.2000      0.511941
      12.3000      0.504188
      12.4000      0.492746
      12.5000      0.481065
      12.6000      0.469346
      12.7000      0.457670
      12.8000      0.446070
      12.9000      0.434556
      13.0000      0.423164
      13.1000      0.411920
      13.2000      0.400835
      13.3000      0.389922
      13.4000      0.379193
      13.5000      0.368760
      13.6000      0.358602
      13.7000      0.348615
      13.8000      0.338796
      13.9000      0.329158
      14.0000      0.319700
      14.1000      0.310409
      14.2000      0.301287
      14.3000      0.292329
      14.4000      0.283526
      14.5000      0.274890
      14.6000      0.266423
      14.7000      0.258113
      14.8000      0.249963
      14.9000      0.241973
      15.0000      0.234145
      15.1000      0.226484
      15.2000      0.219016
      15.3000      0.211719
      15.4000      0.204588
      15.5000      0.197621
      15.6000      0.190829
      15.7000      0.184215
      15.8000      0.177805
      15.9000      0.171572
      16.0000      0.165510
      16.1000      0.159619
      16.2000      0.153934
      16.3000      0.148410
      16.4000      0.143032
      16.5000      0.137797
      16.6000      0.132716
      16.7000      0.127793
      16.8000      0.122999
      16.9000      0.118332
      17.0000      0.113812
      17.1000      0.109437
      17.2000      0.105178
      17.3000      0.101039
      17.4000     0.0971147
      17.5000     0.0933764
      17.6000     0.0897909
      17.7000     0.0863835
      17.8000     0.0832149
      17.9000     0.0801374
      18.0000     0.0771283
      18.1000     0.0742235
      18.2000     0.0713708
      18.3000     0.0685599
      18.4000     0.0657956
      18.5000     0.0630811
      18.6000     0.0604017
      18.7000     0.0577578
      18.8000     0.0552107
      18.9000     0.0527376
      19.0000     0.0503647
      19.1000     0.0480907
      19.2000     0.0458904
      19.3000     0.0438007
      19.4000     0.0417992
      19.5000     0.0398653
      19.6000     0.0380494
      19.7000     0.0362990
      19.8000     0.0346082
      19.9000     0.0330199
      20.0000     0.0314785
      20.1000     0.0299986
      20.2000     0.0285852
      20.3000     0.0272120
      20.4000     0.0259088
      20.5000     0.0246503
      20.6000     0.0234329
      20.7000     0.0222812
      20.8000     0.0211609
      20.9000     0.0200934
      21.0000     0.0191071
      21.1000     0.0181839
      21.2000     0.0174235
      21.3000     0.0167131
      21.4000     0.0161043
      21.5000     0.0156005
      21.6000     0.0152015
      21.7000     0.0147984
      21.8000     0.0143958
      21.9000     0.0139718
      22.0000     0.0135350
      22.1000     0.0130625
      22.2000     0.0125220
      22.3000     0.0119240
      22.4000     0.0111044
      22.5000     0.0102223
      22.6000    0.00851853
      22.7000    0.00773617
      22.8000     0.0114838
      22.9000     0.0156919
      23.0000     0.0195519
      23.1000     0.0217944
      23.2000     0.0224611
      23.3000     0.0221849
      23.4000     0.0214189
      23.5000     0.0206548
      23.6000     0.0198964
      23.7000     0.0191205
      23.8000     0.0183511
      23.9000     0.0176147
      24.0000     0.0168879
      24.1000     0.0161855
      24.2000     0.0154965
      24.3000     0.0148397
      24.4000     0.0141971
      24.5000     0.0135821
      24.6000     0.0129833
      24.7000     0.0124126
      24.8000     0.0118580
      24.9000     0.0113287
      25.0000     0.0108155
      25.1000     0.0103267
      25.2000    0.00985298
      25.3000    0.00940198
      25.4000    0.00896499
      25.5000    0.00855064
      25.6000    0.00814905
      25.7000    0.00776997
      25.8000    0.00740105
      25.9000    0.00705382
      26.0000    0.00671448
      26.1000    0.00639660
      26.2000    0.00608440
      26.3000    0.00579427
      26.4000    0.00550744
      26.5000    0.00524271
      26.6000    0.00498083
      26.7000    0.00473816
      26.8000    0.00450027
      26.9000    0.00427743
      27.0000    0.00406089
      27.1000    0.00385547
      27.2000    0.00365788
      27.3000     0.0154088
      27.4000     0.0419062
      27.5000     0.0608909
      27.6000     0.0591960
      27.7000     0.0575188
      27.8000     0.0558655
      27.9000     0.0542294
      28.0000     0.0526524
      28.1000     0.0511001
      28.2000     0.0495960
      28.3000     0.0481292
      28.4000     0.0466950
      28.5000     0.0453086
      28.6000     0.0439414
      28.7000     0.0426455
      28.8000     0.0413636
      28.9000     0.0401287
      29.0000     0.0389167
      29.1000     0.0377369
      29.2000     0.0365916
      29.3000     0.0354644
      29.4000     0.0343841
      29.5000     0.0333157
      29.6000     0.0322895
      29.7000     0.0312826
      29.8000     0.0303029
      29.9000     0.0293554
      30.0000     0.0284200
      30.1000     0.0275289
      30.2000     0.0266480
      30.3000     0.0274466
      30.4000     0.0291840
      30.5000     0.0303383
      30.6000     0.0294131
      30.7000     0.0284985
      30.8000     0.0276205
      30.9000     0.0267606
      31.0000     0.0259208
      31.1000     0.0251140
      31.2000     0.0243166
      31.3000     0.0235542
      31.4000     0.0228062
      31.5000     0.0220773
      31.6000     0.0213786
      31.7000     0.0206883
      31.8000     0.0200279
      31.9000     0.0193808
      32.0000     0.0187458
      32.1000     0.0181305
      32.2000     0.0175229
      32.3000     0.0169411
      32.4000     0.0163747
      32.5000     0.0158190
      32.6000     0.0152996
      32.7000     0.0147878
      32.8000     0.0142943
      32.9000     0.0138176
      33.0000     0.0133469
      33.1000     0.0129143
      33.2000     0.0124925
      33.3000     0.0120810
      33.4000     0.0116880
      33.5000     0.0112998
      33.6000     0.0109269
      33.7000     0.0105662
      33.8000     0.0102098
      33.9000    0.00987277
      34.0000    0.00954183
      34.1000    0.00921879
      34.2000    0.00891145
      34.3000    0.00860775
      34.4000    0.00831434
      34.5000    0.00803298
      34.6000    0.00775501
      34.7000    0.00748751
      34.8000    0.00722657
      34.9000    0.00696878
      35.0000    0.00672667
      35.1000    0.00648880
      35.2000    0.00625562
      35.3000    0.00603988
      35.4000    0.00582678
      35.5000    0.00561965
      35.6000    0.00542327
      35.7000    0.00522932
      35.8000    0.00504258
      35.9000    0.00486411
      36.0000    0.00468787
      36.1000    0.00451962
      36.2000    0.00435768
      36.3000    0.00419777
      36.4000    0.00404626
      36.5000    0.00389951
      36.6000    0.00375463
      36.7000    0.00361827
      36.8000    0.00348555
      36.9000    0.00335454
      37.0000    0.00323186
      37.1000    0.00311202
      37.2000    0.00299372
      37.3000    0.00288343
      37.4000    0.00277542
      37.5000    0.00266882
      37.6000    0.00256964
      37.7000    0.00247243
      37.8000    0.00237651
      37.9000    0.00228736
      38.0000    0.00220006
      38.1000    0.00211391
      38.2000    0.00203378
      38.3000    0.00195549
      38.4000    0.00187825
      38.5000    0.00180621
      38.6000    0.00173613
      38.7000    0.00166699
      38.8000    0.00160222
      38.9000    0.00153961
      39.0000    0.00147784
      39.1000    0.00141961
      39.2000    0.00136378
      39.3000    0.00130871
      39.4000    0.00125633
      39.5000    0.00120663
      39.6000    0.00115762
      39.7000    0.00111049
      39.8000    0.00106636
      39.9000    0.00102283
      40.0000   0.000980440
      40.1000   0.000941346
      40.2000   0.000902796
      40.3000   0.000864789
      40.4000   0.000830061
      40.5000   0.000795952
      40.6000   0.000762321
      40.7000   0.000731045
      40.8000   0.000700918
      40.9000   0.000671220
      41.0000   0.000643031
      41.1000   0.000616469
      41.2000   0.000590291
      41.3000   0.000564887
      41.4000   0.000541551
      41.5000   0.000518549
      41.6000   0.000495880
      41.7000   0.000475160
      41.8000   0.000454967
      41.9000   0.000435068
      42.0000   0.000416369
      42.1000   0.000398696
      42.2000   0.000381280
      42.3000   0.000364382
      42.4000   0.000348935
      42.5000   0.000333714
      42.6000   0.000318717
      42.7000   0.000304967
      42.8000   0.000291691
      42.9000   0.000278611
      43.0000   0.000266158
      43.1000   0.000254608
      43.2000   0.000243230
      43.3000   0.000232023
      43.4000    0.00205799
      43.5000    0.00547640
      43.6000     0.0122920
      43.7000     0.0214361
      43.8000     0.0277231
      43.9000     0.0287483
      44.0000     0.0278000
      44.1000     0.0250535
      44.2000     0.0243427
      44.3000     0.0238076
      44.4000     0.0232867
      44.5000     0.0227841
      44.6000     0.0222831
      44.7000     0.0217838
      44.8000     0.0213110
      44.9000     0.0208433
      45.0000     0.0203771
      45.1000     0.0199202
      45.2000     0.0194835
      45.3000     0.0190483
      45.4000     0.0186145
      45.5000     0.0181991
      45.6000     0.0177931
      45.7000     0.0173885
      45.8000     0.0169862
      45.9000     0.0166081
      46.0000     0.0162313
      46.1000     0.0158558
      46.2000     0.0155027
      46.3000     0.0151874
      46.4000     0.0148731
      46.5000     0.0145599
      46.6000     0.0142639
      46.7000     0.0139769
      46.8000     0.0136909
      46.9000     0.0134058
      47.0000     0.0131431
      47.1000     0.0128826
      47.2000     0.0126231
      47.3000     0.0123671
      47.4000     0.0121248
      47.5000     0.0118834
      47.6000     0.0116427
      47.7000     0.0114086
      47.8000     0.0111843
      47.9000     0.0109608
      48.0000     0.0107380
      48.1000     0.0105232
      48.2000     0.0103147
      48.3000     0.0101069
      48.4000    0.00989974
      48.5000    0.00970289
      48.6000    0.00951052
      48.7000    0.00931879
      48.8000    0.00912769
      48.9000    0.00894665
      49.0000    0.00876809
      49.1000    0.00859013
      49.2000    0.00841278
      49.3000    0.00824549
      49.4000    0.00807956
      49.5000    0.00791419
      49.6000    0.00774936
      49.7000    0.00759453
      49.8000    0.00744044
      49.9000    0.00728687
      50.0000    0.00713392
      50.1000    0.00698804
      50.2000    0.00684699
      50.3000    0.00670839
      50.4000    0.00657243
      50.5000    0.00643906
      50.6000    0.00630819
      50.7000    0.00617971
      50.8000    0.00605351
      50.9000    0.00592999
      51.0000    0.00580896
      51.1000    0.00569036
      51.2000    0.00557387
      51.3000    0.00545967
      51.4000    0.00534793
      51.5000    0.00523804
      51.6000    0.00513015
      51.7000    0.00502418
      51.8000    0.00491924
      51.9000    0.00481626
      52.0000    0.00471515
      52.1000    0.00461611
      52.2000    0.00451884
      52.3000    0.00442328
      52.4000    0.00432992
      52.5000    0.00423832
      52.6000    0.00414709
      52.7000    0.00405628
      52.8000    0.00396712
      52.9000    0.00387993
      53.0000    0.00379464
      53.1000    0.00371094
      53.2000    0.00362903
      53.3000    0.00354867
      53.4000    0.00346991
      53.5000    0.00339290
      53.6000    0.00331736
      53.7000    0.00324327
      53.8000    0.00317078
      53.9000    0.00309971
      54.0000    0.00303018
      54.1000    0.00296229
      54.2000    0.00289569
      54.3000    0.00283033
      54.4000    0.00276637
      54.5000    0.00270369
      54.6000    0.00264232
      54.7000    0.00258242
      54.8000    0.00252374
      54.9000    0.00246618
      55.0000    0.00240988
      55.1000    0.00235471
      55.2000    0.00229868
      55.3000    0.00224212
      55.4000    0.00218674
      55.5000    0.00213251
      55.6000    0.00207960
      55.7000    0.00202792
      55.8000    0.00197734
      55.9000    0.00192797
      56.0000    0.00188003
      56.1000    0.00183244
      56.2000    0.00178531
      56.3000    0.00173939
      56.4000    0.00169451
      56.5000    0.00165063
      56.6000    0.00160782
      56.7000    0.00156608
      56.8000    0.00152528
      56.9000    0.00148549
      57.0000    0.00144729
      57.1000    0.00141036
      57.2000    0.00137425
      57.3000    0.00133894
      57.4000    0.00130450
      57.5000    0.00127091
      57.6000    0.00123809
      57.7000    0.00120600
      57.8000    0.00117474
      57.9000    0.00114426
      58.0000    0.00111449
      58.1000    0.00108540
      58.2000    0.00105706
      58.3000    0.00102940
      58.4000    0.00100237
      58.5000   0.000975979
      58.6000   0.000950292
      58.7000   0.000925246
      58.8000   0.000900781
      58.9000   0.000876888
      59.0000   0.000853576
      59.1000   0.000830864
      59.2000   0.000808702
      59.3000   0.000787090
      59.4000   0.000766013
      59.5000   0.000745490
      59.6000   0.000725488
      59.7000   0.000705955
      59.8000   0.000686880
      59.9000   0.000668271
      60.0000   0.000650189
      60.1000   0.000632557
      60.2000   0.000615362
      60.3000   0.000598594
      60.4000   0.000582243
      60.5000   0.000566332
      60.6000   0.000550810
      60.7000   0.000535677
      60.8000   0.000520928
      60.9000   0.000506538
      61.0000   0.000492526
      61.1000   0.000478883
      61.2000   0.000465590
      61.3000   0.000452641
      61.4000   0.000440026
      61.5000   0.000427738
      61.6000   0.000415777
      61.7000   0.000404152
      61.8000   0.000392974
      61.9000   0.000382133
      62.0000   0.000371568
      62.1000   0.000361276
      62.2000   0.000351278
      62.3000   0.000341536
      62.4000   0.000332034
      62.5000   0.000322771
      62.6000   0.000313743
      62.7000   0.000304967
      62.8000   0.000296667
      62.9000   0.000288590
      63.0000   0.000280724
      63.1000   0.000273056
      63.2000   0.000265576
      63.3000   0.000258277
      63.4000   0.000251164
      63.5000   0.000244251
      63.6000   0.000237519
      63.7000   0.000230960
      63.8000   0.000224571
      63.9000   0.000218345
      64.0000   0.000212276
      64.1000   0.000206364
      64.2000   0.000200616
      64.3000   0.000195027
      64.4000   0.000189582
      64.5000   0.000184275
      64.6000   0.000179103
      64.7000   0.000174064
      64.8000   0.000169155
      64.9000   0.000164374
      65.0000   0.000159722
      65.1000   0.000155206
      65.2000   0.000150813
      65.3000   0.000146533
      65.4000   0.000142364
      65.5000   0.000138304
      65.6000   0.000134349
      65.7000   0.000130499
      65.8000   0.000126754
      65.9000   0.000123115
      66.0000   0.000119578
      66.1000   0.000116144
      66.2000   0.000112802
      66.3000   0.000109548
      66.4000   0.000106378
      66.5000   0.000103292
      66.6000   0.000100288
      66.7000   9.73698e-05
      66.8000   9.45350e-05
      66.9000   9.17984e-05
      67.0000   8.91539e-05
      67.1000   8.65815e-05
      67.2000   8.40781e-05
      67.3000   8.16458e-05
      67.4000   7.92794e-05
      67.5000   7.69781e-05
      67.6000   7.47405e-05
      67.7000   7.25652e-05
      67.8000   7.04476e-05
      67.9000   6.83830e-05
      68.0000   6.63807e-05
      68.1000   6.44420e-05
      68.2000   6.25565e-05
      68.3000   6.07237e-05
      68.4000   5.89422e-05
      68.5000   5.72107e-05
      68.6000   5.55277e-05
      68.7000   5.38921e-05
      68.8000   5.23018e-05
      68.9000   5.07694e-05
      69.0000   4.93569e-05
      69.1000   4.81332e-05
      69.2000   4.70237e-05
      69.3000   4.59475e-05
      69.4000   4.49128e-05
      69.5000   4.38815e-05
      69.6000   4.28463e-05
      69.7000   4.18512e-05
      69.8000   4.08988e-05
      69.9000   3.99670e-05
      70.0000   3.90542e-05
      70.1000   3.81509e-05
      70.2000   3.73153e-05
      70.3000   3.65451e-05
      70.4000   3.57888e-05
      70.5000   3.50539e-05
      70.6000   3.43387e-05
      70.7000   3.36377e-05
      70.8000   3.29493e-05
      70.9000   3.22593e-05
      71.0000   3.15696e-05
      71.1000   3.09095e-05
      71.2000   3.02778e-05
      71.3000   2.96304e-05
      71.4000   2.89619e-05
      71.5000   2.83359e-05
      71.6000   2.77673e-05
      71.7000   2.72031e-05
      71.8000   2.66344e-05
      71.9000   2.60853e-05
      72.0000   2.55690e-05
      72.1000   2.50524e-05
      72.2000   2.44954e-05
      72.3000   2.39517e-05
      72.4000   2.34582e-05
      72.5000   2.29753e-05
      72.6000   2.25021e-05
      72.7000   2.20385e-05
      72.8000   2.15841e-05
      72.9000   2.11390e-05
      73.0000   2.07095e-05
      73.1000   2.02919e-05
      73.2000   1.98828e-05
      73.3000   1.94821e-05
      73.4000   1.90916e-05
      73.5000   1.87128e-05
      73.6000   1.83413e-05
      73.7000   1.79771e-05
      73.8000   1.76198e-05
      73.9000   1.72693e-05
      74.0000   1.69270e-05
      74.1000   1.66081e-05
      74.2000   1.63003e-05
      74.3000   1.59819e-05
      74.4000   1.56573e-05
      74.5000   1.53421e-05
      74.6000   1.50400e-05
      74.7000   1.47437e-05
      74.8000   1.44539e-05
      74.9000   1.41714e-05
      75.0000   1.38935e-05
      75.1000   1.36204e-05
      75.2000   1.33525e-05
      75.3000   1.30897e-05
      75.4000   1.28332e-05
      75.5000   1.25848e-05
      75.6000   1.23410e-05
      75.7000   1.21017e-05
      75.8000   1.18674e-05
      75.9000   1.16394e-05
      76.0000   1.14174e-05
      76.1000   1.12081e-05
      76.2000   1.10038e-05
      76.3000   1.08034e-05
      76.4000   1.06087e-05
      76.5000   1.04175e-05
      76.6000   1.02294e-05
      76.7000   1.00445e-05
      76.8000   9.86281e-06
      76.9000   9.68435e-06
      77.0000   9.50914e-06
      77.1000   9.33719e-06
      77.2000   9.16841e-06
      77.3000   9.00265e-06
      77.4000   8.83984e-06
      77.5000   8.67972e-06
      77.6000   8.52051e-06
      77.7000   8.36411e-06
      77.8000   8.21034e-06
      77.9000   8.05912e-06
      78.0000   7.90928e-06
      78.1000   7.75868e-06
      78.2000   7.61104e-06
      78.3000   7.47358e-06
      78.4000   7.34130e-06
      78.5000   7.21068e-06
      78.6000   7.08016e-06
      78.7000   6.95194e-06
      78.8000   6.82320e-06
      78.9000   6.69602e-06
      79.0000   6.57102e-06
      79.1000   6.44812e-06
      79.2000   6.32757e-06
      79.3000   6.21134e-06
      79.4000   6.09806e-06
      79.5000   5.98627e-06
      79.6000   5.87442e-06
      79.7000   5.76456e-06
      79.8000   5.65559e-06
      79.9000   5.54801e-06
      80.0000   5.44216e-06
      80.1000   5.33575e-06
      80.2000   5.23113e-06
      80.3000   5.12589e-06
      80.4000   5.02030e-06
      80.5000   4.91670e-06
      80.6000   4.81524e-06
      80.7000   4.71585e-06
      80.8000   4.61882e-06
      80.9000   4.52460e-06
      81.0000   4.43225e-06
      81.1000   4.34178e-06
      81.2000   4.25311e-06
      81.3000   4.16625e-06
      81.4000   4.08523e-06
      81.5000   4.00598e-06
      81.6000   3.92941e-06
      81.7000   3.85669e-06
      81.8000   3.78545e-06
      81.9000   3.71717e-06
      82.0000   3.65095e-06
      82.1000   3.58602e-06
      82.2000   3.52097e-06
      82.3000   3.45721e-06
      82.4000   3.39657e-06
      82.5000   3.34100e-06
      82.6000   3.28622e-06
      82.7000   3.23134e-06
      82.8000   3.17614e-06
      82.9000   3.12175e-06
      83.0000   3.06860e-06
      83.1000   3.01648e-06
      83.2000   2.96525e-06
      83.3000   2.91491e-06
      83.4000   2.86552e-06
      83.5000   2.81715e-06
      83.6000   2.77033e-06
      83.7000   2.72424e-06
      83.8000   2.67865e-06
      83.9000   2.63327e-06
      84.0000   2.58856e-06
      84.1000   2.54498e-06
      84.2000   2.50278e-06
      84.3000   2.46126e-06
      84.4000   2.42011e-06
      84.5000   2.37943e-06
      84.6000   2.33945e-06
      84.7000   2.30059e-06
      84.8000   2.26265e-06
      84.9000   2.22538e-06
      85.0000   2.18806e-06
      85.1000   2.15113e-06
      85.2000   2.11479e-06
      85.3000   2.07995e-06
      85.4000   2.04580e-06
      85.5000   2.01226e-06
      85.6000   1.97883e-06
      85.7000   1.94594e-06
      85.8000   1.91358e-06
      85.9000   1.88173e-06
      86.0000   1.85039e-06
      86.1000   1.81956e-06
      86.2000   1.78982e-06
      86.3000   1.76054e-06
      86.4000   1.73169e-06
      86.5000   1.70328e-06
      86.6000   1.67530e-06
      86.7000   1.64776e-06
      86.8000   1.61943e-06
      86.9000   1.59153e-06
      87.0000   1.56412e-06
      87.1000   1.53744e-06
      87.2000   1.51124e-06
      87.3000   1.48550e-06
      87.4000   1.45980e-06
      87.5000   1.43443e-06
      87.6000   1.40946e-06
      87.7000   1.38513e-06
      87.8000   1.36126e-06
      87.9000   1.33777e-06
      88.0000   1.31468e-06
      88.1000   1.29194e-06
      88.2000   1.26959e-06
      88.3000   1.24788e-06
      88.4000   1.22682e-06
      88.5000   1.20617e-06
      88.6000   1.18577e-06
      88.7000   1.16556e-06
      88.8000   1.14569e-06
      88.9000   1.12615e-06
      89.0000   1.10691e-06
      89.1000   1.08801e-06
      89.2000   1.06946e-06
      89.3000   1.05135e-06
      89.4000   1.03373e-06
      89.5000   1.01639e-06
      89.6000   9.99336e-07
      89.7000   9.82530e-07
      89.8000   9.65972e-07
      89.9000   9.49661e-07
      90.0000   9.33627e-07
      90.1000   9.17896e-07
      90.2000   9.02206e-07
      90.3000   8.86287e-07
      90.4000   8.70636e-07
      90.5000   8.55276e-07
      90.6000   8.40368e-07
      90.7000   8.25664e-07
      90.8000   8.11097e-07
      90.9000   7.96567e-07
      91.0000   7.82232e-07
      91.1000   7.68151e-07
      91.2000   7.54183e-07
      91.3000   7.40261e-07
      91.4000   7.26562e-07
      91.5000   7.13134e-07
      91.6000   6.99963e-07
      91.7000   6.87752e-07
      91.8000   6.76869e-07
      91.9000   6.67481e-07
      92.0000   6.57426e-07
      92.1000   6.47343e-07
      92.2000   6.36948e-07
      92.3000   6.26299e-07
      92.4000   6.15596e-07
      92.5000   6.05089e-07
      92.6000   5.94750e-07
      92.7000   5.84580e-07
      92.8000   5.74578e-07
      92.9000   5.64836e-07
      93.0000   5.55435e-07
      93.1000   5.46178e-07
      93.2000   5.37069e-07
      93.3000   5.28325e-07
      93.4000   5.19806e-07
      93.5000   5.11413e-07
      93.6000   5.03135e-07
      93.7000   4.94965e-07
      93.8000   4.86923e-07
      93.9000   4.79003e-07
      94.0000   4.71194e-07
      94.1000   4.63498e-07
      94.2000   4.55932e-07
      94.3000   4.48532e-07
      94.4000   4.41372e-07
      94.5000   4.34331e-07
      94.6000   4.27405e-07
      94.7000   4.20606e-07
      94.8000   4.13906e-07
      94.9000   4.07303e-07
      95.0000   4.00801e-07
      95.1000   3.94424e-07
      95.2000   3.88132e-07
      95.3000   3.81928e-07
      95.4000   3.75828e-07
      95.5000   3.69899e-07
      95.6000   3.64052e-07
      95.7000   3.58286e-07
      95.8000   3.52555e-07
      95.9000   3.46900e-07
      96.0000   3.41322e-07
      96.1000   3.35818e-07
      96.2000   3.30387e-07
      96.3000   3.25061e-07
      96.4000   3.19817e-07
      96.5000   3.14653e-07
      96.6000   3.09582e-07
      96.7000   3.04615e-07
      96.8000   2.99716e-07
      96.9000   2.94886e-07
      97.0000   2.90129e-07
      97.1000   2.85469e-07
      97.2000   2.80873e-07
      97.3000   2.76300e-07
      97.4000   2.71760e-07
      97.5000   2.67306e-07
      97.6000   2.62916e-07
      97.7000   2.58606e-07
      97.8000   2.54375e-07
      97.9000   2.50221e-07
      98.0000   2.46128e-07
      98.1000   2.42093e-07
      98.2000   2.38128e-07
      98.3000   2.34585e-07
      98.4000   2.31264e-07
      98.5000   2.28103e-07
      98.6000   2.24989e-07
      98.7000   2.21916e-07
      98.8000   2.18878e-07
      98.9000   2.15875e-07
      99.0000   2.12921e-07
      99.1000   2.10003e-07
      99.2000   2.07107e-07
      99.3000   2.04185e-07
      99.4000   2.01309e-07
      99.5000   1.98470e-07
      99.6000   1.95683e-07
      99.7000   1.93029e-07
      99.8000   1.90490e-07
      99.9000   1.88685e-07
      100.000   1.87988e-07
      100.100   1.87229e-07
      100.200   1.86470e-07
      100.300   1.85711e-07
      100.400   1.84953e-07
      100.500   1.84220e-07
      100.600   1.83483e-07
      100.700   1.82745e-07
      100.800   1.82005e-07
      100.900   1.81264e-07
      101.000   1.80524e-07
      101.100   1.79784e-07
      101.200   1.79048e-07
      101.300   1.78313e-07
      101.400   1.77582e-07
      101.500   1.76793e-07
      101.600   1.75928e-07
      101.700   1.75083e-07
      101.800   1.74247e-07
      101.900   1.73412e-07
      102.000   1.72583e-07
      102.100   1.71783e-07
      102.200   1.70997e-07
      102.300   1.70213e-07
      102.400   1.69431e-07
      102.500   1.68650e-07
      102.600   1.67869e-07
      102.700   1.67088e-07
      102.800   1.66307e-07
      102.900   1.65526e-07
      103.000   1.64745e-07
      103.100   1.63964e-07
      103.200   1.63185e-07
      103.300   1.62407e-07
      103.400   1.61630e-07
      103.500   1.60854e-07
      103.600   1.60080e-07
      103.700   1.59305e-07
      103.800   1.58495e-07
      103.900   1.57643e-07
      104.000   1.56792e-07
      104.100   1.55947e-07
      104.200   1.55125e-07
      104.300   1.54420e-07
      104.400   1.53721e-07
      104.500   1.53025e-07
      104.600   1.52329e-07
      104.700   1.51597e-07
      104.800   1.50850e-07
      104.900   1.50103e-07
      105.000   1.49355e-07
      105.100   1.48632e-07
      105.200   1.47972e-07
      105.300   1.47313e-07
      105.400   1.46654e-07
      105.500   1.45997e-07
      105.600   1.45356e-07
      105.700   1.44721e-07
      105.800   1.44087e-07
      105.900   1.43456e-07
      106.000   1.42850e-07
      106.100   1.42289e-07
      106.200   1.41733e-07
      106.300   1.41177e-07
      106.400   1.40621e-07
      106.500   1.40065e-07
      106.600   1.39509e-07
      106.700   1.38951e-07
      106.800   1.38392e-07
      106.900   1.37833e-07
      107.000   1.37272e-07
      107.100   1.36711e-07
      107.200   1.36150e-07
      107.300   1.35590e-07
      107.400   1.35028e-07
      107.500   1.34467e-07
      107.600   1.33908e-07
      107.700   1.33352e-07
      107.800   1.32800e-07
      107.900   1.32242e-07
      108.000   1.31686e-07
      108.100   1.31131e-07
      108.200   1.30576e-07
      108.300   1.30020e-07
      108.400   1.29452e-07
      108.500   1.28883e-07
      108.600   1.28313e-07
      108.700   1.27741e-07
      108.800   1.27136e-07
      108.900   1.26485e-07
      109.000   1.25834e-07
      109.100   1.25183e-07
      109.200   1.24533e-07
      109.300   1.23885e-07
      109.400   1.23239e-07
      109.500   1.22596e-07
      109.600   1.21955e-07
      109.700   1.21318e-07
      109.800   1.20684e-07
      109.900   1.20054e-07
      110.000   1.19427e-07
      110.100   1.18804e-07
      110.200   1.18184e-07
      110.300   1.17585e-07
      110.400   1.16989e-07
      110.500   1.16396e-07
      110.600   1.15802e-07
      110.700   1.15210e-07
      110.800   1.14618e-07
      110.900   1.14026e-07
      111.000   1.13435e-07
      111.100   1.12844e-07
      111.200   1.12256e-07
      111.300   1.11707e-07
      111.400   1.11159e-07
      111.500   1.10611e-07
      111.600   1.10064e-07
      111.700   1.09518e-07
      111.800   1.08998e-07
      111.900   1.08479e-07
      112.000   1.07960e-07
      112.100   1.07443e-07
      112.200   1.06928e-07
      112.300   1.06391e-07
      112.400   1.05855e-07
      112.500   1.05322e-07
      112.600   1.04792e-07
      112.700   1.04269e-07
      112.800   1.03772e-07
      112.900   1.03220e-07
      113.000   1.02690e-07
      113.100   1.02171e-07
      113.200   1.01641e-07
      113.300   1.01125e-07
      113.400   1.00481e-07
      113.500   9.98065e-08
      113.600   9.92446e-08
      113.700   9.86492e-08
      113.800   9.79797e-08
      113.900   9.74198e-08
      114.000   9.68601e-08
      114.100   9.62237e-08
      114.200   9.56276e-08
      114.300   9.50949e-08
      114.400   9.45473e-08
      114.500   9.39849e-08
      114.600   9.35048e-08
      114.700   9.29667e-08
      114.800   9.24720e-08
      114.900   9.20734e-08
      115.000   9.16094e-08
      115.100   9.11077e-08
      115.200   9.06041e-08
      115.300   9.01867e-08
      115.400   8.96903e-08
      115.500   8.92346e-08
      115.600   8.87460e-08
      115.700   8.82078e-08
      115.800   8.77375e-08
      115.900   8.72319e-08
      116.000   8.67849e-08
      116.100   8.64273e-08
      116.200   8.60618e-08
      116.300   8.56797e-08
      116.400   8.52683e-08
      116.500   8.49209e-08
      116.600   8.45535e-08
      116.700   8.42025e-08
      116.800   8.38333e-08
      116.900   8.33877e-08
      117.000   8.30307e-08
      117.100   8.29245e-08
      117.200   8.29943e-08
      117.300   8.28922e-08
      117.400   8.27790e-08
      117.500   8.26686e-08
      117.600   8.24575e-08
      117.700   8.22071e-08
      117.800   8.19043e-08
      117.900   8.15749e-08
      118.000   8.11953e-08
      118.100   8.07678e-08
      118.200   8.03785e-08
      118.300   8.00058e-08
      118.400   7.94440e-08
      118.500   7.88987e-08
      118.600   7.84411e-08
      118.700   7.79538e-08
      118.800   7.74261e-08
      118.900   7.69285e-08
      119.000   7.63313e-08
      119.100   7.56269e-08
      119.200   7.50455e-08
      119.300   7.45660e-08
      119.400   7.41348e-08
      119.500   7.37260e-08
      119.600   7.32519e-08
      119.700   7.27021e-08
      119.800   7.20008e-08
      119.900   7.10995e-08
      120.000   7.02672e-08
      120.100   6.94906e-08
      120.200   6.89673e-08
      120.300   6.85894e-08
      120.400   6.82104e-08
      120.500   6.76296e-08
      120.600   6.68968e-08
      120.700   6.61174e-08
      120.800   6.53736e-08
      120.900   6.48963e-08
      121.000   6.48312e-08
      121.100   6.46984e-08
      121.200   6.43660e-08
      121.300   6.38879e-08
      121.400   6.32994e-08
      121.500   6.26285e-08
      121.600   6.16339e-08
      121.700   6.07734e-08
      121.800   5.98015e-08
      121.900   5.88191e-08
      122.000   5.77636e-08
      122.100   5.67716e-08
      122.200   5.57949e-08
      122.300   5.50965e-08
      122.400   5.46975e-08
      122.500   5.43627e-08
      122.600   5.39910e-08
      122.700   5.36176e-08
      122.800   5.31783e-08
      122.900   5.27792e-08
      123.000   5.27261e-08
      123.100   5.32718e-08
      123.200   5.38573e-08
      123.300   5.47501e-08
      123.400   5.58973e-08
      123.500   5.74080e-08
      123.600   5.87096e-08
      123.700   5.93950e-08
      123.800   5.99045e-08
      123.900   6.05892e-08
      124.000   6.15583e-08
      124.100   6.34549e-08
      124.200   6.73291e-08
      124.300   7.31298e-08
      124.400   7.87258e-08
      124.500   8.03595e-08
      124.600   8.01572e-08
      124.700   7.97437e-08
      124.800   7.93522e-08
      124.900   7.89599e-08
      125.000   7.85666e-08
      125.100   7.81708e-08
      125.200   7.77756e-08
      125.300   7.73812e-08
      125.400   7.69885e-08
      125.500   7.65973e-08
      125.600   7.62073e-08
      125.700   7.58194e-08
      125.800   7.54326e-08
      125.900   7.50481e-08
      126.000   7.46653e-08
      126.100   7.42843e-08
      126.200   7.39048e-08
      126.300   7.35268e-08
      126.400   7.31501e-08
      126.500   7.27743e-08
      126.600   7.23997e-08
      126.700   7.20259e-08
      126.800   7.16529e-08
      126.900   7.12801e-08
      127.000   7.09064e-08
      127.100   7.05297e-08
      127.200   7.01527e-08
      127.300   6.97751e-08
      127.400   6.93981e-08
      127.500   6.90216e-08
      127.600   6.86461e-08
      127.700   6.82716e-08
      127.800   6.78980e-08
      127.900   6.75256e-08
      128.000   6.71548e-08
      128.100   6.67852e-08
      128.200   6.64172e-08
      128.300   6.60507e-08
      128.400   6.56858e-08
      128.500   6.53222e-08
      128.600   6.49597e-08
      128.700   6.45991e-08
      128.800   6.42397e-08
      128.900   6.38813e-08
      129.000   6.35244e-08
      129.100   6.31674e-08
      129.200   6.28074e-08
      129.300   6.24486e-08
      129.400   6.20911e-08
      129.500   6.17348e-08
      129.600   6.13798e-08
      129.700   6.10259e-08
      129.800   6.06731e-08
      129.900   6.03217e-08
      130.000   5.99717e-08
      130.100   5.96232e-08
      130.200   5.92759e-08
      130.300   5.89302e-08
      130.400   5.85861e-08
      130.500   5.82432e-08
      130.600   5.79017e-08
      130.700   5.75620e-08
      130.800   5.72240e-08
      130.900   5.68875e-08
      131.000   5.65523e-08
      131.100   5.62189e-08
      131.200   5.58865e-08
      131.300   5.55545e-08
      131.400   5.52239e-08
      131.500   5.48947e-08
      131.600   5.45667e-08
      131.700   5.42401e-08
      131.800   5.39146e-08
      131.900   5.35901e-08
      132.000   5.32667e-08
      132.100   5.29443e-08
      132.200   5.26231e-08
      132.300   5.23029e-08
      132.400   5.19838e-08
      132.500   5.16658e-08
      132.600   5.13491e-08
      132.700   5.10335e-08
      132.800   5.07192e-08
      132.900   5.04063e-08
      133.000   5.00948e-08
      133.100   4.97847e-08
      133.200   4.94760e-08
      133.300   4.91685e-08
      133.400   4.88620e-08
      133.500   4.85568e-08
      133.600   4.82530e-08
      133.700   4.79507e-08
      133.800   4.76497e-08
      133.900   4.73502e-08
      134.000   4.70521e-08
      134.100   4.67554e-08
      134.200   4.64600e-08
      134.300   4.61659e-08
      134.400   4.58733e-08
      134.500   4.55823e-08
      134.600   4.52925e-08
      134.700   4.50041e-08
      134.800   4.47172e-08
      134.900   4.44316e-08
      135.000   4.41475e-08
      135.100   4.38648e-08
      135.200   4.35836e-08
      135.300   4.33038e-08
      135.400   4.30254e-08
      135.500   4.27479e-08
      135.600   4.24714e-08
      135.700   4.21961e-08
      135.800   4.19222e-08
      135.900   4.16497e-08
      136.000   4.13785e-08
      136.100   4.11086e-08
      136.200   4.08403e-08
      136.300   4.05729e-08
      136.400   4.03068e-08
      136.500   4.00420e-08
      136.600   3.97783e-08
      136.700   3.95158e-08
      136.800   3.92545e-08
      136.900   3.89943e-08
      137.000   3.87351e-08
      137.100   3.84769e-08
      137.200   3.82197e-08
      137.300   3.79636e-08
      137.400   3.77088e-08
      137.500   3.74550e-08
      137.600   3.72092e-08
      137.700   3.69814e-08
      137.800   3.67674e-08
      137.900   3.65541e-08
      138.000   3.63417e-08
      138.100   3.61304e-08
      138.200   3.59202e-08
      138.300   3.57108e-08
      138.400   3.55026e-08
      138.500   3.52955e-08
      138.600   3.50894e-08
      138.700   3.48844e-08
      138.800   3.46804e-08
      138.900   3.44775e-08
      139.000   3.42756e-08
      139.100   3.40747e-08
      139.200   3.38747e-08
      139.300   3.36756e-08
      139.400   3.34774e-08
      139.500   3.32800e-08
      139.600   3.30833e-08
      139.700   3.28874e-08
      139.800   3.26923e-08
      139.900   3.24978e-08
      140.000   3.23037e-08
      140.100   3.21102e-08
      140.200   3.19174e-08
      140.300   3.17254e-08
      140.400   3.15341e-08
      140.500   3.13434e-08
      140.600   3.11535e-08
      140.700   3.09642e-08
      140.800   3.07759e-08
      140.900   3.05882e-08
      141.000   3.04011e-08
      141.100   3.02149e-08
      141.200   3.00296e-08
      141.300   2.98451e-08
      141.400   2.96614e-08
      141.500   2.94786e-08
      141.600   2.92967e-08
      141.700   2.91156e-08
      141.800   2.89354e-08
      141.900   2.87562e-08
      142.000   2.85778e-08
      142.100   2.84225e-08
      142.200   2.83312e-08
      142.300   2.82949e-08
      142.400   2.82580e-08
      142.500   2.82203e-08
      142.600   2.81822e-08
      142.700   2.81436e-08
      142.800   2.81044e-08
      142.900   2.80645e-08
      143.000   2.80242e-08
      143.100   2.79830e-08
      143.200   2.79414e-08
      143.300   2.78990e-08
      143.400   2.78561e-08
      143.500   2.78129e-08
      143.600   2.77690e-08
      143.700   2.77247e-08
      143.800   2.76799e-08
      143.900   2.76347e-08
      144.000   2.75891e-08
      144.100   2.75430e-08
      144.200   2.74967e-08
      144.300   2.74501e-08
      144.400   2.74091e-08
      144.500   2.74474e-08
      144.600   2.75107e-08
      144.700   2.75762e-08
      144.800   2.76410e-08
      144.900   2.77051e-08
      145.000   2.77686e-08
      145.100   2.78315e-08
      145.200   2.78935e-08
      145.300   2.79548e-08
      145.400   2.80154e-08
      145.500   2.80750e-08
      145.600   2.81337e-08
      145.700   2.81914e-08
      145.800   2.82484e-08
      145.900   2.83044e-08
      146.000   2.83594e-08
      146.100   2.84133e-08
      146.200   2.84663e-08
      146.300   2.85183e-08
      146.400   2.85692e-08
      146.500   2.86189e-08
      146.600   2.86676e-08
      146.700   2.87154e-08
      146.800   2.87604e-08
      146.900   2.88019e-08
      147.000   2.88424e-08
      147.100   2.88817e-08
      147.200   2.89203e-08
      147.300   2.89580e-08
      147.400   2.89949e-08
      147.500   2.90311e-08
      147.600   2.90664e-08
      147.700   2.91010e-08
      147.800   2.91349e-08
      147.900   2.91680e-08
      148.000   2.92004e-08
      148.100   2.92322e-08
      148.200   2.92634e-08
      148.300   2.92940e-08
      148.400   2.93240e-08
      148.500   2.93532e-08
      148.600   2.93818e-08
      148.700   2.94097e-08
      148.800   2.94367e-08
      148.900   2.94631e-08
      149.000   2.94888e-08
      149.100   2.95136e-08
      149.200   2.95374e-08
      149.300   2.95602e-08
      149.400   2.95823e-08
      149.500   2.96034e-08
      149.600   2.96234e-08
      149.700   2.96424e-08
      149.800   2.96606e-08
      149.900   2.96779e-08
      150.000   2.96943e-08
      150.100   2.97097e-08
      150.200   2.97238e-08
      150.300   2.97371e-08
      150.400   2.97495e-08
      150.500   2.97609e-08
      150.600   2.97713e-08
      150.700   2.97809e-08
      150.800   2.97894e-08
      150.900   2.97968e-08
      151.000   2.98032e-08
      151.100   2.98090e-08
      151.200   2.98137e-08
      151.300   2.98174e-08
      151.400   2.98204e-08
      151.500   2.98223e-08
      151.600   2.98241e-08
      151.700   2.98258e-08
      151.800   2.98268e-08
      151.900   2.98268e-08
      152.000   2.98258e-08
      152.100   2.98241e-08
      152.200   2.98216e-08
      152.300   2.98180e-08
      152.400   2.98136e-08
      152.500   2.98085e-08
      152.600   2.98025e-08
      152.700   2.97957e-08
      152.800   2.97879e-08
      152.900   2.97795e-08
      153.000   2.97702e-08
      153.100   2.97602e-08
      153.200   2.97494e-08
      153.300   2.97378e-08
      153.400   2.97255e-08
      153.500   2.97123e-08
      153.600   2.96984e-08
      153.700   2.96839e-08
      153.800   2.96685e-08
      153.900   2.96524e-08
      154.000   2.96278e-08
      154.100   2.95970e-08
      154.200   2.95663e-08
      154.300   2.95348e-08
      154.400   2.95026e-08
      154.500   2.94694e-08
      154.600   2.94355e-08
      154.700   2.94009e-08
      154.800   2.93654e-08
      154.900   2.93290e-08
      155.000   2.92917e-08
      155.100   2.92538e-08
      155.200   2.92147e-08
      155.300   2.91747e-08
      155.400   2.91340e-08
      155.500   2.90924e-08
      155.600   2.90497e-08
      155.700   2.90061e-08
      155.800   2.89617e-08
      155.900   2.89163e-08
      156.000   2.88701e-08
      156.100   2.88228e-08
      156.200   2.87746e-08
      156.300   2.87257e-08
      156.400   2.86758e-08
      156.500   2.86213e-08
      156.600   2.85563e-08
      156.700   2.84900e-08
      156.800   2.84229e-08
      156.900   2.83551e-08
      157.000   2.82869e-08
      157.100   2.82178e-08
      157.200   2.81481e-08
      157.300   2.80780e-08
      157.400   2.80073e-08
      157.500   2.79359e-08
      157.600   2.78640e-08
      157.700   2.77917e-08
      157.800   2.77189e-08
      157.900   2.76453e-08
      158.000   2.75714e-08
      158.100   2.74970e-08
      158.200   2.74219e-08
      158.300   2.73464e-08
      158.400   2.72705e-08
      158.500   2.71940e-08
      158.600   2.71169e-08
      158.700   2.70392e-08
      158.800   2.69613e-08
      158.900   2.68825e-08
      159.000   2.68033e-08
      159.100   2.67232e-08
      159.200   2.66428e-08
      159.300   2.65616e-08
      159.400   2.64799e-08
      159.500   2.63976e-08
      159.600   2.63148e-08
      159.700   2.62315e-08
      159.800   2.61474e-08
      159.900   2.60630e-08
      160.000   2.59778e-08
      160.100   2.58921e-08
      160.200   2.58058e-08
      160.300   2.57190e-08
      160.400   2.56319e-08
      160.500   2.55441e-08
      160.600   2.54560e-08
      160.700   2.53674e-08
      160.800   2.52785e-08
      160.900   2.51891e-08
      161.000   2.50993e-08
      161.100   2.50093e-08
      161.200   2.49190e-08
      161.300   2.48283e-08
      161.400   2.47373e-08
      161.500   2.46463e-08
      161.600   2.45548e-08
      161.700   2.44629e-08
      161.800   2.43708e-08
      161.900   2.42786e-08
      162.000   2.41860e-08
      162.100   2.40933e-08
      162.200   2.40004e-08
      162.300   2.39073e-08
      162.400   2.38140e-08
      162.500   2.37205e-08
      162.600   2.36268e-08
      162.700   2.35329e-08
      162.800   2.34386e-08
      162.900   2.33441e-08
      163.000   2.32494e-08
      163.100   2.31545e-08
      163.200   2.30591e-08
      163.300   2.29635e-08
      163.400   2.28677e-08
      163.500   2.27715e-08
      163.600   2.26750e-08
      163.700   2.25782e-08
      163.800   2.24812e-08
      163.900   2.23839e-08
      164.000   2.22862e-08
      164.100   2.21884e-08
      164.200   2.20903e-08
      164.300   2.19931e-08
      164.400   2.18958e-08
      164.500   2.17984e-08
      164.600   2.17008e-08
      164.700   2.16029e-08
      164.800   2.15049e-08
      164.900   2.14067e-08
      165.000   2.13086e-08
      165.100   2.12103e-08
      165.200   2.11119e-08
      165.300   2.10136e-08
      165.400   2.09153e-08
      165.500   2.08170e-08
      165.600   2.07188e-08
      165.700   2.06206e-08
      165.800   2.05225e-08
      165.900   2.04244e-08
      166.000   2.03266e-08
      166.100   2.02288e-08
      166.200   2.01312e-08
      166.300   2.00337e-08
      166.400   1.99363e-08
      166.500   1.98391e-08
      166.600   1.97421e-08
      166.700   1.96452e-08
      166.800   1.95468e-08
      166.900   1.94407e-08
      167.000   1.93277e-08
      167.100   1.92146e-08
      167.200   1.91018e-08
      167.300   1.89893e-08
      167.400   1.88770e-08
      167.500   1.87649e-08
      167.600   1.86531e-08
      167.700   1.85415e-08
      167.800   1.84302e-08
      167.900   1.83190e-08
      168.000   1.82080e-08
      168.100   1.80972e-08
      168.200   1.79865e-08
      168.300   1.78760e-08
      168.400   1.77658e-08
      168.500   1.76557e-08
      168.600   1.75458e-08
      168.700   1.74360e-08
      168.800   1.73264e-08
      168.900   1.72171e-08
      169.000   1.71080e-08
      169.100   1.69990e-08
      169.200   1.68903e-08
      169.300   1.67818e-08
      169.400   1.66736e-08
      169.500   1.65609e-08
      169.600   1.64284e-08
      169.700   1.62760e-08
      169.800   1.61231e-08
      169.900   1.59709e-08
      170.000   1.58195e-08
      170.100   1.56690e-08
      170.200   1.55192e-08
      170.300   2.80512e-08
      170.400   1.39125e-07
      170.500   4.52229e-07
      170.600   9.44789e-07
      170.700   1.48207e-06
      170.800   1.78868e-06
      170.900   1.83247e-06
      171.000   1.80472e-06
      171.100   1.77718e-06
      171.200   1.74984e-06
      171.300   1.72271e-06
      171.400   1.69579e-06
      171.500   1.66910e-06
      171.600   1.64263e-06
      171.700   1.61643e-06
      171.800   1.59049e-06
      171.900   1.56486e-06
      172.000   1.53957e-06
      172.100   1.51461e-06
      172.200   1.49003e-06
      172.300   1.46581e-06
      172.400   1.44180e-06
      172.500   1.41815e-06
      172.600   1.39489e-06
      172.700   1.37204e-06
      172.800   1.34957e-06
      172.900   1.32747e-06
      173.000   1.30578e-06
      173.100   1.28446e-06
      173.200   1.26351e-06
      173.300   1.24293e-06
      173.400   1.22271e-06
      173.500   1.20284e-06
      173.600   1.18333e-06
      173.700   1.16415e-06
      173.800   1.14530e-06
      173.900   1.12679e-06
      174.000   1.10858e-06
      174.100   1.09068e-06
      174.200   1.07308e-06
      174.300   1.05578e-06
      174.400   1.03876e-06
      174.500   1.02202e-06
      174.600   1.00554e-06
      174.700   9.89335e-07
      174.800   9.73388e-07
      174.900   9.57687e-07
      175.000   9.42223e-07
      175.100   9.26998e-07
      175.200   9.12036e-07
      175.300   8.97294e-07
      175.400   8.82775e-07
      175.500   8.68486e-07
      175.600   8.54414e-07
      175.700   8.40561e-07
      175.800   8.26917e-07
      175.900   8.13485e-07
      176.000   8.00260e-07
      176.100   7.87245e-07
      176.200   7.74428e-07
      176.300   7.61805e-07
      176.400   7.49384e-07
      176.500   7.37151e-07
      176.600   7.25105e-07
      176.700   7.13245e-07
      176.800   7.01568e-07
      176.900   6.90072e-07
      177.000   6.78749e-07
      177.100   6.67596e-07
      177.200   6.56618e-07
      177.300   6.45806e-07
      177.400   6.35152e-07
      177.500   6.24657e-07
      177.600   6.14322e-07
      177.700   6.04142e-07
      177.800   5.94115e-07
      177.900   5.84228e-07
      178.000   5.74523e-07
      178.100   5.64964e-07
      178.200   5.55545e-07
      178.300   5.46267e-07
      178.400   5.37132e-07
      178.500   5.28134e-07
      178.600   5.19270e-07
      178.700   5.10537e-07
      178.800   5.01941e-07
      178.900   4.93478e-07
      179.000   4.85144e-07
      179.100   4.76935e-07
      179.200   4.68857e-07
      179.300   4.60906e-07
      179.400   4.53079e-07
      179.500   4.45381e-07
      179.600   4.37803e-07
      179.700   4.30352e-07
      179.800   4.23019e-07
      179.900   4.15806e-07
      180.000   4.08709e-07
      180.100   4.01731e-07
      180.200   3.94869e-07
      180.300   3.88121e-07
      180.400   3.81484e-07
      180.500   3.74961e-07
      180.600   3.68546e-07
      180.700   3.62240e-07
      180.800   3.55948e-07
      180.900   3.49657e-07
      181.000   3.43448e-07
      181.100   3.37349e-07
      181.200   3.31356e-07
      181.300   3.25466e-07
      181.400   3.19683e-07
      181.500   3.14000e-07
      181.600   3.08417e-07
      181.700   3.02930e-07
      181.800   2.97541e-07
      181.900   2.92247e-07
      182.000   2.87048e-07
      182.100   2.81939e-07
      182.200   2.76923e-07
      182.300   2.71994e-07
      182.400   2.67155e-07
      182.500   2.62400e-07
      182.600   2.57729e-07
      182.700   2.53141e-07
      182.800   2.48635e-07
      182.900   2.44208e-07
      183.000   2.39861e-07
      183.100   2.35592e-07
      183.200   2.31399e-07
      183.300   2.27279e-07
      183.400   2.23233e-07
      183.500   2.19260e-07
      183.600   2.15358e-07
      183.700   2.11378e-07
      183.800   2.06901e-07
      183.900   2.02412e-07
      184.000   1.98019e-07
      184.100   1.93719e-07
      184.200   1.89512e-07
      184.300   1.85392e-07
      184.400   1.81359e-07
      184.500   1.77411e-07
      184.600   1.73545e-07
      184.700   1.69760e-07
      184.800   1.66053e-07
      184.900   1.62424e-07
      185.000   1.58870e-07
      185.100   1.55389e-07
      185.200   1.51980e-07
      185.300   1.48643e-07
      185.400   1.45374e-07
      185.500   1.42173e-07
      185.600   1.39037e-07
      185.700   1.35965e-07
      185.800   1.32959e-07
      185.900   1.30017e-07
      186.000   1.27133e-07
      186.100   1.24309e-07
      186.200   1.21544e-07
      186.300   1.18835e-07
      186.400   1.16182e-07
      186.500   1.13583e-07
      186.600   1.11038e-07
      186.700   1.08544e-07
      186.800   1.06102e-07
      186.900   1.03710e-07
      187.000   1.01367e-07
      187.100   9.90726e-08
      187.200   9.68263e-08
      187.300   9.46285e-08
      187.400   9.24767e-08
      187.500   9.03704e-08
      187.600   8.83080e-08
      187.700   8.62890e-08
      187.800   8.43120e-08
      187.900   8.23766e-08
      188.000   8.04831e-08
      188.100   7.86294e-08
      188.200   7.68146e-08
      188.300   7.50382e-08
      188.400   7.32997e-08
      188.500   7.15991e-08
      188.600   6.99360e-08
      188.700   6.83097e-08
      188.800   6.67190e-08
      188.900   6.51634e-08
      189.000   6.36412e-08
      189.100   6.21516e-08
      189.200   6.06949e-08
      189.300   5.92706e-08
      189.400   5.78778e-08
      189.500   5.65155e-08
      189.600   5.51824e-08
      189.700   5.38735e-08
      189.800   5.25566e-08
      189.900   5.12724e-08
      190.000   5.00172e-08
      190.100   4.87918e-08
      190.200   4.75947e-08
      190.300   4.64256e-08
      190.400   4.52831e-08
      190.500   4.41676e-08
      190.600   4.30786e-08
      190.700   4.20148e-08
      190.800   4.09762e-08
      190.900   3.99621e-08
      191.000   3.89725e-08
      191.100   3.80077e-08
      191.200   3.70652e-08
      191.300   3.61452e-08
      191.400   3.52472e-08
      191.500   3.43701e-08
      191.600   3.35141e-08
      191.700   3.26785e-08
      191.800   3.18624e-08
      191.900   3.10661e-08
      192.000   3.02891e-08
      192.100   2.95315e-08
      192.200   2.87927e-08
      192.300   2.80714e-08
      192.400   2.73672e-08
      192.500   2.66798e-08
      192.600   2.60091e-08
      192.700   2.53454e-08
      192.800   2.46496e-08
      192.900   2.38860e-08
      193.000   2.31448e-08
      193.100   2.24260e-08
      193.200   2.17289e-08
      193.300   2.10523e-08
      193.400   2.03958e-08
      193.500   1.97584e-08
      193.600   1.91393e-08
      193.700   1.85385e-08
      193.800   1.79556e-08
      193.900   1.73901e-08
      194.000   1.68411e-08
      194.100   1.63091e-08
      194.200   1.57939e-08
      194.300   1.52940e-08
      194.400   1.48088e-08
      194.500   1.43381e-08
      194.600   1.38813e-08
      194.700   1.34384e-08
      194.800   1.30088e-08
      194.900   1.25920e-08
      195.000   1.21878e-08
      195.100   1.17968e-08
      195.200   1.14177e-08
      195.300   1.10501e-08
      195.400   1.06934e-08
      195.500   1.03475e-08
      195.600   1.00120e-08
      195.700   9.68680e-09
      195.800   9.37136e-09
      195.900   9.06548e-09
      196.000   8.76636e-09
      196.100   8.47642e-09
      196.200   8.19543e-09
      196.300   7.92309e-09
      196.400   7.65912e-09
      196.500   7.40319e-09
      196.600   7.15531e-09
      196.700   6.91508e-09
      196.800   6.68264e-09
      196.900   6.45780e-09
      197.000   6.24003e-09
      197.100   6.02904e-09
      197.200   5.82465e-09
      197.300   5.62657e-09
      197.400   5.43460e-09
      197.500   5.24873e-09
      197.600   5.06875e-09
      197.700   4.89503e-09
      197.800   4.72688e-09
      197.900   4.56394e-09
      198.000   4.40620e-09
      198.100   4.25351e-09
      198.200   4.10564e-09
      198.300   3.96244e-09
      198.400   3.82394e-09
      198.500   3.69028e-09
      198.600   3.56107e-09
      198.700   3.43601e-09
      198.800   3.31498e-09
      198.900   3.19792e-09
      199.000   3.08668e-09
      199.100   2.98510e-09
      199.200   2.89506e-09
      199.300   2.80776e-09
      199.400   2.72301e-09
      199.500   2.64067e-09
      199.600   2.56063e-09
      199.700   2.48285e-09
      199.800   2.40727e-09
      199.900   2.33387e-09
      200.000   2.26254e-09
      200.100   2.19353e-09
      200.200   2.12645e-09
      200.300   2.06132e-09
      200.400   1.99808e-09
      200.500   1.93667e-09
      200.600   1.87705e-09
      200.700   1.81917e-09
      200.800   1.76295e-09
      200.900   1.70838e-09
      201.000   1.65549e-09
      201.100   1.60416e-09
      201.200   1.55434e-09
      201.300   1.50600e-09
      201.400   1.45910e-09
      201.500   1.41354e-09
      201.600   1.36935e-09
      201.700   1.32647e-09
      201.800   1.28484e-09
      201.900   1.24450e-09
      202.000   1.20542e-09
      202.100   1.16747e-09
      202.200   1.13067e-09
      202.300   1.09570e-09
      202.400   1.06291e-09
      202.500   1.03128e-09
      202.600   1.00052e-09
      202.700   9.70635e-10
      202.800   9.41622e-10
      202.900   9.13462e-10
      203.000   8.86118e-10
      203.100   8.59561e-10
      203.200   8.33757e-10
      203.300   8.08685e-10
      203.400   7.84338e-10
      203.500   7.60702e-10
      203.600   7.37745e-10
      203.700   7.15452e-10
      203.800   6.93842e-10
      203.900   6.72872e-10
      204.000   6.52510e-10
      204.100   6.32747e-10
      204.200   6.13570e-10
      204.300   5.94944e-10
      204.400   5.76873e-10
      204.500   5.59333e-10
      204.600   5.42305e-10
      204.700   5.25783e-10
      204.800   5.09772e-10
      204.900   4.94240e-10
      205.000   4.79170e-10
      205.100   4.64551e-10
      205.200   4.50357e-10
      205.300   4.36594e-10
      205.400   4.23238e-10
      205.500   4.10274e-10
      205.600   3.97776e-10
      205.700   3.85728e-10
      205.800   3.74035e-10
      205.900   3.62698e-10
      206.000   3.51710e-10
      206.100   3.41036e-10
      206.200   3.30673e-10
      206.300   3.20620e-10
      206.400   3.10863e-10
      206.500   3.01386e-10
      206.600   2.92192e-10
      206.700   2.83268e-10
      206.800   2.74600e-10
      206.900   2.66189e-10
      207.000   2.58030e-10
      207.100   2.50115e-10
      207.200   2.42438e-10
      207.300   2.34987e-10
      207.400   2.27753e-10
      207.500   2.20731e-10
      207.600   2.13918e-10
      207.700   2.07301e-10
      207.800   2.00881e-10
      207.900   1.94652e-10
      208.000   1.88605e-10
      208.100   1.82738e-10
      208.200   1.77046e-10
      208.300   1.71521e-10
      208.400   1.66167e-10
      208.500   1.60975e-10
      208.600   1.55934e-10
      208.700   1.51042e-10
      208.800   1.46292e-10
      208.900   1.41439e-10
      209.000   1.36415e-10
      209.100   1.31561e-10
      209.200   1.26871e-10
      209.300   1.22337e-10
      209.400   1.17959e-10
      209.500   1.13728e-10
      209.600   1.09640e-10
      209.700   1.05695e-10
      209.800   1.01891e-10
      209.900   9.82132e-11
      210.000   9.46628e-11
      210.100   9.12346e-11
      210.200   8.79234e-11
      210.300   8.47269e-11
      210.400   8.16407e-11
      210.500   7.86603e-11
      210.600   7.57836e-11
      210.700   7.30075e-11
      210.800   7.03272e-11
      210.900   6.77401e-11
      211.000   6.52432e-11
      211.100   6.28347e-11
      211.200   6.05099e-11
      211.300   5.82701e-11
      211.400   5.61108e-11
      211.500   5.40258e-11
      211.600   5.20148e-11
      211.700   5.00756e-11
      211.800   4.82037e-11
      211.900   4.63983e-11
      212.000   4.46582e-11
      212.100   4.29796e-11
      212.200   4.13205e-11
      212.300   3.91238e-11
      212.400   3.66802e-11
      212.500   3.43789e-11
      212.600   3.22138e-11
      212.700   3.01757e-11
      212.800   2.82585e-11
      212.900   2.64563e-11
      213.000   2.47625e-11
      213.100   2.31733e-11
      213.200   2.16794e-11
      213.300   2.02766e-11
      213.400   1.89584e-11
      213.500   1.77208e-11
      213.600   1.65591e-11
      213.700   1.54694e-11
      213.800   1.44465e-11
      213.900   1.34879e-11
      214.000   1.25890e-11
      214.100   1.17462e-11
      214.200   1.09570e-11
      214.300   1.02176e-11
      214.400   9.52495e-12
      214.500   8.87667e-12
      214.600   8.27031e-12
      214.700   7.70287e-12
      214.800   7.17213e-12
      214.900   6.67626e-12
      215.000   6.21240e-12
      215.100   5.77931e-12
      215.200   5.37542e-12
      215.300   4.99858e-12
      215.400   4.64645e-12
      215.500   4.31786e-12
      215.600   4.01154e-12
      215.700   3.72558e-12
      215.800   3.45894e-12
      215.900   3.21055e-12
      216.000   2.97895e-12
      216.100   2.76317e-12
      216.200   2.56229e-12
      216.300   2.37531e-12
      216.400   2.20126e-12
      216.500   2.03925e-12
      216.600   1.88864e-12
      216.700   1.74861e-12
      216.800   1.61840e-12
      216.900   1.49746e-12
      217.000   1.38512e-12
      217.100   1.28072e-12
      217.200   1.18389e-12
      217.300   1.09400e-12
      217.400   1.01058e-12
      217.500   9.33263e-13
      217.600   8.61538e-13
      217.700   7.95060e-13
      217.800   7.33465e-13
      217.900   6.76482e-13
      218.000   6.23749e-13
      218.100   5.74943e-13
      218.200   5.29787e-13
      218.300   4.88033e-13
      218.400   4.49406e-13
      218.500   4.13680e-13
      218.600   3.80691e-13
      218.700   3.50193e-13
      218.800   3.22029e-13
      218.900   2.96045e-13
      219.000   2.72046e-13
      219.100   2.50107e-13
      219.200   2.31520e-13
      219.300   2.16754e-13
      219.400   2.02886e-13
      219.500   1.89876e-13
      219.600   1.77666e-13
      219.700   1.66210e-13
      219.800   1.55468e-13
      219.900   1.45392e-13
      220.000   1.35940e-13
      220.100   1.27078e-13
      220.200   1.18774e-13
      220.300   1.10994e-13
      220.400   1.03701e-13
      220.500   9.68699e-14
      220.600   9.04742e-14
      220.700   8.44823e-14
      220.800   7.88698e-14
      220.900   7.36206e-14
      221.000   6.87056e-14
      221.100   6.41048e-14
      221.200   5.98033e-14
      221.300   5.57787e-14
      221.400   5.20140e-14
      221.500   4.84952e-14
      221.600   4.52049e-14
      221.700   4.21287e-14
      221.800   3.92539e-14
      221.900   3.65692e-14
      222.000   3.40614e-14
      222.100   3.17177e-14
      222.200   2.95311e-14
      222.300   2.74889e-14
      222.400   2.55824e-14
      222.500   2.38030e-14
      222.600   2.21439e-14
      222.700   2.05955e-14
      222.800   1.91514e-14
      222.900   1.78059e-14
      223.000   1.65507e-14
      223.100   1.53807e-14
      223.200   1.42903e-14
      223.300   1.32749e-14
      223.400   1.23289e-14
      223.500   1.14474e-14
      223.600   1.06273e-14
      223.700   9.86349e-15
      223.800   9.15239e-15
      223.900   8.49153e-15
      224.000   7.87601e-15
      224.100   7.30357e-15
      224.200   6.77128e-15
      224.300   6.27662e-15
      224.400   5.81655e-15
      224.500   5.38909e-15
      224.600   4.99179e-15
      224.700   4.62311e-15
      224.800   4.28056e-15
      224.900   3.96236e-15
      225.000   3.66712e-15
      225.100   3.39302e-15
      225.200   3.13868e-15
      225.300   2.90293e-15
      225.400   2.68412e-15
      225.500   2.48121e-15
      225.600   2.29312e-15
      225.700   2.11890e-15
      225.800   1.95737e-15
      225.900   1.80774e-15
      226.000   1.66924e-15
      226.100   1.54091e-15
      226.200   1.42210e-15
      226.300   1.31230e-15
      226.400   1.21077e-15
      226.500   1.11677e-15
      226.600   1.02980e-15
      226.700   9.49424e-16
      226.800   8.75064e-16
      226.900   8.06307e-16
      227.000   7.42822e-16
      227.100   6.84142e-16
      227.200   6.29945e-16
      227.300   5.79906e-16
      227.400   5.33715e-16
      227.500   4.91075e-16
      227.600   4.51732e-16
      227.700   4.15439e-16
      227.800   3.81974e-16
      227.900   3.51120e-16
      228.000   3.22675e-16
      228.100   2.96461e-16
      228.200   2.72305e-16
      228.300   2.50058e-16
      228.400   2.29576e-16
      228.500   2.10713e-16
      228.600   1.93355e-16
      228.700   1.77381e-16
      228.800   1.62683e-16
      228.900   1.49173e-16
      229.000   1.36744e-16
      229.100   1.25320e-16
      229.200   1.14823e-16
      229.300   1.05179e-16
      229.400   9.63202e-17
      229.500   8.81847e-17
      229.600   8.07158e-17
      229.700   7.38615e-17
      229.800   6.75703e-17
      229.900   6.18201e-17
      230.000   5.67080e-17
      230.100   5.23068e-17
      230.200   4.82377e-17
      230.300   4.44787e-17
      230.400   4.10031e-17
      230.500   3.77943e-17
      230.600   3.48334e-17
      230.700   3.20974e-17
      230.800   2.95710e-17
      230.900   2.72386e-17
      231.000   2.50841e-17
      231.100   2.30960e-17
      231.200   2.12609e-17
      231.300   1.95681e-17
      231.400   1.80071e-17
      231.500   1.65664e-17
      231.600   1.52377e-17
      231.700   1.40132e-17
      231.800   1.28845e-17
      231.900   1.18443e-17
      232.000   1.08858e-17
      232.100   1.00027e-17
      232.200   9.18942e-18
      232.300   8.44060e-18
      232.400   7.75106e-18
      232.500   7.11621e-18
      232.600   6.53220e-18
      232.700   5.99486e-18
      232.800   5.50051e-18
      232.900   5.04586e-18
      233.000   4.62778e-18
      233.100   4.24355e-18
      233.200   3.89021e-18
      233.300   3.56562e-18
      233.400   3.26746e-18
      233.500   2.99408e-18
      233.600   2.74332e-18
      233.700   2.51296e-18
      233.800   2.29835e-18
      233.900   2.10121e-18
      234.000   1.92046e-18
      234.100   1.75493e-18
      234.200   1.60332e-18
      234.300   1.46447e-18
      234.400   1.33734e-18
      234.500   1.22098e-18
      234.600   1.11446e-18
      234.700   1.01703e-18
      234.800   9.27925e-19
      234.900   8.46404e-19
      235.000   7.71856e-19
      235.100   7.03727e-19
      235.200   6.41458e-19
      235.300   5.84558e-19
      235.400   5.32583e-19
      235.500   4.85109e-19
      235.600   4.41773e-19
      235.700   4.02237e-19
      235.800   3.66278e-19
      235.900   3.33456e-19
      236.000   3.03504e-19
      236.100   2.76173e-19
      236.200   2.51243e-19
      236.300   2.28505e-19
      236.400   2.07780e-19
      236.500   1.88885e-19
      236.600   1.71668e-19
      236.700   1.55981e-19
      236.800   1.41690e-19
      236.900   1.28678e-19
      237.000   1.16832e-19
      237.100   1.06046e-19
      237.200   9.62354e-20
      237.300   8.73070e-20
      237.400   7.92215e-20
      237.500   7.21835e-20
      237.600   6.63060e-20
      237.700   6.09129e-20
      237.800   5.59479e-20
      237.900   5.13779e-20
      238.000   4.71742e-20
      238.100   4.33048e-20
      238.200   3.97458e-20
      238.300   3.64721e-20
      238.400   3.34618e-20
      238.500   3.06938e-20
      238.600   2.81495e-20
      238.700   2.58117e-20
      238.800   2.36629e-20
      238.900   2.16888e-20
      239.000   1.98753e-20
      239.100   1.82100e-20
      239.200   1.66813e-20
      239.300   1.52816e-20
      239.400   1.39999e-20
      239.500   1.28230e-20
      239.600   1.17425e-20
      239.700   1.07512e-20
      239.800   9.84136e-21
      239.900   9.00668e-21
      240.000   8.24118e-21
      240.100   7.53895e-21
      240.200   6.89510e-21
      240.300   6.30502e-21
      240.400   5.76399e-21
      240.500   5.26855e-21
      240.600   4.81457e-21
      240.700   4.39882e-21
      240.800   4.01919e-21
      240.900   3.67253e-21
      241.000   3.35506e-21
      241.100   3.06439e-21
      241.200   2.79830e-21
      241.300   2.56658e-21
      241.400   2.37521e-21
      241.500   2.20887e-21
      241.600   2.05392e-21
      241.700   1.90957e-21
      241.800   1.77514e-21
      241.900   1.64994e-21
      242.000   1.53339e-21
      242.100   1.42489e-21
      242.200   1.32419e-21
      242.300   1.23067e-21
      242.400   1.14358e-21
      242.500   1.06252e-21
      242.600   9.87078e-22
      242.700   9.16854e-22
      242.800   8.51528e-22
      242.900   7.90746e-22
      243.000   7.34203e-22
      243.100   6.81615e-22
      243.200   6.32689e-22
      243.300   5.87203e-22
      243.400   5.44929e-22
      243.500   5.05731e-22
      243.600   4.69407e-22
      243.700   4.35615e-22
      243.800   4.04198e-22
      243.900   3.75009e-22
      244.000   3.47867e-22
      244.100   3.22647e-22
      244.200   2.99216e-22
      244.300   2.77440e-22
      244.400   2.57219e-22
      244.500   2.38434e-22
      244.600   2.20989e-22
      244.700   2.04828e-22
      244.800   1.89883e-22
      244.900   1.76005e-22
      245.000   1.63113e-22
      245.100   1.51144e-22
      245.200   1.40038e-22
      245.300   1.29728e-22
      245.400   1.20156e-22
      245.500   1.11278e-22
      245.600   1.03040e-22
      245.700   9.53949e-23
      245.800   8.83022e-23
      245.900   8.17590e-23
      246.000   7.57021e-23
      246.100   7.00820e-23
      246.200   6.48699e-23
      246.300   6.00353e-23
      246.400   5.55540e-23
      246.500   5.13984e-23
      246.600   4.75462e-23
      246.700   4.39767e-23
      246.800   4.06672e-23
      246.900   3.76012e-23
      247.000   3.47749e-23
      247.100   3.21622e-23
      247.200   2.97414e-23
      247.300   2.74987e-23
      247.400   2.54206e-23
      247.500   2.34958e-23
      247.600   2.17134e-23
      247.700   2.00627e-23
      247.800   1.85346e-23
      247.900   1.71198e-23
      248.000   1.58108e-23
      248.100   1.46092e-23
      248.200   1.34964e-23
      248.300   1.24664e-23
      248.400   1.15130e-23
      248.500   1.06304e-23
      248.600   9.81394e-24
      248.700   9.05883e-24
      248.800   8.36031e-24
      248.900   7.71442e-24
      249.000   7.11718e-24
      249.100   6.56872e-24
      249.200   6.11700e-24
      249.300   5.75226e-24
      249.400   5.42216e-24
      249.500   5.11063e-24
      249.600   4.81654e-24
      249.700   4.53903e-24
      249.800   4.27721e-24
      249.900   4.03008e-24
      250.000   3.79705e-24
      250.100   3.57796e-24
      250.200   3.37159e-24
      250.300   3.17704e-24
      250.400   2.99350e-24
      250.500   2.82042e-24
      250.600   2.65718e-24
      250.700   2.50321e-24
      250.800   2.35802e-24
      250.900   2.22110e-24
      251.000   2.09201e-24
      251.100   1.97029e-24
      251.200   1.85573e-24
      251.300   1.74801e-24
      251.400   1.64642e-24
      251.500   1.55062e-24
      251.600   1.46032e-24
      251.700   1.37522e-24
      251.800   1.29499e-24
      251.900   1.21936e-24
      252.000   1.14806e-24
      252.100   1.08091e-24
      252.200   1.01759e-24
      252.300   9.58020e-25
      252.400   9.01994e-25
      252.500   8.49224e-25
      252.600   7.99479e-25
      252.700   7.52612e-25
      252.800   7.08454e-25
      252.900   6.66841e-25
      253.000   6.27639e-25
      253.100   5.90714e-25
      253.200   5.58554e-25
      253.300   5.39289e-25
      253.400   5.23234e-25
      253.500   5.07674e-25
      253.600   4.92586e-25
      253.700   4.77940e-25
      253.800   4.63734e-25
      253.900   4.49946e-25
      254.000   4.36564e-25
      254.100   4.23577e-25
      254.200   4.10973e-25
      254.300   3.98743e-25
      254.400   3.86873e-25
      254.500   3.75358e-25
      254.600   3.64178e-25
      254.700   3.53334e-25
      254.800   3.42825e-25
      254.900   3.32624e-25
      255.000   3.22726e-25
      255.100   3.13115e-25
      255.200   3.03792e-25
      255.300   2.94744e-25
      255.400   2.85962e-25
      255.500   2.77443e-25
      255.600   2.69173e-25
      255.700   2.61148e-25
      255.800   2.53359e-25
      255.900   2.45801e-25
      256.000   2.38464e-25
      256.100   2.31352e-25
      256.200   2.24451e-25
      256.300   2.17755e-25
      256.400   2.11262e-25
      256.500   2.04955e-25
      256.600   1.98836e-25
      256.700   1.92899e-25
      256.800   1.87137e-25
      256.900   1.81544e-25
      257.000   1.76117e-25
      257.100   1.70851e-25
      257.200   1.65742e-25
      257.300   1.60783e-25
      257.400   1.56027e-25
      257.500   1.51432e-25
      257.600   1.46976e-25
      257.700   1.42650e-25
      257.800   1.38451e-25
      257.900   1.34375e-25
      258.000   1.30417e-25
      258.100   1.26574e-25
      258.200   1.22844e-25
      258.300   1.19223e-25
      258.400   1.15706e-25
      258.500   1.12292e-25
      258.600   1.08979e-25
      258.700   1.05762e-25
      258.800   1.02638e-25
      258.900   9.96074e-26
      259.000   9.66639e-26
      259.100   9.38069e-26
      259.200   9.10345e-26
      259.300   8.83457e-26
      259.400   8.57350e-26
      259.500   8.31998e-26
      259.600   8.07403e-26
      259.700   7.83522e-26
      259.800   7.60337e-26
      259.900   7.37822e-26
      260.000   7.15976e-26
      260.100   6.94772e-26
      260.200   6.74188e-26
      260.300   6.54208e-26
      260.400   6.34813e-26
      260.500   6.15994e-26
      260.600   5.97715e-26
      260.700   5.79978e-26
      260.800   5.62771e-26
      260.900   5.46056e-26
      261.000   5.29845e-26
      261.100   5.14123e-26
      261.200   4.98853e-26
      261.300   4.84034e-26
      261.400   4.69656e-26
      261.500   4.55720e-26
      261.600   4.42264e-26
      261.700   4.29211e-26
      261.800   4.16543e-26
      261.900   4.04238e-26
      262.000   3.92295e-26
      262.100   3.80700e-26
      262.200   3.69449e-26
      262.300   3.58524e-26
      262.400   3.47921e-26
      262.500   3.37625e-26
      262.600   3.27630e-26
      262.700   3.17930e-26
      262.800   3.08513e-26
      262.900   2.99367e-26
      263.000   2.90500e-26
      263.100   2.81889e-26
      263.200   2.73537e-26
      263.300   2.65427e-26
      263.400   2.57556e-26
      263.500   2.49917e-26
      263.600   2.42503e-26
      263.700   2.35305e-26
      263.800   2.28318e-26
      263.900   2.21542e-26
      264.000   2.14961e-26
      264.100   2.08573e-26
      264.200   2.02370e-26
      264.300   1.96356e-26
      264.400   1.90517e-26
      264.500   1.84848e-26
      264.600   1.79346e-26
      264.700   1.74009e-26
      264.800   1.68825e-26
      264.900   1.63798e-26
      265.000   1.58918e-26
      265.100   1.54180e-26
      265.200   1.49584e-26
      265.300   1.45122e-26
      265.400   1.40795e-26
      265.500   1.36593e-26
      265.600   1.32518e-26
      265.700   1.28925e-26
      265.800   1.26969e-26
      265.900   1.25091e-26
      266.000   1.23240e-26
      266.100   1.21416e-26
      266.200   1.19618e-26
      266.300   1.17846e-26
      266.400   1.16100e-26
      266.500   1.14379e-26
      266.600   1.12682e-26
      266.700   1.11009e-26
      266.800   1.09362e-26
      266.900   1.07738e-26
      267.000   1.06137e-26
      267.100   1.04560e-26
      267.200   1.03007e-26
      267.300   1.01475e-26
      267.400   9.99652e-27
      267.500   9.84778e-27
      267.600   9.70120e-27
      267.700   9.55677e-27
      267.800   9.41433e-27
      267.900   9.27403e-27
      268.000   9.13589e-27
      268.100   8.99974e-27
      268.200   8.86557e-27
      268.300   8.73344e-27
      268.400   8.60310e-27
      268.500   8.47467e-27
      268.600   8.34810e-27
      268.700   8.22356e-27
      268.800   8.10076e-27
      268.900   7.97976e-27
      269.000   7.86061e-27
      269.100   7.74306e-27
      269.200   7.62739e-27
      269.300   7.51342e-27
      269.400   7.40106e-27
      269.500   7.29036e-27
      269.600   7.18139e-27
      269.700   7.07389e-27
      269.800   6.96808e-27
      269.900   6.86380e-27
      270.000   6.76113e-27
      270.100   6.66027e-27
      270.200   6.56102e-27
      270.300   6.46328e-27
      270.400   6.36689e-27
      270.500   6.27196e-27
      270.600   6.17835e-27
      270.700   6.08626e-27
      270.800   5.99547e-27
      270.900   5.90600e-27
      271.000   5.81792e-27
      271.100   5.73108e-27
      271.200   5.64552e-27
      271.300   5.56125e-27
      271.400   5.47822e-27
      271.500   5.39646e-27
      271.600   5.31585e-27
      271.700   5.23642e-27
      271.800   5.15823e-27
      271.900   5.08115e-27
      272.000   5.00524e-27
      272.100   4.93044e-27
      272.200   4.85674e-27
      272.300   4.78410e-27
      272.400   4.71256e-27
      272.500   4.64209e-27
      272.600   4.57267e-27
      272.700   4.50426e-27
      272.800   4.43683e-27
      272.900   4.37046e-27
      273.000   4.30505e-27
      273.100   4.24058e-27
      273.200   4.17711e-27
      273.300   4.11459e-27
      273.400   4.05295e-27
      273.500   3.99222e-27
      273.600   3.93241e-27
      273.700   3.87347e-27
      273.800   3.81539e-27
      273.900   3.75821e-27
      274.000   3.70188e-27
      274.100   3.64637e-27
      274.200   3.59165e-27
      274.300   3.53777e-27
      274.400   3.48318e-27
      274.500   3.42560e-27
      274.600   3.36826e-27
      274.700   3.31192e-27
      274.800   3.25649e-27
      274.900   3.20196e-27
      275.000   3.14832e-27
      275.100   3.09557e-27
      275.200   3.04368e-27
      275.300   2.99262e-27
      275.400   2.94244e-27
      275.500   2.89307e-27
      275.600   2.84451e-27
      275.700   2.79675e-27
      275.800   2.74978e-27
      275.900   2.70359e-27
      276.000   2.65817e-27
      276.100   2.61348e-27
      276.200   2.56951e-27
      276.300   2.52627e-27
      276.400   2.48376e-27
      276.500   2.44194e-27
      276.600   2.40083e-27
      276.700   2.36037e-27
      276.800   2.32059e-27
      276.900   2.28145e-27
      277.000   2.24297e-27
      277.100   2.20511e-27
      277.200   2.16789e-27
      277.300   2.13129e-27
      277.400   2.09529e-27
      277.500   2.05986e-27
      277.600   2.02504e-27
      277.700   1.99077e-27
      277.800   1.95705e-27
      277.900   1.92394e-27
      278.000   1.89137e-27
      278.100   1.85933e-27
      278.200   1.82782e-27
      278.300   1.79683e-27
      278.400   1.76636e-27
      278.500   1.73638e-27
      278.600   1.70689e-27
      278.700   1.67791e-27
      278.800   1.65008e-27
      278.900   1.62568e-27
      279.000   1.60168e-27
      279.100   1.57802e-27
      279.200   1.55467e-27
      279.300   1.53168e-27
      279.400   1.50899e-27
      279.500   1.48663e-27
      279.600   1.46460e-27
      279.700   1.44288e-27
      279.800   1.42147e-27
      279.900   1.40037e-27
      280.000   1.37956e-27
      280.100   1.35904e-27
      280.200   1.33882e-27
      280.300   1.31889e-27
      280.400   1.29925e-27
      280.500   1.27989e-27
      280.600   1.26080e-27
      280.700   1.24200e-27
      280.800   1.22345e-27
      280.900   1.20517e-27
      281.000   1.18715e-27
      281.100   1.16939e-27
      281.200   1.15188e-27
      281.300   1.13463e-27
      281.400   1.11763e-27
      281.500   1.10087e-27
      281.600   1.08434e-27
      281.700   1.06805e-27
      281.800   1.05201e-27
      281.900   1.03619e-27
      282.000   1.02059e-27
      282.100   1.00523e-27
      282.200   9.90098e-28
      282.300   9.75164e-28
      282.400   9.60449e-28
      282.500   9.45941e-28
      282.600   9.31658e-28
      282.700   9.17578e-28
      282.800   9.03686e-28
      282.900   8.90022e-28
      283.000   8.76543e-28
      283.100   8.63252e-28
      283.200   8.50166e-28
      283.300   8.38975e-28
      283.400   8.37143e-28
      283.500   8.36416e-28
      283.600   8.35663e-28
      283.700   8.34899e-28
      283.800   8.34111e-28
      283.900   8.33303e-28
      284.000   8.32476e-28
      284.100   8.31625e-28
      284.200   8.30767e-28
      284.300   8.29898e-28
      284.400   8.28998e-28
      284.500   8.28081e-28
      284.600   8.27156e-28
      284.700   8.26206e-28
      284.800   8.25238e-28
      284.900   8.24260e-28
      285.000   8.23257e-28
      285.100   8.22236e-28
      285.200   8.21195e-28
      285.300   8.20142e-28
      285.400   8.19080e-28
      285.500   8.17985e-28
      285.600   8.16890e-28
      285.700   8.15765e-28
      285.800   8.14633e-28
      285.900   8.13477e-28
      286.000   8.12296e-28
      286.100   8.11118e-28
      286.200   8.09918e-28
      286.300   8.08708e-28
      286.400   8.07470e-28
      286.500   8.06219e-28
      286.600   8.04954e-28
      286.700   8.03671e-28
      286.800   8.02377e-28
      286.900   8.01072e-28
      287.000   7.99744e-28
      287.100   7.98402e-28
      287.200   7.97048e-28
      287.300   7.95670e-28
      287.400   7.94281e-28
      287.500   7.92883e-28
      287.600   7.91471e-28
      287.700   7.90045e-28
      287.800   7.88606e-28
      287.900   7.87156e-28
      288.000   7.85701e-28
      288.100   7.84233e-28
      288.200   7.82745e-28
      288.300   7.81251e-28
      288.400   7.79756e-28
      288.500   7.78234e-28
      288.600   7.76700e-28
      288.700   7.75160e-28
      288.800   7.73601e-28
      288.900   7.72029e-28
      289.000   7.70451e-28
      289.100   7.68853e-28
      289.200   7.67239e-28
      289.300   7.65619e-28
      289.400   7.63995e-28
      289.500   7.62353e-28
      289.600   7.60693e-28
      289.700   7.59032e-28
      289.800   7.57357e-28
      289.900   7.55659e-28
      290.000   7.53972e-28
      290.100   7.52245e-28
      290.200   7.50529e-28
      290.300   7.48798e-28
      290.400   7.47051e-28
      290.500   7.45301e-28
      290.600   7.43531e-28
      290.700   7.41755e-28
      290.800   7.39974e-28
      290.900   7.38183e-28
      291.000   7.36379e-28
      291.100   7.34562e-28
      291.200   7.32736e-28
      291.300   7.30906e-28
      291.400   7.29060e-28
      291.500   7.27204e-28
      291.600   7.25345e-28
      291.700   7.23472e-28
      291.800   7.21590e-28
      291.900   7.19699e-28
      292.000   7.17808e-28
      292.100   7.15907e-28
      292.200   7.13991e-28
      292.300   7.12066e-28
      292.400   7.10133e-28
      292.500   7.08193e-28
      292.600   7.06231e-28
      292.700   7.04251e-28
      292.800   7.02263e-28
      292.900   7.00263e-28
      293.000   6.98260e-28
      293.100   6.96253e-28
      293.200   6.94231e-28
      293.300   6.92200e-28
      293.400   6.90171e-28
      293.500   6.88127e-28
      293.600   6.86078e-28
      293.700   6.84026e-28
      293.800   6.81968e-28
      293.900   6.79898e-28
      294.000   6.77820e-28
      294.100   6.75739e-28
      294.200   6.73655e-28
      294.300   6.71565e-28
      294.400   6.69466e-28
      294.500   6.67358e-28
      294.600   6.65242e-28
      294.700   6.63130e-28
      294.800   6.61008e-28
      294.900   6.58871e-28
      295.000   6.56738e-28
      295.100   6.54605e-28
      295.200   6.52461e-28
      295.300   6.50306e-28
      295.400   6.48151e-28
      295.500   6.45993e-28
      295.600   6.43825e-28
      295.700   6.41654e-28
      295.800   6.39478e-28
      295.900   6.37295e-28
      296.000   6.35117e-28
      296.100   6.32923e-28
      296.200   6.30735e-28
      296.300   6.28534e-28
      296.400   6.26335e-28
      296.500   6.24124e-28
      296.600   6.21916e-28
      296.700   6.19700e-28
      296.800   6.17482e-28
      296.900   6.15261e-28
      297.000   6.13040e-28
      297.100   6.10813e-28
      297.200   6.08946e-28
      297.300   6.09784e-28
      297.400   6.17242e-28
      297.500   6.24765e-28
      297.600   6.32356e-28
      297.700   6.40028e-28
      297.800   6.47754e-28
      297.900   6.55548e-28
      298.000   6.63397e-28
      298.100   6.71311e-28
      298.200   6.79286e-28
      298.300   6.87325e-28
      298.400   6.95433e-28
      298.500   7.03600e-28
      298.600   7.11838e-28
      298.700   7.20130e-28
      298.800   7.28486e-28
      298.900   7.36916e-28
      299.000   7.45418e-28
      299.100   7.53982e-28
      299.200   7.62611e-28
      299.300   7.71295e-28
      299.400   7.80051e-28
      299.500   7.88870e-28
      299.600   7.97745e-28
      299.700   8.06682e-28
      299.800   8.15692e-28
      299.900   8.24769e-28
      300.000   8.33897e-28
      300.100   8.43105e-28
      300.192   8.51633e-28
      300.285   8.60305e-28
      300.377   8.68938e-28
      300.470   8.77729e-28
      300.562   8.86463e-28
      300.654   8.95253e-28
      300.747   9.04214e-28
      300.839   9.13120e-28
      300.932   9.22171e-28
      301.025   9.31299e-28
      301.117   9.40369e-28
      301.210   9.49581e-28
      301.303   9.58875e-28
      301.395   9.68098e-28
      301.488   9.77490e-28
      301.581   9.86916e-28
      301.674   9.96418e-28
      301.766   1.00586e-27
      301.859   1.01547e-27
      301.952   1.02512e-27
      302.045   1.03484e-27
      302.138   1.07624e-27
      302.231   1.13221e-27
      302.324   1.19140e-27
      302.417   1.25355e-27
      302.510   1.31869e-27
      302.603   1.38692e-27
      302.696   1.45847e-27
      302.789   1.53351e-27
      302.882   1.61211e-27
      302.976   1.69537e-27
      303.069   1.78166e-27
      303.162   1.87205e-27
      303.255   1.96670e-27
      303.349   2.06691e-27
      303.442   2.17075e-27
      303.535   2.27932e-27
      303.629   2.39420e-27
      303.722   2.51319e-27
      303.816   2.63904e-27
      303.909   2.76934e-27
      304.003   2.90703e-27
      304.096   3.04960e-27
      304.190   3.20028e-27
      304.283   3.35612e-27
      304.377   3.52061e-27
      304.471   3.69272e-27
      304.564   3.87064e-27
      304.658   4.05853e-27
      304.752   4.25504e-27
      304.846   4.46008e-27
      304.939   4.67202e-27
      305.033   4.89573e-27
      305.127   5.12926e-27
      305.221   5.37303e-27
      305.315   5.62772e-27
      305.409   5.89329e-27
      305.503   6.17048e-27
      305.597   6.45987e-27
      305.691   6.76154e-27
      305.785   7.07648e-27
      305.879   7.40479e-27
      305.973   7.74681e-27
      306.067   8.10376e-27
      306.161   8.47568e-27
      306.255   8.86334e-27
      306.350   9.27171e-27
      306.444   9.69277e-27
      306.538   1.01316e-26
      306.633   1.05934e-26
      306.727   1.10695e-26
      306.821   1.15654e-26
      306.916   1.20870e-26
      307.010   1.26277e-26
      307.105   1.31994e-26
      307.199   1.37889e-26
      307.294   1.44093e-26
      307.388   1.50483e-26
      307.483   1.57204e-26
      307.577   1.64127e-26
      307.672   1.71407e-26
      307.767   1.78981e-26
      307.861   1.86771e-26
      307.956   1.94968e-26
      308.051   2.03493e-26
      308.146   2.12356e-26
      308.240   2.21468e-26
      308.335   2.31040e-26
      308.430   2.40994e-26
      308.525   2.51346e-26
      308.620   2.62093e-26
      308.715   2.73263e-26
      308.810   2.84867e-26
      308.905   2.96918e-26
      309.000   3.09426e-26
      309.095   3.22419e-26
      309.190   3.35908e-26
      309.285   3.49913e-26
      309.380   3.64448e-26
      309.476   3.79687e-26
      309.571   3.95341e-26
      309.666   4.11594e-26
      309.761   4.28442e-26
      309.857   4.46096e-26
      309.952   4.64217e-26
      310.047   4.82997e-26
      310.143   5.02686e-26
      310.238   5.22884e-26
      310.334   5.44033e-26
      310.429   5.65744e-26
      310.525   5.88452e-26
      310.620   6.11750e-26
      310.716   6.36135e-26
      310.811   6.61139e-26
      310.907   6.87282e-26
      311.003   7.14358e-26
      311.098   7.42113e-26
      311.194   7.71151e-26
      311.290   8.01216e-26
      311.386   8.32320e-26
      311.481   8.64172e-26
      311.577   8.97455e-26
      311.673   9.31922e-26
      311.769   9.67573e-26
      311.865   1.00441e-25
      311.961   1.04278e-25
      312.057   1.08312e-25
      312.153   1.12505e-25
      312.249   1.16845e-25
      312.345   1.21336e-25
      312.441   1.25983e-25
      312.537   1.30787e-25
      312.633   1.35755e-25
      312.730   1.40951e-25
      312.826   1.46266e-25
      312.922   1.51760e-25
      313.018   1.57440e-25
      313.115   1.63373e-25
      313.211   1.69445e-25
      313.307   1.75717e-25
      313.404   1.82265e-25
      313.500   1.88961e-25
      313.597   1.95949e-25
      313.693   2.03087e-25
      313.790   2.10541e-25
      313.886   2.18159e-25
      313.983   2.26108e-25
      314.079   2.34229e-25
      314.176   2.42694e-25
      314.273   2.51434e-25
      314.369   2.60362e-25
      314.466   2.69669e-25
      314.563   2.79272e-25
      314.660   2.89168e-25
      314.756   2.99279e-25
      314.853   3.09810e-25
      314.950   3.20671e-25
      315.047   3.31868e-25
      315.144   3.43417e-25
      315.241   3.55316e-25
      315.338   3.67585e-25
      315.435   3.80223e-25
      315.532   3.93245e-25
      315.629   4.06656e-25
      315.726   4.20474e-25
      315.823   4.34717e-25
      315.921   4.49520e-25
      316.018   4.64622e-25
      316.115   4.80170e-25
      316.212   4.96174e-25
      316.310   5.12815e-25
      316.407   5.29764e-25
      316.504   5.47216e-25
      316.602   5.65355e-25
      316.699   5.83829e-25
      316.796   6.02818e-25
      316.894   6.22559e-25
      316.991   6.42707e-25
      317.089   6.63967e-25
      317.187   6.86050e-25
      317.284   7.08523e-25
      317.382   7.31879e-25
      317.479   7.55670e-25
      317.577   7.80379e-25
      317.675   8.05784e-25
      317.773   8.31934e-25
      317.870   8.58545e-25
      317.968   8.86209e-25
      318.066   9.14631e-25
      318.164   9.43849e-25
      318.262   9.73881e-25
      318.360   1.00476e-24
      318.458   1.03649e-24
      318.556   1.06907e-24
      318.654   1.10255e-24
      318.752   1.13693e-24
      318.850   1.17225e-24
      318.948   1.20853e-24
      319.046   1.24579e-24
      319.144   1.28405e-24
      319.242   1.32330e-24
      319.341   1.36402e-24
      319.439   1.40539e-24
      319.537   1.44785e-24
      319.635   1.49142e-24
      319.734   1.53656e-24
      319.832   1.58241e-24
      319.930   1.62945e-24
      320.029   1.67818e-24
      320.127   1.72764e-24
      320.226   1.77890e-24
      320.324   1.83094e-24
      320.423   1.88481e-24
      320.522   1.94004e-24
      320.620   1.99606e-24
      320.719   2.05406e-24
      320.818   2.11351e-24
      320.916   2.17380e-24
      321.015   2.23622e-24
      321.114   2.30012e-24
      321.213   2.36561e-24
      321.311   2.43197e-24
      321.410   2.50059e-24
      321.509   2.57089e-24
      321.608   2.64280e-24
      321.707   2.71647e-24
      321.806   2.79189e-24
      321.905   2.86901e-24
      322.004   2.94802e-24
      322.103   3.04380e-24
      322.202   3.16809e-24
      322.301   3.30808e-24
      322.401   3.45506e-24
      322.500   3.60631e-24
      322.599   3.76339e-24
      322.698   3.92651e-24
      322.798   4.09776e-24
      322.897   4.27383e-24
      322.996   4.45649e-24
      323.096   4.64815e-24
      323.195   4.84500e-24
      323.294   5.04917e-24
      323.394   5.26309e-24
      323.493   5.48284e-24
      323.593   5.71303e-24
      323.692   5.94924e-24
      323.792   6.19657e-24
      323.892   6.45289e-24
      323.991   6.71596e-24
      324.091   6.99118e-24
      324.191   7.27645e-24
      324.291   7.57171e-24
      324.390   7.87426e-24
      324.490   8.19107e-24
      324.590   8.51856e-24
      324.690   8.85750e-24
      324.790   9.20837e-24
      324.890   9.57126e-24
      324.990   9.94686e-24
      325.090   1.03354e-23
      325.190   1.07366e-23
      325.290   1.11515e-23
      325.390   1.15805e-23
      325.490   1.20237e-23
      325.590   1.24815e-23
      325.690   1.29545e-23
      325.790   1.34430e-23
      325.891   1.39525e-23
      325.991   1.44734e-23
      326.091   1.50112e-23
      326.192   1.55718e-23
      326.292   1.61446e-23
      326.392   1.67353e-23
      326.493   1.73509e-23
      326.593   1.79796e-23
      326.694   1.86339e-23
      326.794   1.93022e-23
      326.895   1.99980e-23
      326.995   2.07081e-23
      327.096   2.14466e-23
      327.197   2.22079e-23
      327.297   2.29860e-23
      327.398   2.37985e-23
      327.499   2.46372e-23
      327.599   2.54929e-23
      327.700   2.63825e-23
      327.801   2.72979e-23
      327.902   2.82402e-23
      328.003   2.92105e-23
      328.104   3.02090e-23
      328.205   3.12362e-23
      328.306   3.22925e-23
      328.407   3.33787e-23
      328.508   3.44957e-23
      328.609   3.56439e-23
      328.710   3.68238e-23
      328.811   3.80367e-23
      328.912   3.92834e-23
      329.013   4.05633e-23
      329.115   4.18917e-23
      329.216   4.32430e-23
      329.317   4.46296e-23
      329.419   4.60673e-23
      329.520   4.75295e-23
      329.621   4.90296e-23
      329.723   5.05854e-23
      329.824   5.21632e-23
      329.926   5.37989e-23
      330.027   5.54609e-23
      330.129   5.71820e-23
      330.230   5.89282e-23
      330.332   6.07372e-23
      330.434   6.25905e-23
      330.535   6.44722e-23
      330.637   6.64185e-23
      330.739   6.84105e-23
      330.840   7.04324e-23
      330.942   7.25240e-23
      331.044   7.46655e-23
      331.146   7.68573e-23
      331.248   7.91012e-23
      331.350   8.13974e-23
      331.452   8.37510e-23
      331.554   8.62305e-23
      331.656   8.88887e-23
      331.758   9.16135e-23
      331.860   9.44087e-23
      331.962   9.72733e-23
      332.064   1.00209e-22
      332.166   1.03217e-22
      332.268   1.06300e-22
      332.371   1.09488e-22
      332.473   1.12722e-22
      332.575   1.15857e-22
      332.677   1.18476e-22
      332.780   1.20695e-22
      332.882   1.22923e-22
      332.985   1.25201e-22
      333.087   1.27487e-22
      333.190   1.29826e-22
      333.292   1.32108e-22
      333.395   1.34275e-22
      333.497   1.36375e-22
      333.600   1.38517e-22
      333.702   1.40657e-22
      333.805   1.42837e-22
      333.908   1.45040e-22
      334.011   1.47261e-22
      334.113   1.49479e-22
      334.216   1.51740e-22
      334.319   1.54020e-22
      334.422   1.56319e-22
      334.525   1.58638e-22
      334.628   1.60977e-22
      334.731   1.63333e-22
      334.834   1.65710e-22
      334.937   1.68106e-22
      335.040   1.70522e-22
      335.143   1.72955e-22
      335.246   1.75407e-22
      335.349   1.77876e-22
      335.452   1.80363e-22
      335.555   1.82869e-22
      335.659   1.85419e-22
      335.762   1.87964e-22
      335.865   1.90523e-22
      335.969   1.93126e-22
      336.072   1.95722e-22
      336.175   1.98332e-22
      336.279   2.00986e-22
      336.382   2.03632e-22
      336.486   2.06322e-22
      336.589   2.08998e-22
      336.693   2.11721e-22
      336.796   2.14429e-22
      336.900   2.17185e-22
      337.004   2.19956e-22
      337.107   2.22711e-22
      337.211   2.25512e-22
      337.315   2.28328e-22
      337.419   2.31158e-22
      337.523   2.33999e-22
      337.626   2.36829e-22
      337.730   2.39703e-22
      337.834   2.42587e-22
      337.938   2.45477e-22
      338.042   2.48354e-22
      338.146   2.51279e-22
      338.250   2.54219e-22
      338.354   2.57174e-22
      338.458   2.60141e-22
      338.562   2.63121e-22
      338.667   2.66141e-22
      338.771   2.69145e-22
      338.875   2.72159e-22
      338.979   2.75185e-22
      339.084   2.78252e-22
      339.188   2.81296e-22
      339.292   2.84357e-22
      339.397   2.87455e-22
      339.501   2.90535e-22
      339.606   2.93655e-22
      339.710   2.96751e-22
      339.815   2.99889e-22
      339.919   3.03003e-22
      340.024   3.06158e-22
      340.128   3.09288e-22
      340.233   3.12459e-22
      340.338   3.15635e-22
      340.442   3.18788e-22
      340.547   3.21979e-22
      340.652   3.25176e-22
      340.757   3.28378e-22
      340.862   3.31586e-22
      340.966   3.34770e-22
      341.071   3.37983e-22
      341.176   3.41205e-22
      341.281   3.44431e-22
      341.386   3.47661e-22
      341.491   3.50894e-22
      341.596   3.54133e-22
      341.702   3.57405e-22
      341.807   3.60641e-22
      341.912   3.63885e-22
      342.017   3.67132e-22
      342.122   3.70377e-22
      342.228   3.73651e-22
      342.333   3.76897e-22
      342.438   3.80145e-22
      342.544   3.83420e-22
      342.649   3.86662e-22
      342.754   3.89906e-22
      342.860   3.93175e-22
      342.965   3.96416e-22
      343.071   3.99678e-22
      343.176   4.02913e-22
      343.282   4.06175e-22
      343.388   4.09431e-22
      343.493   4.12722e-22
      343.599   4.16653e-22
      343.705   4.20658e-22
      343.810   4.24623e-22
      343.916   4.28634e-22
      344.022   4.32656e-22
      344.128   4.36680e-22
      344.234   4.40712e-22
      344.340   4.44747e-22
      344.446   4.48786e-22
      344.552   4.52831e-22
      344.658   4.56888e-22
      344.764   4.60935e-22
      344.870   4.64994e-22
      344.976   4.69049e-22
      345.082   4.73110e-22
      345.188   4.77173e-22
      345.294   4.81235e-22
      345.401   4.85339e-22
      345.507   4.89402e-22
      345.613   4.93464e-22
      345.719   4.97528e-22
      345.826   5.01630e-22
      345.932   5.05689e-22
      346.039   5.09785e-22
      346.145   5.13839e-22
      346.252   5.17929e-22
      346.358   5.21976e-22
      346.465   5.26053e-22
      346.571   5.30094e-22
      346.678   5.34162e-22
      346.785   5.38230e-22
      346.891   5.42247e-22
      346.998   5.46293e-22
      347.105   5.50338e-22
      347.212   5.54376e-22
      347.319   5.58404e-22
      347.425   5.62382e-22
      347.532   5.66393e-22
      347.639   5.70390e-22
      347.746   5.74376e-22
      347.853   5.78361e-22
      347.960   5.82322e-22
      348.067   5.86280e-22
      348.174   5.90220e-22
      348.281   5.94142e-22
      348.389   5.98095e-22
      348.496   6.01984e-22
      348.603   6.05876e-22
      348.710   6.09738e-22
      348.818   6.13630e-22
      348.925   6.17400e-22
      349.032   6.18113e-22
      349.140   6.11443e-22
      349.247   6.04886e-22
      349.355   5.98339e-22
      349.462   5.91911e-22
      349.570   5.85479e-22
      349.677   5.79175e-22
      349.785   5.72867e-22
      349.892   5.66683e-22
      350.000   5.60504e-22
      350.100   5.54835e-22
      350.193   5.49610e-22
      350.287   5.44366e-22
      350.380   5.39228e-22
      350.473   5.34133e-22
      350.567   5.29021e-22
      350.660   5.24009e-22
      350.754   5.18990e-22
      350.847   5.14067e-22
      350.941   5.09128e-22
      351.034   5.04285e-22
      351.128   4.99435e-22
      351.221   4.94675e-22
      351.315   4.89906e-22
      351.409   4.85174e-22
      351.502   4.80536e-22
      351.596   4.75886e-22
      351.690   4.71274e-22
      351.783   4.66757e-22
      351.877   4.62230e-22
      351.971   4.57738e-22
      352.065   4.53287e-22
      352.159   4.48874e-22
      352.252   4.44545e-22
      352.346   4.40204e-22
      352.440   4.35904e-22
      352.534   4.31645e-22
      352.628   4.27420e-22
      352.722   4.23229e-22
      352.816   4.19078e-22
      352.910   4.14962e-22
      353.004   4.10885e-22
      353.098   4.06839e-22
      353.192   4.02829e-22
      353.287   3.98813e-22
      353.381   3.94872e-22
      353.475   3.90973e-22
      353.569   3.87100e-22
      353.663   3.83263e-22
      353.758   3.79425e-22
      353.852   3.75658e-22
      353.946   3.71924e-22
      354.041   3.68182e-22
      354.135   3.64515e-22
      354.229   3.60876e-22
      354.324   3.57236e-22
      354.418   3.53662e-22
      354.513   3.50084e-22
      354.607   3.46580e-22
      354.702   3.42524e-22
      354.796   3.38167e-22
      354.891   3.33780e-22
      354.985   3.29495e-22
      355.080   3.25216e-22
      355.175   3.20989e-22
      355.269   3.16858e-22
      355.364   3.12733e-22
      355.459   3.08662e-22
      355.553   3.04681e-22
      355.648   3.00708e-22
      355.743   2.96786e-22
      355.838   2.92906e-22
      355.933   2.89081e-22
      356.027   2.85339e-22
      356.122   2.81604e-22
      356.217   2.77915e-22
      356.312   2.74275e-22
      356.407   2.70676e-22
      356.502   2.67124e-22
      356.597   2.63614e-22
      356.692   2.60150e-22
      356.787   2.56728e-22
      356.882   2.53346e-22
      356.977   2.50011e-22
      357.073   2.46681e-22
      357.168   2.43424e-22
      357.263   2.40210e-22
      357.358   2.37036e-22
      357.453   2.33903e-22
      357.549   2.30776e-22
      357.644   2.27720e-22
      357.739   2.24704e-22
      357.835   2.21691e-22
      357.930   2.18749e-22
      358.025   2.15843e-22
      358.121   2.12944e-22
      358.216   2.10111e-22
      358.312   2.07285e-22
      358.407   2.04523e-22
      358.503   2.01768e-22
      358.598   1.99078e-22
      358.694   1.96391e-22
      358.790   1.93739e-22
      358.885   1.91147e-22
      358.981   1.88563e-22
      359.076   1.86038e-22
      359.172   1.83519e-22
      359.268   1.81030e-22
      359.364   1.78574e-22
      359.459   1.76177e-22
      359.555   1.73783e-22
      359.651   1.71420e-22
      359.747   1.69087e-22
      359.843   1.66784e-22
      359.939   1.64511e-22
      360.035   1.62268e-22
      360.131   1.60054e-22
      360.227   1.57866e-22
      360.323   1.55709e-22
      360.419   1.54467e-22
      360.515   1.54017e-22
      360.611   1.53712e-22
      360.707   1.53403e-22
      360.803   1.53088e-22
      360.899   1.52769e-22
      360.995   1.52446e-22
      361.092   1.52113e-22
      361.188   1.51779e-22
      361.284   1.51441e-22
      361.380   1.51098e-22
      361.477   1.50746e-22
      361.573   1.50394e-22
      361.669   1.50037e-22
      361.766   1.49670e-22
      361.862   1.49304e-22
      361.959   1.48929e-22
      362.055   1.48553e-22
      362.152   1.48169e-22
      362.248   1.47785e-22
      362.345   1.47392e-22
      362.441   1.47000e-22
      362.538   1.46598e-22
      362.635   1.46193e-22
      362.731   1.45787e-22
      362.828   1.45372e-22
      362.925   1.44954e-22
      363.021   1.44537e-22
      363.118   1.44111e-22
      363.215   1.43680e-22
      363.312   1.43246e-22
      363.409   1.42808e-22
      363.505   1.42370e-22
      363.602   1.41925e-22
      363.699   1.41477e-22
      363.796   1.41024e-22
      363.893   1.40567e-22
      363.990   1.40107e-22
      364.087   1.39644e-22
      364.184   1.39177e-22
      364.281   1.38706e-22
      364.378   1.38233e-22
      364.475   1.37756e-22
      364.573   1.37271e-22
      364.670   1.36787e-22
      364.767   1.36301e-22
      364.864   1.35812e-22
      364.961   1.35318e-22
      365.059   1.34818e-22
      365.156   1.34319e-22
      365.253   1.33818e-22
      365.351   1.33309e-22
      365.448   1.32801e-22
      365.545   1.32293e-22
      365.643   1.31775e-22
      365.740   1.31260e-22
      365.838   1.30737e-22
      365.935   1.30217e-22
      366.033   1.29690e-22
      366.130   1.29165e-22
      366.228   1.28870e-22
      366.326   1.28902e-22
      366.423   1.29031e-22
      366.521   1.29156e-22
      366.618   1.29272e-22
      366.716   1.29382e-22
      366.814   1.29485e-22
      366.912   1.29582e-22
      367.010   1.29673e-22
      367.107   1.29754e-22
      367.205   1.29830e-22
      367.303   1.29899e-22
      367.401   1.29961e-22
      367.499   1.30016e-22
      367.597   1.30064e-22
      367.695   1.30105e-22
      367.793   1.30139e-22
      367.891   1.30167e-22
      367.989   1.30188e-22
      368.087   1.30202e-22
      368.185   1.30208e-22
      368.283   1.30209e-22
      368.381   1.30203e-22
      368.480   1.30188e-22
      368.578   1.30168e-22
      368.676   1.30142e-22
      368.774   1.30108e-22
      368.873   1.30068e-22
      368.971   1.30021e-22
      369.069   1.29968e-22
      369.168   1.29907e-22
      369.266   1.29839e-22
      369.364   1.29766e-22
      369.463   1.29687e-22
      369.561   1.29601e-22
      369.660   1.29506e-22
      369.758   1.29406e-22
      369.857   1.29300e-22
      369.955   1.29189e-22
      370.054   1.29069e-22
      370.153   1.28942e-22
      370.251   1.28811e-22
      370.350   1.28674e-22
      370.449   1.28529e-22
      370.547   1.28379e-22
      370.646   1.28222e-22
      370.745   1.28059e-22
      370.844   1.27890e-22
      370.943   1.27715e-22
      371.041   1.27535e-22
      371.140   1.27347e-22
      371.239   1.27154e-22
      371.338   1.26956e-22
      371.437   1.26751e-22
      371.536   1.26540e-22
      371.635   1.26323e-22
      371.734   1.26101e-22
      371.833   1.25874e-22
      371.932   1.25641e-22
      372.032   1.25400e-22
      372.131   1.26021e-22
      372.230   1.28462e-22
      372.329   1.31862e-22
      372.428   1.35317e-22
      372.528   1.38860e-22
      372.627   1.42424e-22
      372.726   1.46042e-22
      372.826   1.49753e-22
      372.925   1.53483e-22
      373.024   1.57264e-22
      373.124   1.61139e-22
      373.223   1.65025e-22
      373.323   1.69007e-22
      373.422   1.73003e-22
      373.522   1.77089e-22
      373.621   1.81184e-22
      373.721   1.85376e-22
      373.820   1.89572e-22
      373.920   1.93862e-22
      374.020   1.98205e-22
      374.119   2.02547e-22
      374.219   2.06987e-22
      374.319   2.11473e-22
      374.419   2.16001e-22
      374.518   2.20533e-22
      374.618   2.25155e-22
      374.718   2.29825e-22
      374.818   2.34530e-22
      374.918   2.39278e-22
      375.018   2.44073e-22
      375.118   2.48905e-22
      375.218   2.53777e-22
      375.318   2.58690e-22
      375.418   2.63639e-22
      375.518   2.68621e-22
      375.618   2.73638e-22
      375.718   2.78688e-22
      375.818   2.83770e-22
      375.918   2.88884e-22
      376.019   2.94081e-22
      376.119   2.99258e-22
      376.219   3.04455e-22
      376.319   3.09683e-22
      376.420   3.14985e-22
      376.520   3.20257e-22
      376.620   3.25551e-22
      376.721   3.30920e-22
      376.821   3.36252e-22
      376.922   3.41723e-22
      377.022   3.48017e-22
      377.122   3.55299e-22
      377.223   3.62718e-22
      377.323   3.70118e-22
      377.424   3.77654e-22
      377.525   3.85238e-22
      377.625   3.92795e-22
      377.726   4.00477e-22
      377.827   4.08211e-22
      377.927   4.15911e-22
      378.028   4.23726e-22
      378.129   4.31585e-22
      378.230   4.39486e-22
      378.330   4.47345e-22
      378.431   4.55314e-22
      378.532   4.63312e-22
      378.633   4.71342e-22
      378.734   4.79399e-22
      378.835   4.87471e-22
      378.936   4.95565e-22
      379.037   5.03675e-22
      379.138   5.11792e-22
      379.239   5.19930e-22
      379.340   5.28073e-22
      379.441   5.36224e-22
      379.542   5.44373e-22
      379.643   5.52523e-22
      379.745   5.60754e-22
      379.846   5.68898e-22
      379.947   5.77024e-22
      380.048   5.85142e-22
      380.150   5.93332e-22
      380.251   6.01420e-22
      380.352   6.09484e-22
      380.454   6.17604e-22
      380.555   6.25620e-22
      380.656   6.33603e-22
      380.758   6.41637e-22
      380.859   6.49551e-22
      380.961   6.57503e-22
      381.062   6.65337e-22
      381.164   6.73209e-22
      381.266   6.81031e-22
      381.367   6.88726e-22
      381.469   6.96445e-22
      381.570   7.04027e-22
      381.672   7.11625e-22
      381.774   7.19171e-22
      381.876   7.26640e-22
      381.977   7.34166e-22
      382.079   7.42327e-22
      382.181   7.50958e-22
      382.283   7.59523e-22
      382.385   7.68021e-22
      382.487   7.76457e-22
      382.589   7.84805e-22
      382.691   7.93073e-22
      382.793   8.01264e-22
      382.895   8.09379e-22
      382.997   8.17402e-22
      383.099   8.25335e-22
      383.201   8.33169e-22
      383.303   8.40922e-22
      383.405   8.48563e-22
      383.507   8.56094e-22
      383.610   8.63604e-22
      383.712   8.70939e-22
      383.814   8.78154e-22
      383.916   8.85262e-22
      384.019   8.92321e-22
      384.121   8.99200e-22
      384.223   9.05946e-22
      384.326   9.12650e-22
      384.428   9.19133e-22
      384.531   9.25546e-22
      384.633   9.31777e-22
      384.736   9.37934e-22
      384.838   9.43893e-22
      384.941   9.49782e-22
      385.043   9.55473e-22
      385.146   9.61088e-22
      385.249   9.66558e-22
      385.351   9.71838e-22
      385.454   9.77029e-22
      385.557   9.82069e-22
      385.660   9.86974e-22
      385.762   9.91680e-22
      385.865   9.96283e-22
      385.968   1.00074e-21
      386.071   1.00505e-21
      386.174   1.00921e-21
      386.277   1.01322e-21
      386.380   1.01707e-21
      386.483   1.02077e-21
      386.586   1.02432e-21
      386.689   1.02772e-21
      386.792   1.03096e-21
      386.895   1.03405e-21
      386.998   1.03699e-21
      387.101   1.03506e-21
      387.204   1.01694e-21
      387.308   9.93586e-22
      387.411   9.70978e-22
      387.514   9.48880e-22
      387.617   9.27291e-22
      387.721   9.05988e-22
      387.824   8.85366e-22
      387.927   8.65194e-22
      388.031   8.45302e-22
      388.134   8.26052e-22
      388.238   8.07064e-22
      388.341   7.88669e-22
      388.445   7.70524e-22
      388.548   7.52950e-22
      388.652   7.35623e-22
      388.755   7.18850e-22
      388.859   7.02294e-22
      388.962   6.86272e-22
      389.066   6.70451e-22
      389.170   6.55008e-22
      389.274   6.39906e-22
      389.377   6.25287e-22
      389.481   6.10852e-22
      389.585   5.96760e-22
      389.689   5.82983e-22
      389.793   5.69515e-22
      389.897   5.56365e-22
      390.000   5.43626e-22
      390.104   5.31064e-22
      390.208   5.18779e-22
      390.312   5.06779e-22
      390.416   4.95050e-22
      390.520   4.83579e-22
      390.625   4.72260e-22
      390.729   4.61318e-22
      390.833   4.50617e-22
      390.937   4.40163e-22
      391.041   4.29950e-22
      391.145   4.19970e-22
      391.250   4.10120e-22
      391.354   4.00588e-22
      391.458   3.91272e-22
      391.563   3.82079e-22
      391.667   3.73188e-22
      391.771   3.64501e-22
      391.876   3.55929e-22
      391.980   3.47635e-22
      392.085   3.39456e-22
      392.189   3.31543e-22
      392.294   3.23736e-22
      392.398   3.16186e-22
      392.503   3.08737e-22
      392.607   3.01530e-22
      392.712   2.94424e-22
      392.817   2.87478e-22
      392.921   2.80763e-22
      393.026   2.74137e-22
      393.131   2.67669e-22
      393.236   2.61345e-22
      393.340   2.55231e-22
      393.445   2.49202e-22
      393.550   2.43313e-22
      393.655   2.37559e-22
      393.760   2.31942e-22
      393.865   2.26454e-22
      393.970   2.21098e-22
      394.075   2.15862e-22
      394.180   2.10753e-22
      394.285   2.05761e-22
      394.390   2.00887e-22
      394.495   1.96123e-22
      394.600   1.91474e-22
      394.706   1.86891e-22
      394.811   1.82458e-22
      394.916   1.78126e-22
      395.021   1.73897e-22
      395.126   1.69770e-22
      395.232   1.65698e-22
      395.337   1.61760e-22
      395.443   1.57880e-22
      395.548   1.54126e-22
      395.653   1.50461e-22
      395.759   1.46847e-22
      395.864   1.43353e-22
      395.970   1.39909e-22
      396.075   1.36577e-22
      396.181   1.33293e-22
      396.286   1.30115e-22
      396.392   1.26987e-22
      396.498   1.23931e-22
      396.603   1.20973e-22
      396.709   1.18061e-22
      396.815   1.15216e-22
      396.921   1.12439e-22
      397.026   1.09755e-22
      397.132   1.07108e-22
      397.238   1.04525e-22
      397.344   1.02002e-22
      397.450   9.95428e-23
      397.556   9.71381e-23
      397.662   9.47912e-23
      397.768   9.25011e-23
      397.874   9.02644e-23
      397.980   8.80811e-23
      398.086   8.59491e-23
      398.192   8.38694e-23
      398.298   8.18382e-23
      398.404   7.98559e-23
      398.510   7.79203e-23
      398.617   7.60152e-23
      398.723   7.41716e-23
      398.829   7.23715e-23
      398.935   7.06147e-23
      399.042   6.88848e-23
      399.148   6.72108e-23
      399.255   6.55632e-23
      399.361   6.39698e-23
      399.467   6.24128e-23
      399.574   6.08811e-23
      399.680   5.93990e-23
      399.787   5.79389e-23
      399.893       0.00000
      400.000       0.00000
