Filter: Al-poly/Ti-poly
observation_date 22-Sept-2015 22:40:45
wavelength effective area 
      1.00000   2.76604e-10
      1.10000   7.87990e-10
      1.20000   2.04351e-09
      1.30000   4.87275e-09
      1.40000   1.10214e-08
      1.50000   2.34288e-08
      1.60000   4.72405e-08
      1.70000   9.13083e-08
      1.80000   1.69177e-07
      1.90000   3.02483e-07
      2.00000   5.22924e-07
      2.10000   8.77959e-07
      2.20000   1.43842e-06
      2.30000   2.29665e-06
      2.40000   3.57999e-06
      2.50000   5.73207e-06
      2.60000   8.86429e-06
      2.70000   1.31996e-05
      2.80000   1.92780e-05
      2.90000   2.78637e-05
      3.00000   3.96418e-05
      3.10000   5.56691e-05
      3.20000   7.73165e-05
      3.30000   0.000106281
      3.40000   0.000144561
      3.50000   0.000194711
      3.60000   0.000261027
      3.70000   0.000346186
      3.80000   0.000457183
      3.90000   0.000600364
      4.00000   0.000783414
      4.10000    0.00101745
      4.20000    0.00131655
      4.30000    0.00169858
      4.40000    0.00218542
      4.50000    0.00280380
      4.60000    0.00358480
      4.70000    0.00458270
      4.80000    0.00585175
      4.90000    0.00737568
      5.00000    0.00953989
      5.10000     0.0121646
      5.20000     0.0155551
      5.30000     0.0197213
      5.40000     0.0249598
      5.50000     0.0316422
      5.60000     0.0388800
      5.70000     0.0503260
      5.80000     0.0587389
      5.90000     0.0892831
      6.00000      0.119469
      6.10000      0.151977
      6.20000      0.185753
      6.30000      0.217592
      6.40000      0.244461
      6.50000      0.263691
      6.60000      0.271532
      6.70000      0.278481
      6.80000      0.277341
      6.90000      0.361824
      7.00000      0.391233
      7.10000      0.411361
      7.20000      0.426631
      7.30000      0.438462
      7.40000      0.446703
      7.50000      0.452567
      7.60000      0.456180
      7.70000      0.456381
      7.80000      0.452357
      7.90000      0.448834
      8.00000      0.751570
      8.10000      0.820495
      8.20000      0.831466
      8.30000      0.838542
      8.40000      0.842338
      8.50000      0.844736
      8.60000      0.845481
      8.70000      0.845138
      8.80000      0.843436
      8.90000      0.840810
      9.00000      0.837210
      9.10000      0.832688
      9.20000      0.827418
      9.30000      0.821335
      9.40000      0.814577
      9.50000      0.807203
      9.60000      0.799176
      9.70000      0.790600
      9.80000      0.781617
      9.90000      0.772260
      10.0000      0.762587
      10.1000      0.752609
      10.2000      0.742354
      10.3000      0.731775
      10.4000      0.720902
      10.5000      0.709759
      10.6000      0.698386
      10.7000      0.686805
      10.8000      0.675033
      10.9000      0.663101
      11.0000      0.651024
      11.1000      0.638833
      11.2000      0.626535
      11.3000      0.614164
      11.4000      0.601718
      11.5000      0.589203
      11.6000      0.576638
      11.7000      0.563985
      11.8000      0.551313
      11.9000      0.538579
      12.0000      0.525225
      12.1000      0.513860
      12.2000      0.511525
      12.3000      0.503769
      12.4000      0.492328
      12.5000      0.480647
      12.6000      0.468929
      12.7000      0.457255
      12.8000      0.445656
      12.9000      0.434145
      13.0000      0.422755
      13.1000      0.411513
      13.2000      0.400431
      13.3000      0.389521
      13.4000      0.378795
      13.5000      0.368365
      13.6000      0.358210
      13.7000      0.348227
      13.8000      0.338411
      13.9000      0.328777
      14.0000      0.319323
      14.1000      0.310036
      14.2000      0.300918
      14.3000      0.291964
      14.4000      0.283165
      14.5000      0.274534
      14.6000      0.266071
      14.7000      0.257766
      14.8000      0.249621
      14.9000      0.241636
      15.0000      0.233813
      15.1000      0.226157
      15.2000      0.218694
      15.3000      0.211402
      15.4000      0.204276
      15.5000      0.197315
      15.6000      0.190529
      15.7000      0.183920
      15.8000      0.177515
      15.9000      0.171287
      16.0000      0.165230
      16.1000      0.159345
      16.2000      0.153665
      16.3000      0.148146
      16.4000      0.142774
      16.5000      0.137544
      16.6000      0.132469
      16.7000      0.127551
      16.8000      0.122762
      16.9000      0.118101
      17.0000      0.113586
      17.1000      0.109216
      17.2000      0.104963
      17.3000      0.100829
      17.4000     0.0969098
      17.5000     0.0931765
      17.6000     0.0895959
      17.7000     0.0861933
      17.8000     0.0830292
      17.9000     0.0799562
      18.0000     0.0769516
      18.1000     0.0740512
      18.2000     0.0712029
      18.3000     0.0683964
      18.4000     0.0656366
      18.5000     0.0629266
      18.6000     0.0602518
      18.7000     0.0576125
      18.8000     0.0550699
      18.9000     0.0526013
      19.0000     0.0502327
      19.1000     0.0479630
      19.2000     0.0457669
      19.3000     0.0436813
      19.4000     0.0416837
      19.5000     0.0397537
      19.6000     0.0379415
      19.7000     0.0361948
      19.8000     0.0345075
      19.9000     0.0329227
      20.0000     0.0313847
      20.1000     0.0299080
      20.2000     0.0284978
      20.3000     0.0271278
      20.4000     0.0258276
      20.5000     0.0245722
      20.6000     0.0233577
      20.7000     0.0222088
      20.8000     0.0210913
      20.9000     0.0200266
      21.0000     0.0190428
      21.1000     0.0181219
      21.2000     0.0173635
      21.3000     0.0166548
      21.4000     0.0160475
      21.5000     0.0155448
      21.6000     0.0151466
      21.7000     0.0147444
      21.8000     0.0143426
      21.9000     0.0139195
      22.0000     0.0134838
      22.1000     0.0130125
      22.2000     0.0124735
      22.3000     0.0118774
      22.4000     0.0110605
      22.5000     0.0101815
      22.6000    0.00848408
      22.7000    0.00770587
      22.8000     0.0114450
      22.9000     0.0156445
      23.0000     0.0194928
      23.1000     0.0217282
      23.2000     0.0223916
      23.3000     0.0221155
      23.4000     0.0213512
      23.5000     0.0205887
      23.6000     0.0198320
      23.7000     0.0190581
      23.8000     0.0182904
      23.9000     0.0175559
      24.0000     0.0168309
      24.1000     0.0161303
      24.2000     0.0154431
      24.3000     0.0147880
      24.4000     0.0141471
      24.5000     0.0135338
      24.6000     0.0129367
      24.7000     0.0123676
      24.8000     0.0118145
      24.9000     0.0112867
      25.0000     0.0107751
      25.1000     0.0102877
      25.2000    0.00981539
      25.3000    0.00936575
      25.4000    0.00893010
      25.5000    0.00851704
      25.6000    0.00811671
      25.7000    0.00773883
      25.8000    0.00737111
      25.9000    0.00702500
      26.0000    0.00668678
      26.1000    0.00636996
      26.2000    0.00605883
      26.3000    0.00576968
      26.4000    0.00548385
      26.5000    0.00522004
      26.6000    0.00495909
      26.7000    0.00471729
      26.8000    0.00448027
      26.9000    0.00425824
      27.0000    0.00404251
      27.1000    0.00383786
      27.2000    0.00364101
      27.3000     0.0153371
      27.4000     0.0417094
      27.5000     0.0606024
      27.6000     0.0589130
      27.7000     0.0572413
      27.8000     0.0555937
      27.9000     0.0539630
      28.0000     0.0523915
      28.1000     0.0508446
      28.2000     0.0493459
      28.3000     0.0478844
      28.4000     0.0464554
      28.5000     0.0450741
      28.6000     0.0437120
      28.7000     0.0424209
      28.8000     0.0411438
      28.9000     0.0399137
      29.0000     0.0387064
      29.1000     0.0375313
      29.2000     0.0363905
      29.3000     0.0352679
      29.4000     0.0341919
      29.5000     0.0331279
      29.6000     0.0321059
      29.7000     0.0311033
      29.8000     0.0301277
      29.9000     0.0291843
      30.0000     0.0282530
      30.1000     0.0273658
      30.2000     0.0264888
      30.3000     0.0272813
      30.4000     0.0290068
      30.5000     0.0301525
      30.6000     0.0292315
      30.7000     0.0283212
      30.8000     0.0274473
      30.9000     0.0265914
      31.0000     0.0257557
      31.1000     0.0249527
      31.2000     0.0241592
      31.3000     0.0234004
      31.4000     0.0226562
      31.5000     0.0219310
      31.6000     0.0212358
      31.7000     0.0205490
      31.8000     0.0198919
      31.9000     0.0192483
      32.0000     0.0186166
      32.1000     0.0180046
      32.2000     0.0174002
      32.3000     0.0168216
      32.4000     0.0162583
      32.5000     0.0157057
      32.6000     0.0151892
      32.7000     0.0146804
      32.8000     0.0141897
      32.9000     0.0137158
      33.0000     0.0132478
      33.1000     0.0128177
      33.2000     0.0123985
      33.3000     0.0119895
      33.4000     0.0115988
      33.5000     0.0112131
      33.6000     0.0108424
      33.7000     0.0104840
      33.8000     0.0101299
      33.9000    0.00979495
      34.0000    0.00946614
      34.1000    0.00914518
      34.2000    0.00883983
      34.3000    0.00853812
      34.4000    0.00824665
      34.5000    0.00796715
      34.6000    0.00769104
      34.7000    0.00742536
      34.8000    0.00716619
      34.9000    0.00691019
      35.0000    0.00666976
      35.1000    0.00643356
      35.2000    0.00620202
      35.3000    0.00598780
      35.4000    0.00577622
      35.5000    0.00557058
      35.6000    0.00537562
      35.7000    0.00518309
      35.8000    0.00499772
      35.9000    0.00482058
      36.0000    0.00464565
      36.1000    0.00447867
      36.2000    0.00431795
      36.3000    0.00415926
      36.4000    0.00400891
      36.5000    0.00386330
      36.6000    0.00371956
      36.7000    0.00358427
      36.8000    0.00345259
      36.9000    0.00332263
      37.0000    0.00320094
      37.1000    0.00308206
      37.2000    0.00296473
      37.3000    0.00285534
      37.4000    0.00274822
      37.5000    0.00264250
      37.6000    0.00254416
      37.7000    0.00244777
      37.8000    0.00235266
      37.9000    0.00226427
      38.0000    0.00217772
      38.1000    0.00209232
      38.2000    0.00201289
      38.3000    0.00193529
      38.4000    0.00185873
      38.5000    0.00178733
      38.6000    0.00171788
      38.7000    0.00164937
      38.8000    0.00158519
      38.9000    0.00152314
      39.0000    0.00146195
      39.1000    0.00140425
      39.2000    0.00134894
      39.3000    0.00129439
      39.4000    0.00124250
      39.5000    0.00119328
      39.6000    0.00114474
      39.7000    0.00109807
      39.8000    0.00105436
      39.9000    0.00101127
      40.0000   0.000969290
      40.1000   0.000930581
      40.2000   0.000892415
      40.3000   0.000854790
      40.4000   0.000820410
      40.5000   0.000786646
      40.6000   0.000753359
      40.7000   0.000722403
      40.8000   0.000692587
      40.9000   0.000663198
      41.0000   0.000635305
      41.1000   0.000609023
      41.2000   0.000583123
      41.3000   0.000557990
      41.4000   0.000534905
      41.5000   0.000512151
      41.6000   0.000489729
      41.7000   0.000469235
      41.8000   0.000449264
      41.9000   0.000429585
      42.0000   0.000411093
      42.1000   0.000393617
      42.2000   0.000376398
      42.3000   0.000359691
      42.4000   0.000344420
      42.5000   0.000329373
      42.6000   0.000314549
      42.7000   0.000300958
      42.8000   0.000287837
      42.9000   0.000274911
      43.0000   0.000262605
      43.1000   0.000251192
      43.2000   0.000239950
      43.3000   0.000228878
      43.4000    0.00202996
      43.5000    0.00541343
      43.6000     0.0121944
      43.7000     0.0213574
      43.8000     0.0277152
      43.9000     0.0287613
      44.0000     0.0278084
      44.1000     0.0250346
      44.2000     0.0243220
      44.3000     0.0237872
      44.4000     0.0232667
      44.5000     0.0227644
      44.6000     0.0222637
      44.7000     0.0217647
      44.8000     0.0212921
      44.9000     0.0208247
      45.0000     0.0203589
      45.1000     0.0199023
      45.2000     0.0194658
      45.3000     0.0190309
      45.4000     0.0185974
      45.5000     0.0181823
      45.6000     0.0177766
      45.7000     0.0173723
      45.8000     0.0169702
      45.9000     0.0165924
      46.0000     0.0162158
      46.1000     0.0158405
      46.2000     0.0154877
      46.3000     0.0151726
      46.4000     0.0148585
      46.5000     0.0145455
      46.6000     0.0142497
      46.7000     0.0139629
      46.8000     0.0136771
      46.9000     0.0133922
      47.0000     0.0131296
      47.1000     0.0128694
      47.2000     0.0126100
      47.3000     0.0123542
      47.4000     0.0121122
      47.5000     0.0118709
      47.6000     0.0116304
      47.7000     0.0113965
      47.8000     0.0111724
      47.9000     0.0109490
      48.0000     0.0107264
      48.1000     0.0105118
      48.2000     0.0103034
      48.3000     0.0100957
      48.4000    0.00988872
      48.5000    0.00969201
      48.6000    0.00949977
      48.7000    0.00930819
      48.8000    0.00911723
      48.9000    0.00893633
      49.0000    0.00875791
      49.1000    0.00858010
      49.2000    0.00840290
      49.3000    0.00823575
      49.4000    0.00806997
      49.5000    0.00790474
      49.6000    0.00774007
      49.7000    0.00758538
      49.8000    0.00743142
      49.9000    0.00727799
      50.0000    0.00712519
      50.1000    0.00697944
      50.2000    0.00683852
      50.3000    0.00670004
      50.4000    0.00656421
      50.5000    0.00643096
      50.6000    0.00630020
      50.7000    0.00617184
      50.8000    0.00604575
      50.9000    0.00592234
      51.0000    0.00580142
      51.1000    0.00568293
      51.2000    0.00556655
      51.3000    0.00545246
      51.4000    0.00534083
      51.5000    0.00523105
      51.6000    0.00512328
      51.7000    0.00501741
      51.8000    0.00491259
      51.9000    0.00480972
      52.0000    0.00470872
      52.1000    0.00460979
      52.2000    0.00451263
      52.3000    0.00441717
      52.4000    0.00432392
      52.5000    0.00423242
      52.6000    0.00414129
      52.7000    0.00405058
      52.8000    0.00396152
      52.9000    0.00387442
      53.0000    0.00378923
      53.1000    0.00370561
      53.2000    0.00362379
      53.3000    0.00354352
      53.4000    0.00346484
      53.5000    0.00338791
      53.6000    0.00331245
      53.7000    0.00323844
      53.8000    0.00316603
      53.9000    0.00309504
      54.0000    0.00302559
      54.1000    0.00295778
      54.2000    0.00289126
      54.3000    0.00282598
      54.4000    0.00276210
      54.5000    0.00269949
      54.6000    0.00263821
      54.7000    0.00257838
      54.8000    0.00251977
      54.9000    0.00246229
      55.0000    0.00240607
      55.1000    0.00235096
      55.2000    0.00229501
      55.3000    0.00223853
      55.4000    0.00218322
      55.5000    0.00212906
      55.6000    0.00207622
      55.7000    0.00202461
      55.8000    0.00197410
      55.9000    0.00192479
      56.0000    0.00187691
      56.1000    0.00182938
      56.2000    0.00178232
      56.3000    0.00173646
      56.4000    0.00169163
      56.5000    0.00164781
      56.6000    0.00160506
      56.7000    0.00156338
      56.8000    0.00152264
      56.9000    0.00148290
      57.0000    0.00144475
      57.1000    0.00140787
      57.2000    0.00137181
      57.3000    0.00133655
      57.4000    0.00130217
      57.5000    0.00126863
      57.6000    0.00123585
      57.7000    0.00120381
      57.8000    0.00117261
      57.9000    0.00114217
      58.0000    0.00111245
      58.1000    0.00108340
      58.2000    0.00105511
      58.3000    0.00102749
      58.4000    0.00100050
      58.5000   0.000974152
      58.6000   0.000948505
      58.7000   0.000923499
      58.8000   0.000899072
      58.9000   0.000875217
      59.0000   0.000851941
      59.1000   0.000829265
      59.2000   0.000807138
      59.3000   0.000785559
      59.4000   0.000764515
      59.5000   0.000744024
      59.6000   0.000724054
      59.7000   0.000704552
      59.8000   0.000685507
      59.9000   0.000666928
      60.0000   0.000648875
      60.1000   0.000631273
      60.2000   0.000614106
      60.3000   0.000597367
      60.4000   0.000581042
      60.5000   0.000565160
      60.6000   0.000549664
      60.7000   0.000534557
      60.8000   0.000519834
      60.9000   0.000505470
      61.0000   0.000491483
      61.1000   0.000477865
      61.2000   0.000464596
      61.3000   0.000451671
      61.4000   0.000439080
      61.5000   0.000426814
      61.6000   0.000414876
      61.7000   0.000403273
      61.8000   0.000392115
      61.9000   0.000381295
      62.0000   0.000370749
      62.1000   0.000360477
      62.2000   0.000350497
      62.3000   0.000340774
      62.4000   0.000331290
      62.5000   0.000322044
      62.6000   0.000313033
      62.7000   0.000304274
      62.8000   0.000295989
      62.9000   0.000287928
      63.0000   0.000280076
      63.1000   0.000272424
      63.2000   0.000264957
      63.3000   0.000257672
      63.4000   0.000250573
      63.5000   0.000243674
      63.6000   0.000236955
      63.7000   0.000230409
      63.8000   0.000224033
      63.9000   0.000217819
      64.0000   0.000211762
      64.1000   0.000205863
      64.2000   0.000200126
      64.3000   0.000194549
      64.4000   0.000189115
      64.5000   0.000183819
      64.6000   0.000178658
      64.7000   0.000173630
      64.8000   0.000168731
      64.9000   0.000163960
      65.0000   0.000159319
      65.1000   0.000154813
      65.2000   0.000150429
      65.3000   0.000146159
      65.4000   0.000141999
      65.5000   0.000137948
      65.6000   0.000134001
      65.7000   0.000130160
      65.8000   0.000126424
      65.9000   0.000122792
      66.0000   0.000119264
      66.1000   0.000115838
      66.2000   0.000112503
      66.3000   0.000109256
      66.4000   0.000106094
      66.5000   0.000103015
      66.6000   0.000100018
      66.7000   9.71065e-05
      66.8000   9.42783e-05
      66.9000   9.15480e-05
      67.0000   8.89097e-05
      67.1000   8.63434e-05
      67.2000   8.38461e-05
      67.3000   8.14195e-05
      67.4000   7.90588e-05
      67.5000   7.67630e-05
      67.6000   7.45309e-05
      67.7000   7.23609e-05
      67.8000   7.02485e-05
      67.9000   6.81890e-05
      68.0000   6.61917e-05
      68.1000   6.42579e-05
      68.2000   6.23771e-05
      68.3000   6.05490e-05
      68.4000   5.87720e-05
      68.5000   5.70449e-05
      68.6000   5.53663e-05
      68.7000   5.37349e-05
      68.8000   5.21487e-05
      68.9000   5.06203e-05
      69.0000   4.92116e-05
      69.1000   4.79910e-05
      69.2000   4.68843e-05
      69.3000   4.58109e-05
      69.4000   4.47788e-05
      69.5000   4.37502e-05
      69.6000   4.27177e-05
      69.7000   4.17252e-05
      69.8000   4.07753e-05
      69.9000   3.98459e-05
      70.0000   3.89356e-05
      70.1000   3.80347e-05
      70.2000   3.72012e-05
      70.3000   3.64330e-05
      70.4000   3.56787e-05
      70.5000   3.49457e-05
      70.6000   3.42324e-05
      70.7000   3.35332e-05
      70.8000   3.28467e-05
      70.9000   3.21584e-05
      71.0000   3.14707e-05
      71.1000   3.08123e-05
      71.2000   3.01823e-05
      71.3000   2.95366e-05
      71.4000   2.88699e-05
      71.5000   2.82457e-05
      71.6000   2.76786e-05
      71.7000   2.71159e-05
      71.8000   2.65488e-05
      71.9000   2.60012e-05
      72.0000   2.54863e-05
      72.1000   2.49711e-05
      72.2000   2.44157e-05
      72.3000   2.38735e-05
      72.4000   2.33813e-05
      72.5000   2.28998e-05
      72.6000   2.24279e-05
      72.7000   2.19657e-05
      72.8000   2.15125e-05
      72.9000   2.10687e-05
      73.0000   2.06404e-05
      73.1000   2.02240e-05
      73.2000   1.98161e-05
      73.3000   1.94165e-05
      73.4000   1.90271e-05
      73.5000   1.86494e-05
      73.6000   1.82791e-05
      73.7000   1.79159e-05
      73.8000   1.75597e-05
      73.9000   1.72101e-05
      74.0000   1.68688e-05
      74.1000   1.65509e-05
      74.2000   1.62439e-05
      74.3000   1.59265e-05
      74.4000   1.56028e-05
      74.5000   1.52886e-05
      74.6000   1.49874e-05
      74.7000   1.46919e-05
      74.8000   1.44030e-05
      74.9000   1.41214e-05
      75.0000   1.38443e-05
      75.1000   1.35720e-05
      75.2000   1.33049e-05
      75.3000   1.30428e-05
      75.4000   1.27872e-05
      75.5000   1.25395e-05
      75.6000   1.22964e-05
      75.7000   1.20579e-05
      75.8000   1.18243e-05
      75.9000   1.15969e-05
      76.0000   1.13756e-05
      76.1000   1.11670e-05
      76.2000   1.09634e-05
      76.3000   1.07636e-05
      76.4000   1.05694e-05
      76.5000   1.03788e-05
      76.6000   1.01913e-05
      76.7000   1.00070e-05
      76.8000   9.82589e-06
      76.9000   9.64800e-06
      77.0000   9.47335e-06
      77.1000   9.30195e-06
      77.2000   9.13371e-06
      77.3000   8.96849e-06
      77.4000   8.80621e-06
      77.5000   8.64661e-06
      77.6000   8.48792e-06
      77.7000   8.33204e-06
      77.8000   8.17878e-06
      77.9000   8.02806e-06
      78.0000   7.87872e-06
      78.1000   7.72862e-06
      78.2000   7.58148e-06
      78.3000   7.44448e-06
      78.4000   7.31265e-06
      78.5000   7.18246e-06
      78.6000   7.05238e-06
      78.7000   6.92459e-06
      78.8000   6.79628e-06
      78.9000   6.66954e-06
      79.0000   6.54496e-06
      79.1000   6.42248e-06
      79.2000   6.30234e-06
      79.3000   6.18651e-06
      79.4000   6.07361e-06
      79.5000   5.96220e-06
      79.6000   5.85073e-06
      79.7000   5.74125e-06
      79.8000   5.63265e-06
      79.9000   5.52545e-06
      80.0000   5.41995e-06
      80.1000   5.31392e-06
      80.2000   5.20966e-06
      80.3000   5.10478e-06
      80.4000   4.99956e-06
      80.5000   4.89633e-06
      80.6000   4.79523e-06
      80.7000   4.69618e-06
      80.8000   4.59949e-06
      80.9000   4.50561e-06
      81.0000   4.41359e-06
      81.1000   4.32344e-06
      81.2000   4.23509e-06
      81.3000   4.14854e-06
      81.4000   4.06781e-06
      81.5000   3.98885e-06
      81.6000   3.91255e-06
      81.7000   3.84009e-06
      81.8000   3.76911e-06
      81.9000   3.70108e-06
      82.0000   3.63510e-06
      82.1000   3.57041e-06
      82.2000   3.50559e-06
      82.3000   3.44207e-06
      82.4000   3.38165e-06
      82.5000   3.32629e-06
      82.6000   3.27171e-06
      82.7000   3.21703e-06
      82.8000   3.16204e-06
      82.9000   3.10786e-06
      83.0000   3.05491e-06
      83.1000   3.00299e-06
      83.2000   2.95196e-06
      83.3000   2.90181e-06
      83.4000   2.85262e-06
      83.5000   2.80444e-06
      83.6000   2.75779e-06
      83.7000   2.71188e-06
      83.8000   2.66648e-06
      83.9000   2.62128e-06
      84.0000   2.57675e-06
      84.1000   2.53334e-06
      84.2000   2.49131e-06
      84.3000   2.44995e-06
      84.4000   2.40897e-06
      84.5000   2.36846e-06
      84.6000   2.32863e-06
      84.7000   2.28993e-06
      84.8000   2.25215e-06
      84.9000   2.21503e-06
      85.0000   2.17786e-06
      85.1000   2.14108e-06
      85.2000   2.10489e-06
      85.3000   2.07019e-06
      85.4000   2.03618e-06
      85.5000   2.00277e-06
      85.6000   1.96948e-06
      85.7000   1.93672e-06
      85.8000   1.90449e-06
      85.9000   1.87277e-06
      86.0000   1.84155e-06
      86.1000   1.81085e-06
      86.2000   1.78123e-06
      86.3000   1.75206e-06
      86.4000   1.72334e-06
      86.5000   1.69504e-06
      86.6000   1.66717e-06
      86.7000   1.63974e-06
      86.8000   1.61152e-06
      86.9000   1.58373e-06
      87.0000   1.55643e-06
      87.1000   1.52986e-06
      87.2000   1.50377e-06
      87.3000   1.47813e-06
      87.4000   1.45254e-06
      87.5000   1.42727e-06
      87.6000   1.40240e-06
      87.7000   1.37818e-06
      87.8000   1.35440e-06
      87.9000   1.33101e-06
      88.0000   1.30801e-06
      88.1000   1.28537e-06
      88.2000   1.26311e-06
      88.3000   1.24150e-06
      88.4000   1.22052e-06
      88.5000   1.19996e-06
      88.6000   1.17964e-06
      88.7000   1.15952e-06
      88.8000   1.13974e-06
      88.9000   1.12028e-06
      89.0000   1.10112e-06
      89.1000   1.08230e-06
      89.2000   1.06384e-06
      89.3000   1.04581e-06
      89.4000   1.02827e-06
      89.5000   1.01101e-06
      89.6000   9.94027e-07
      89.7000   9.77297e-07
      89.8000   9.60814e-07
      89.9000   9.44579e-07
      90.0000   9.28619e-07
      90.1000   9.12961e-07
      90.2000   8.97345e-07
      90.3000   8.81502e-07
      90.4000   8.65925e-07
      90.5000   8.50639e-07
      90.6000   8.35803e-07
      90.7000   8.21170e-07
      90.8000   8.06673e-07
      90.9000   7.92215e-07
      91.0000   7.77951e-07
      91.1000   7.63939e-07
      91.2000   7.50040e-07
      91.3000   7.36188e-07
      91.4000   7.22557e-07
      91.5000   7.09197e-07
      91.6000   6.96092e-07
      91.7000   6.83942e-07
      91.8000   6.73113e-07
      91.9000   6.63771e-07
      92.0000   6.53766e-07
      92.1000   6.43732e-07
      92.2000   6.33390e-07
      92.3000   6.22794e-07
      92.4000   6.12144e-07
      92.5000   6.01690e-07
      92.6000   5.91403e-07
      92.7000   5.81284e-07
      92.8000   5.71332e-07
      92.9000   5.61639e-07
      93.0000   5.52285e-07
      93.1000   5.43074e-07
      93.2000   5.34011e-07
      93.3000   5.25309e-07
      93.4000   5.16833e-07
      93.5000   5.08481e-07
      93.6000   5.00243e-07
      93.7000   4.92114e-07
      93.8000   4.84111e-07
      93.9000   4.76231e-07
      94.0000   4.68460e-07
      94.1000   4.60802e-07
      94.2000   4.53274e-07
      94.3000   4.45909e-07
      94.4000   4.38784e-07
      94.5000   4.31778e-07
      94.6000   4.24886e-07
      94.7000   4.18119e-07
      94.8000   4.11452e-07
      94.9000   4.04882e-07
      95.0000   3.98411e-07
      95.1000   3.92065e-07
      95.2000   3.85804e-07
      95.3000   3.79630e-07
      95.4000   3.73560e-07
      95.5000   3.67660e-07
      95.6000   3.61841e-07
      95.7000   3.56104e-07
      95.8000   3.50401e-07
      95.9000   3.44774e-07
      96.0000   3.39224e-07
      96.1000   3.33747e-07
      96.2000   3.28343e-07
      96.3000   3.23044e-07
      96.4000   3.17827e-07
      96.5000   3.12689e-07
      96.6000   3.07643e-07
      96.7000   3.02702e-07
      96.8000   2.97828e-07
      96.9000   2.93023e-07
      97.0000   2.88291e-07
      97.1000   2.83656e-07
      97.2000   2.79084e-07
      97.3000   2.74536e-07
      97.4000   2.70020e-07
      97.5000   2.65589e-07
      97.6000   2.61223e-07
      97.7000   2.56937e-07
      97.8000   2.52729e-07
      97.9000   2.48599e-07
      98.0000   2.44528e-07
      98.1000   2.40516e-07
      98.2000   2.36574e-07
      98.3000   2.33050e-07
      98.4000   2.29748e-07
      98.5000   2.26604e-07
      98.6000   2.23508e-07
      98.7000   2.20453e-07
      98.8000   2.17432e-07
      98.9000   2.14446e-07
      99.0000   2.11510e-07
      99.1000   2.08608e-07
      99.2000   2.05729e-07
      99.3000   2.02825e-07
      99.4000   1.99966e-07
      99.5000   1.97144e-07
      99.6000   1.94373e-07
      99.7000   1.91735e-07
      99.8000   1.89212e-07
      99.9000   1.87417e-07
      100.000   1.86723e-07
      100.100   1.85968e-07
      100.200   1.85212e-07
      100.300   1.84457e-07
      100.400   1.83702e-07
      100.500   1.82973e-07
      100.600   1.82239e-07
      100.700   1.81504e-07
      100.800   1.80768e-07
      100.900   1.80031e-07
      101.000   1.79294e-07
      101.100   1.78558e-07
      101.200   1.77824e-07
      101.300   1.77094e-07
      101.400   1.76366e-07
      101.500   1.75580e-07
      101.600   1.74720e-07
      101.700   1.73879e-07
      101.800   1.73047e-07
      101.900   1.72216e-07
      102.000   1.71391e-07
      102.100   1.70594e-07
      102.200   1.69812e-07
      102.300   1.69031e-07
      102.400   1.68253e-07
      102.500   1.67475e-07
      102.600   1.66697e-07
      102.700   1.65919e-07
      102.800   1.65141e-07
      102.900   1.64363e-07
      103.000   1.63585e-07
      103.100   1.62808e-07
      103.200   1.62032e-07
      103.300   1.61256e-07
      103.400   1.60482e-07
      103.500   1.59709e-07
      103.600   1.58938e-07
      103.700   1.58166e-07
      103.800   1.57359e-07
      103.900   1.56510e-07
      104.000   1.55662e-07
      104.100   1.54820e-07
      104.200   1.54001e-07
      104.300   1.53298e-07
      104.400   1.52601e-07
      104.500   1.51907e-07
      104.600   1.51212e-07
      104.700   1.50483e-07
      104.800   1.49738e-07
      104.900   1.48993e-07
      105.000   1.48248e-07
      105.100   1.47527e-07
      105.200   1.46868e-07
      105.300   1.46211e-07
      105.400   1.45554e-07
      105.500   1.44898e-07
      105.600   1.44259e-07
      105.700   1.43625e-07
      105.800   1.42993e-07
      105.900   1.42364e-07
      106.000   1.41758e-07
      106.100   1.41198e-07
      106.200   1.40643e-07
      106.300   1.40089e-07
      106.400   1.39534e-07
      106.500   1.38979e-07
      106.600   1.38424e-07
      106.700   1.37867e-07
      106.800   1.37310e-07
      106.900   1.36752e-07
      107.000   1.36193e-07
      107.100   1.35633e-07
      107.200   1.35074e-07
      107.300   1.34515e-07
      107.400   1.33955e-07
      107.500   1.33396e-07
      107.600   1.32839e-07
      107.700   1.32285e-07
      107.800   1.31735e-07
      107.900   1.31179e-07
      108.000   1.30625e-07
      108.100   1.30072e-07
      108.200   1.29519e-07
      108.300   1.28965e-07
      108.400   1.28400e-07
      108.500   1.27833e-07
      108.600   1.27266e-07
      108.700   1.26697e-07
      108.800   1.26095e-07
      108.900   1.25448e-07
      109.000   1.24801e-07
      109.100   1.24153e-07
      109.200   1.23507e-07
      109.300   1.22863e-07
      109.400   1.22221e-07
      109.500   1.21581e-07
      109.600   1.20944e-07
      109.700   1.20311e-07
      109.800   1.19681e-07
      109.900   1.19055e-07
      110.000   1.18432e-07
      110.100   1.17813e-07
      110.200   1.17197e-07
      110.300   1.16602e-07
      110.400   1.16010e-07
      110.500   1.15420e-07
      110.600   1.14831e-07
      110.700   1.14243e-07
      110.800   1.13655e-07
      110.900   1.13067e-07
      111.000   1.12480e-07
      111.100   1.11893e-07
      111.200   1.11309e-07
      111.300   1.10764e-07
      111.400   1.10220e-07
      111.500   1.09676e-07
      111.600   1.09132e-07
      111.700   1.08590e-07
      111.800   1.08073e-07
      111.900   1.07558e-07
      112.000   1.07043e-07
      112.100   1.06529e-07
      112.200   1.06017e-07
      112.300   1.05484e-07
      112.400   1.04951e-07
      112.500   1.04422e-07
      112.600   1.03896e-07
      112.700   1.03377e-07
      112.800   1.02883e-07
      112.900   1.02335e-07
      113.000   1.01808e-07
      113.100   1.01292e-07
      113.200   1.00765e-07
      113.300   1.00252e-07
      113.400   9.96127e-08
      113.500   9.89429e-08
      113.600   9.83844e-08
      113.700   9.77929e-08
      113.800   9.71278e-08
      113.900   9.65714e-08
      114.000   9.60151e-08
      114.100   9.53828e-08
      114.200   9.47904e-08
      114.300   9.42608e-08
      114.400   9.37164e-08
      114.500   9.31573e-08
      114.600   9.26797e-08
      114.700   9.21447e-08
      114.800   9.16526e-08
      114.900   9.12558e-08
      115.000   9.07941e-08
      115.100   9.02950e-08
      115.200   8.97940e-08
      115.300   8.93785e-08
      115.400   8.88846e-08
      115.500   8.84310e-08
      115.600   8.79448e-08
      115.700   8.74094e-08
      115.800   8.69413e-08
      115.900   8.64383e-08
      116.000   8.59933e-08
      116.100   8.56368e-08
      116.200   8.52726e-08
      116.300   8.48917e-08
      116.400   8.44820e-08
      116.500   8.41356e-08
      116.600   8.37695e-08
      116.700   8.34195e-08
      116.800   8.30515e-08
      116.900   8.26078e-08
      117.000   8.22519e-08
      117.100   8.21445e-08
      117.200   8.22114e-08
      117.300   8.21080e-08
      117.400   8.19936e-08
      117.500   8.18820e-08
      117.600   8.16706e-08
      117.700   8.14204e-08
      117.800   8.11182e-08
      117.900   8.07897e-08
      118.000   8.04116e-08
      118.100   7.99859e-08
      118.200   7.95983e-08
      118.300   7.92269e-08
      118.400   7.86684e-08
      118.500   7.81263e-08
      118.600   7.76711e-08
      118.700   7.71866e-08
      118.800   7.66619e-08
      118.900   7.61673e-08
      119.000   7.55740e-08
      119.100   7.48746e-08
      119.200   7.42971e-08
      119.300   7.38205e-08
      119.400   7.33918e-08
      119.500   7.29852e-08
      119.600   7.25142e-08
      119.700   7.19681e-08
      119.800   7.12723e-08
      119.900   7.03784e-08
      120.000   6.95529e-08
      120.100   6.87827e-08
      120.200   6.82632e-08
      120.300   6.78877e-08
      120.400   6.75111e-08
      120.500   6.69349e-08
      120.600   6.62083e-08
      120.700   6.54356e-08
      120.800   6.46982e-08
      120.900   6.42246e-08
      121.000   6.41590e-08
      121.100   6.40264e-08
      121.200   6.36964e-08
      121.300   6.32221e-08
      121.400   6.26387e-08
      121.500   6.19738e-08
      121.600   6.09886e-08
      121.700   6.01363e-08
      121.800   5.91736e-08
      121.900   5.82007e-08
      122.000   5.71555e-08
      122.100   5.61732e-08
      122.200   5.52061e-08
      122.300   5.45144e-08
      122.400   5.41189e-08
      122.500   5.37870e-08
      122.600   5.34185e-08
      122.700   5.30485e-08
      122.800   5.26133e-08
      122.900   5.22179e-08
      123.000   5.21649e-08
      123.100   5.27042e-08
      123.200   5.32829e-08
      123.300   5.41658e-08
      123.400   5.53002e-08
      123.500   5.67942e-08
      123.600   5.80814e-08
      123.700   5.87590e-08
      123.800   5.92625e-08
      123.900   5.99395e-08
      124.000   6.08977e-08
      124.100   6.27734e-08
      124.200   6.66055e-08
      124.300   7.23433e-08
      124.400   7.78785e-08
      124.500   7.94940e-08
      124.600   7.92934e-08
      124.700   7.88837e-08
      124.800   7.84959e-08
      124.900   7.81072e-08
      125.000   7.77175e-08
      125.100   7.73255e-08
      125.200   7.69340e-08
      125.300   7.65434e-08
      125.400   7.61544e-08
      125.500   7.57669e-08
      125.600   7.53806e-08
      125.700   7.49963e-08
      125.800   7.46131e-08
      125.900   7.42322e-08
      126.000   7.38529e-08
      126.100   7.34755e-08
      126.200   7.30995e-08
      126.300   7.27250e-08
      126.400   7.23517e-08
      126.500   7.19793e-08
      126.600   7.16080e-08
      126.700   7.12376e-08
      126.800   7.08678e-08
      126.900   7.04984e-08
      127.000   7.01280e-08
      127.100   6.97546e-08
      127.200   6.93809e-08
      127.300   6.90066e-08
      127.400   6.86328e-08
      127.500   6.82596e-08
      127.600   6.78873e-08
      127.700   6.75159e-08
      127.800   6.71455e-08
      127.900   6.67762e-08
      128.000   6.64084e-08
      128.100   6.60419e-08
      128.200   6.56769e-08
      128.300   6.53133e-08
      128.400   6.49514e-08
      128.500   6.45907e-08
      128.600   6.42310e-08
      128.700   6.38733e-08
      128.800   6.35166e-08
      128.900   6.31609e-08
      129.000   6.28068e-08
      129.100   6.24525e-08
      129.200   6.20952e-08
      129.300   6.17391e-08
      129.400   6.13842e-08
      129.500   6.10306e-08
      129.600   6.06782e-08
      129.700   6.03269e-08
      129.800   5.99767e-08
      129.900   5.96279e-08
      130.000   5.92804e-08
      130.100   5.89344e-08
      130.200   5.85895e-08
      130.300   5.82463e-08
      130.400   5.79045e-08
      130.500   5.75641e-08
      130.600   5.72250e-08
      130.700   5.68876e-08
      130.800   5.65520e-08
      130.900   5.62178e-08
      131.000   5.58850e-08
      131.100   5.55538e-08
      131.200   5.52238e-08
      131.300   5.48940e-08
      131.400   5.45657e-08
      131.500   5.42388e-08
      131.600   5.39131e-08
      131.700   5.35887e-08
      131.800   5.32654e-08
      131.900   5.29432e-08
      132.000   5.26221e-08
      132.100   5.23020e-08
      132.200   5.19830e-08
      132.300   5.16650e-08
      132.400   5.13482e-08
      132.500   5.10325e-08
      132.600   5.07180e-08
      132.700   5.04047e-08
      132.800   5.00927e-08
      132.900   4.97821e-08
      133.000   4.94729e-08
      133.100   4.91650e-08
      133.200   4.88587e-08
      133.300   4.85534e-08
      133.400   4.82493e-08
      133.500   4.79464e-08
      133.600   4.76449e-08
      133.700   4.73449e-08
      133.800   4.70463e-08
      133.900   4.67492e-08
      134.000   4.64534e-08
      134.100   4.61591e-08
      134.200   4.58661e-08
      134.300   4.55744e-08
      134.400   4.52843e-08
      134.500   4.49956e-08
      134.600   4.47083e-08
      134.700   4.44223e-08
      134.800   4.41379e-08
      134.900   4.38548e-08
      135.000   4.35732e-08
      135.100   4.32930e-08
      135.200   4.30143e-08
      135.300   4.27370e-08
      135.400   4.24611e-08
      135.500   4.21863e-08
      135.600   4.19123e-08
      135.700   4.16396e-08
      135.800   4.13683e-08
      135.900   4.10984e-08
      136.000   4.08299e-08
      136.100   4.05626e-08
      136.200   4.02969e-08
      136.300   4.00322e-08
      136.400   3.97688e-08
      136.500   3.95067e-08
      136.600   3.92457e-08
      136.700   3.89859e-08
      136.800   3.87273e-08
      136.900   3.84699e-08
      137.000   3.82135e-08
      137.100   3.79580e-08
      137.200   3.77037e-08
      137.300   3.74504e-08
      137.400   3.71984e-08
      137.500   3.69474e-08
      137.600   3.67044e-08
      137.700   3.64791e-08
      137.800   3.62674e-08
      137.900   3.60565e-08
      138.000   3.58465e-08
      138.100   3.56375e-08
      138.200   3.54297e-08
      138.300   3.52227e-08
      138.400   3.50170e-08
      138.500   3.48123e-08
      138.600   3.46086e-08
      138.700   3.44060e-08
      138.800   3.42044e-08
      138.900   3.40039e-08
      139.000   3.38045e-08
      139.100   3.36060e-08
      139.200   3.34085e-08
      139.300   3.32118e-08
      139.400   3.30160e-08
      139.500   3.28211e-08
      139.600   3.26268e-08
      139.700   3.24334e-08
      139.800   3.22407e-08
      139.900   3.20486e-08
      140.000   3.18570e-08
      140.100   3.16660e-08
      140.200   3.14756e-08
      140.300   3.12861e-08
      140.400   3.10972e-08
      140.500   3.09090e-08
      140.600   3.07215e-08
      140.700   3.05347e-08
      140.800   3.03488e-08
      140.900   3.01635e-08
      141.000   2.99788e-08
      141.100   2.97950e-08
      141.200   2.96121e-08
      141.300   2.94301e-08
      141.400   2.92487e-08
      141.500   2.90684e-08
      141.600   2.88888e-08
      141.700   2.87100e-08
      141.800   2.85322e-08
      141.900   2.83554e-08
      142.000   2.81793e-08
      142.100   2.80260e-08
      142.200   2.79359e-08
      142.300   2.78998e-08
      142.400   2.78632e-08
      142.500   2.78260e-08
      142.600   2.77882e-08
      142.700   2.77499e-08
      142.800   2.77111e-08
      142.900   2.76716e-08
      143.000   2.76316e-08
      143.100   2.75908e-08
      143.200   2.75496e-08
      143.300   2.75075e-08
      143.400   2.74651e-08
      143.500   2.74222e-08
      143.600   2.73787e-08
      143.700   2.73347e-08
      143.800   2.72903e-08
      143.900   2.72455e-08
      144.000   2.72002e-08
      144.100   2.71545e-08
      144.200   2.71086e-08
      144.300   2.70623e-08
      144.400   2.70215e-08
      144.500   2.70590e-08
      144.600   2.71210e-08
      144.700   2.71853e-08
      144.800   2.72488e-08
      144.900   2.73116e-08
      145.000   2.73738e-08
      145.100   2.74354e-08
      145.200   2.74962e-08
      145.300   2.75562e-08
      145.400   2.76154e-08
      145.500   2.76737e-08
      145.600   2.77312e-08
      145.700   2.77875e-08
      145.800   2.78432e-08
      145.900   2.78978e-08
      146.000   2.79515e-08
      146.100   2.80041e-08
      146.200   2.80558e-08
      146.300   2.81065e-08
      146.400   2.81560e-08
      146.500   2.82044e-08
      146.600   2.82518e-08
      146.700   2.82983e-08
      146.800   2.83420e-08
      146.900   2.83822e-08
      147.000   2.84214e-08
      147.100   2.84595e-08
      147.200   2.84968e-08
      147.300   2.85332e-08
      147.400   2.85689e-08
      147.500   2.86037e-08
      147.600   2.86378e-08
      147.700   2.86711e-08
      147.800   2.87037e-08
      147.900   2.87355e-08
      148.000   2.87666e-08
      148.100   2.87970e-08
      148.200   2.88270e-08
      148.300   2.88563e-08
      148.400   2.88849e-08
      148.500   2.89128e-08
      148.600   2.89401e-08
      148.700   2.89666e-08
      148.800   2.89923e-08
      148.900   2.90174e-08
      149.000   2.90417e-08
      149.100   2.90651e-08
      149.200   2.90876e-08
      149.300   2.91092e-08
      149.400   2.91299e-08
      149.500   2.91496e-08
      149.600   2.91684e-08
      149.700   2.91861e-08
      149.800   2.92029e-08
      149.900   2.92189e-08
      150.000   2.92340e-08
      150.100   2.92481e-08
      150.200   2.92610e-08
      150.300   2.92730e-08
      150.400   2.92841e-08
      150.500   2.92943e-08
      150.600   2.93034e-08
      150.700   2.93118e-08
      150.800   2.93190e-08
      150.900   2.93253e-08
      151.000   2.93305e-08
      151.100   2.93350e-08
      151.200   2.93385e-08
      151.300   2.93411e-08
      151.400   2.93429e-08
      151.500   2.93437e-08
      151.600   2.93443e-08
      151.700   2.93449e-08
      151.800   2.93448e-08
      151.900   2.93436e-08
      152.000   2.93416e-08
      152.100   2.93387e-08
      152.200   2.93352e-08
      152.300   2.93305e-08
      152.400   2.93251e-08
      152.500   2.93190e-08
      152.600   2.93120e-08
      152.700   2.93041e-08
      152.800   2.92954e-08
      152.900   2.92860e-08
      153.000   2.92758e-08
      153.100   2.92649e-08
      153.200   2.92531e-08
      153.300   2.92407e-08
      153.400   2.92275e-08
      153.500   2.92135e-08
      153.600   2.91987e-08
      153.700   2.91835e-08
      153.800   2.91673e-08
      153.900   2.91504e-08
      154.000   2.91252e-08
      154.100   2.90939e-08
      154.200   2.90627e-08
      154.300   2.90308e-08
      154.400   2.89981e-08
      154.500   2.89645e-08
      154.600   2.89303e-08
      154.700   2.88952e-08
      154.800   2.88594e-08
      154.900   2.88227e-08
      155.000   2.87851e-08
      155.100   2.87470e-08
      155.200   2.87076e-08
      155.300   2.86675e-08
      155.400   2.86266e-08
      155.500   2.85848e-08
      155.600   2.85420e-08
      155.700   2.84984e-08
      155.800   2.84540e-08
      155.900   2.84085e-08
      156.000   2.83623e-08
      156.100   2.83150e-08
      156.200   2.82670e-08
      156.300   2.82181e-08
      156.400   2.81684e-08
      156.500   2.81141e-08
      156.600   2.80495e-08
      156.700   2.79837e-08
      156.800   2.79171e-08
      156.900   2.78499e-08
      157.000   2.77822e-08
      157.100   2.77136e-08
      157.200   2.76446e-08
      157.300   2.75751e-08
      157.400   2.75051e-08
      157.500   2.74344e-08
      157.600   2.73632e-08
      157.700   2.72917e-08
      157.800   2.72196e-08
      157.900   2.71468e-08
      158.000   2.70736e-08
      158.100   2.70001e-08
      158.200   2.69259e-08
      158.300   2.68512e-08
      158.400   2.67762e-08
      158.500   2.67007e-08
      158.600   2.66246e-08
      158.700   2.65478e-08
      158.800   2.64709e-08
      158.900   2.63931e-08
      159.000   2.63149e-08
      159.100   2.62360e-08
      159.200   2.61566e-08
      159.300   2.60766e-08
      159.400   2.59960e-08
      159.500   2.59149e-08
      159.600   2.58333e-08
      159.700   2.57511e-08
      159.800   2.56683e-08
      159.900   2.55850e-08
      160.000   2.55012e-08
      160.100   2.54167e-08
      160.200   2.53318e-08
      160.300   2.52463e-08
      160.400   2.51605e-08
      160.500   2.50741e-08
      160.600   2.49874e-08
      160.700   2.49003e-08
      160.800   2.48127e-08
      160.900   2.47247e-08
      161.000   2.46364e-08
      161.100   2.45479e-08
      161.200   2.44590e-08
      161.300   2.43698e-08
      161.400   2.42804e-08
      161.500   2.41908e-08
      161.600   2.41009e-08
      161.700   2.40105e-08
      161.800   2.39199e-08
      161.900   2.38292e-08
      162.000   2.37382e-08
      162.100   2.36471e-08
      162.200   2.35558e-08
      162.300   2.34643e-08
      162.400   2.33726e-08
      162.500   2.32807e-08
      162.600   2.31885e-08
      162.700   2.30963e-08
      162.800   2.30036e-08
      162.900   2.29108e-08
      163.000   2.28177e-08
      163.100   2.27244e-08
      163.200   2.26307e-08
      163.300   2.25368e-08
      163.400   2.24426e-08
      163.500   2.23481e-08
      163.600   2.22532e-08
      163.700   2.21581e-08
      163.800   2.20628e-08
      163.900   2.19672e-08
      164.000   2.18712e-08
      164.100   2.17751e-08
      164.200   2.16786e-08
      164.300   2.15832e-08
      164.400   2.14876e-08
      164.500   2.13918e-08
      164.600   2.12959e-08
      164.700   2.11997e-08
      164.800   2.11034e-08
      164.900   2.10069e-08
      165.000   2.09104e-08
      165.100   2.08139e-08
      165.200   2.07172e-08
      165.300   2.06205e-08
      165.400   2.05240e-08
      165.500   2.04273e-08
      165.600   2.03307e-08
      165.700   2.02342e-08
      165.800   2.01378e-08
      165.900   2.00414e-08
      166.000   1.99452e-08
      166.100   1.98490e-08
      166.200   1.97531e-08
      166.300   1.96573e-08
      166.400   1.95615e-08
      166.500   1.94659e-08
      166.600   1.93705e-08
      166.700   1.92752e-08
      166.800   1.91784e-08
      166.900   1.90741e-08
      167.000   1.89630e-08
      167.100   1.88518e-08
      167.200   1.87409e-08
      167.300   1.86302e-08
      167.400   1.85198e-08
      167.500   1.84096e-08
      167.600   1.82996e-08
      167.700   1.81899e-08
      167.800   1.80804e-08
      167.900   1.79710e-08
      168.000   1.78618e-08
      168.100   1.77528e-08
      168.200   1.76440e-08
      168.300   1.75353e-08
      168.400   1.74268e-08
      168.500   1.73186e-08
      168.600   1.72104e-08
      168.700   1.71024e-08
      168.800   1.69946e-08
      168.900   1.68870e-08
      169.000   1.67796e-08
      169.100   1.66724e-08
      169.200   1.65655e-08
      169.300   1.64587e-08
      169.400   1.63521e-08
      169.500   1.62413e-08
      169.600   1.61110e-08
      169.700   1.59611e-08
      169.800   1.58108e-08
      169.900   1.56611e-08
      170.000   1.55123e-08
      170.100   1.53643e-08
      170.200   1.52171e-08
      170.300   2.75044e-08
      170.400   1.36409e-07
      170.500   4.43388e-07
      170.600   9.26293e-07
      170.700   1.45301e-06
      170.800   1.75357e-06
      170.900   1.79644e-06
      171.000   1.76918e-06
      171.100   1.74213e-06
      171.200   1.71528e-06
      171.300   1.68863e-06
      171.400   1.66220e-06
      171.500   1.63598e-06
      171.600   1.60999e-06
      171.700   1.58425e-06
      171.800   1.55878e-06
      171.900   1.53361e-06
      172.000   1.50877e-06
      172.100   1.48426e-06
      172.200   1.46012e-06
      172.300   1.43634e-06
      172.400   1.41277e-06
      172.500   1.38954e-06
      172.600   1.36670e-06
      172.700   1.34426e-06
      172.800   1.32219e-06
      172.900   1.30050e-06
      173.000   1.27920e-06
      173.100   1.25827e-06
      173.200   1.23770e-06
      173.300   1.21749e-06
      173.400   1.19763e-06
      173.500   1.17813e-06
      173.600   1.15897e-06
      173.700   1.14014e-06
      173.800   1.12164e-06
      173.900   1.10346e-06
      174.000   1.08558e-06
      174.100   1.06801e-06
      174.200   1.05074e-06
      174.300   1.03375e-06
      174.400   1.01704e-06
      174.500   1.00061e-06
      174.600   9.84435e-07
      174.700   9.68528e-07
      174.800   9.52875e-07
      174.900   9.37465e-07
      175.000   9.22288e-07
      175.100   9.07346e-07
      175.200   8.92661e-07
      175.300   8.78194e-07
      175.400   8.63946e-07
      175.500   8.49924e-07
      175.600   8.36116e-07
      175.700   8.22523e-07
      175.800   8.09135e-07
      175.900   7.95957e-07
      176.000   7.82982e-07
      176.100   7.70213e-07
      176.200   7.57639e-07
      176.300   7.45256e-07
      176.400   7.33072e-07
      176.500   7.21072e-07
      176.600   7.09257e-07
      176.700   6.97624e-07
      176.800   6.86172e-07
      176.900   6.74897e-07
      177.000   6.63793e-07
      177.100   6.52856e-07
      177.200   6.42091e-07
      177.300   6.31490e-07
      177.400   6.21044e-07
      177.500   6.10754e-07
      177.600   6.00621e-07
      177.700   5.90642e-07
      177.800   5.80812e-07
      177.900   5.71121e-07
      178.000   5.61608e-07
      178.100   5.52239e-07
      178.200   5.43008e-07
      178.300   5.33915e-07
      178.400   5.24963e-07
      178.500   5.16145e-07
      178.600   5.07460e-07
      178.700   4.98903e-07
      178.800   4.90482e-07
      178.900   4.82190e-07
      179.000   4.74026e-07
      179.100   4.65985e-07
      179.200   4.58072e-07
      179.300   4.50284e-07
      179.400   4.42619e-07
      179.500   4.35079e-07
      179.600   4.27658e-07
      179.700   4.20362e-07
      179.800   4.13181e-07
      179.900   4.06118e-07
      180.000   3.99170e-07
      180.100   3.92338e-07
      180.200   3.85621e-07
      180.300   3.79015e-07
      180.400   3.72519e-07
      180.500   3.66133e-07
      180.600   3.59855e-07
      180.700   3.53683e-07
      180.800   3.47526e-07
      180.900   3.41370e-07
      181.000   3.35295e-07
      181.100   3.29328e-07
      181.200   3.23464e-07
      181.300   3.17703e-07
      181.400   3.12046e-07
      181.500   3.06487e-07
      181.600   3.01026e-07
      181.700   2.95660e-07
      181.800   2.90389e-07
      181.900   2.85211e-07
      182.000   2.80127e-07
      182.100   2.75131e-07
      182.200   2.70227e-07
      182.300   2.65408e-07
      182.400   2.60677e-07
      182.500   2.56029e-07
      182.600   2.51462e-07
      182.700   2.46977e-07
      182.800   2.42573e-07
      182.900   2.38246e-07
      183.000   2.33997e-07
      183.100   2.29825e-07
      183.200   2.25728e-07
      183.300   2.21702e-07
      183.400   2.17748e-07
      183.500   2.13866e-07
      183.600   2.10053e-07
      183.700   2.06165e-07
      183.800   2.01793e-07
      183.900   1.97409e-07
      184.000   1.93119e-07
      184.100   1.88920e-07
      184.200   1.84812e-07
      184.300   1.80788e-07
      184.400   1.76851e-07
      184.500   1.72997e-07
      184.600   1.69222e-07
      184.700   1.65527e-07
      184.800   1.61909e-07
      184.900   1.58366e-07
      185.000   1.54897e-07
      185.100   1.51499e-07
      185.200   1.48172e-07
      185.300   1.44915e-07
      185.400   1.41725e-07
      185.500   1.38601e-07
      185.600   1.35541e-07
      185.700   1.32543e-07
      185.800   1.29610e-07
      185.900   1.26739e-07
      186.000   1.23926e-07
      186.100   1.21170e-07
      186.200   1.18472e-07
      186.300   1.15830e-07
      186.400   1.13241e-07
      186.500   1.10706e-07
      186.600   1.08223e-07
      186.700   1.05791e-07
      186.800   1.03409e-07
      186.900   1.01075e-07
      187.000   9.87902e-08
      187.100   9.65526e-08
      187.200   9.43618e-08
      187.300   9.22184e-08
      187.400   9.01200e-08
      187.500   8.80660e-08
      187.600   8.60547e-08
      187.700   8.40860e-08
      187.800   8.21583e-08
      187.900   8.02711e-08
      188.000   7.84248e-08
      188.100   7.66175e-08
      188.200   7.48481e-08
      188.300   7.31162e-08
      188.400   7.14213e-08
      188.500   6.97634e-08
      188.600   6.81421e-08
      188.700   6.65566e-08
      188.800   6.50059e-08
      188.900   6.34895e-08
      189.000   6.20057e-08
      189.100   6.05538e-08
      189.200   5.91339e-08
      189.300   5.77455e-08
      189.400   5.63880e-08
      189.500   5.50602e-08
      189.600   5.37609e-08
      189.700   5.24851e-08
      189.800   5.12017e-08
      189.900   4.99501e-08
      190.000   4.87269e-08
      190.100   4.75326e-08
      190.200   4.63660e-08
      190.300   4.52267e-08
      190.400   4.41134e-08
      190.500   4.30262e-08
      190.600   4.19651e-08
      190.700   4.09285e-08
      190.800   3.99163e-08
      190.900   3.89282e-08
      191.000   3.79639e-08
      191.100   3.70237e-08
      191.200   3.61055e-08
      191.300   3.52090e-08
      191.400   3.43339e-08
      191.500   3.34794e-08
      191.600   3.26453e-08
      191.700   3.18312e-08
      191.800   3.10360e-08
      191.900   3.02601e-08
      192.000   2.95031e-08
      192.100   2.87649e-08
      192.200   2.80451e-08
      192.300   2.73424e-08
      192.400   2.66562e-08
      192.500   2.59866e-08
      192.600   2.53332e-08
      192.700   2.46865e-08
      192.800   2.40086e-08
      192.900   2.32647e-08
      193.000   2.25427e-08
      193.100   2.18424e-08
      193.200   2.11633e-08
      193.300   2.05042e-08
      193.400   1.98646e-08
      193.500   1.92436e-08
      193.600   1.86406e-08
      193.700   1.80553e-08
      193.800   1.74875e-08
      193.900   1.69366e-08
      194.000   1.64018e-08
      194.100   1.58836e-08
      194.200   1.53817e-08
      194.300   1.48947e-08
      194.400   1.44221e-08
      194.500   1.39635e-08
      194.600   1.35186e-08
      194.700   1.30871e-08
      194.800   1.26687e-08
      194.900   1.22626e-08
      195.000   1.18690e-08
      195.100   1.14881e-08
      195.200   1.11188e-08
      195.300   1.07607e-08
      195.400   1.04133e-08
      195.500   1.00764e-08
      195.600   9.74957e-09
      195.700   9.43275e-09
      195.800   9.12550e-09
      195.900   8.82755e-09
      196.000   8.53619e-09
      196.100   8.25378e-09
      196.200   7.98008e-09
      196.300   7.71481e-09
      196.400   7.45769e-09
      196.500   7.20841e-09
      196.600   6.96697e-09
      196.700   6.73298e-09
      196.800   6.50658e-09
      196.900   6.28759e-09
      197.000   6.07548e-09
      197.100   5.86998e-09
      197.200   5.67090e-09
      197.300   5.47797e-09
      197.400   5.29100e-09
      197.500   5.10997e-09
      197.600   4.93467e-09
      197.700   4.76547e-09
      197.800   4.60171e-09
      197.900   4.44301e-09
      198.000   4.28939e-09
      198.100   4.14068e-09
      198.200   3.99667e-09
      198.300   3.85720e-09
      198.400   3.72232e-09
      198.500   3.59214e-09
      198.600   3.46631e-09
      198.700   3.34452e-09
      198.800   3.22665e-09
      198.900   3.11265e-09
      199.000   3.00432e-09
      199.100   2.90540e-09
      199.200   2.81770e-09
      199.300   2.73268e-09
      199.400   2.65014e-09
      199.500   2.56995e-09
      199.600   2.49200e-09
      199.700   2.41625e-09
      199.800   2.34265e-09
      199.900   2.27117e-09
      200.000   2.20171e-09
      200.100   2.13450e-09
      200.200   2.06917e-09
      200.300   2.00575e-09
      200.400   1.94417e-09
      200.500   1.88437e-09
      200.600   1.82631e-09
      200.700   1.76995e-09
      200.800   1.71521e-09
      200.900   1.66207e-09
      201.000   1.61057e-09
      201.100   1.56060e-09
      201.200   1.51209e-09
      201.300   1.46502e-09
      201.400   1.41936e-09
      201.500   1.37500e-09
      201.600   1.33198e-09
      201.700   1.29023e-09
      201.800   1.24970e-09
      201.900   1.21043e-09
      202.000   1.17238e-09
      202.100   1.13543e-09
      202.200   1.09961e-09
      202.300   1.06557e-09
      202.400   1.03365e-09
      202.500   1.00286e-09
      202.600   9.72922e-10
      202.700   9.43832e-10
      202.800   9.15592e-10
      202.900   8.88183e-10
      203.000   8.61568e-10
      203.100   8.35721e-10
      203.200   8.10607e-10
      203.300   7.86206e-10
      203.400   7.62511e-10
      203.500   7.39508e-10
      203.600   7.17167e-10
      203.700   6.95472e-10
      203.800   6.74443e-10
      203.900   6.54036e-10
      204.000   6.34222e-10
      204.100   6.14992e-10
      204.200   5.96331e-10
      204.300   5.78208e-10
      204.400   5.60626e-10
      204.500   5.43560e-10
      204.600   5.26992e-10
      204.700   5.10918e-10
      204.800   4.95341e-10
      204.900   4.80230e-10
      205.000   4.65569e-10
      205.100   4.51348e-10
      205.200   4.37541e-10
      205.300   4.24153e-10
      205.400   4.11161e-10
      205.500   3.98551e-10
      205.600   3.86395e-10
      205.700   3.74677e-10
      205.800   3.63305e-10
      205.900   3.52279e-10
      206.000   3.41593e-10
      206.100   3.31213e-10
      206.200   3.21136e-10
      206.300   3.11359e-10
      206.400   3.01872e-10
      206.500   2.92657e-10
      206.600   2.83717e-10
      206.700   2.75040e-10
      206.800   2.66613e-10
      206.900   2.58436e-10
      207.000   2.50504e-10
      207.100   2.42809e-10
      207.200   2.35346e-10
      207.300   2.28104e-10
      207.400   2.21071e-10
      207.500   2.14246e-10
      207.600   2.07624e-10
      207.700   2.01193e-10
      207.800   1.94954e-10
      207.900   1.88900e-10
      208.000   1.83024e-10
      208.100   1.77321e-10
      208.200   1.71791e-10
      208.300   1.66422e-10
      208.400   1.61220e-10
      208.500   1.56175e-10
      208.600   1.51278e-10
      208.700   1.46525e-10
      208.800   1.41910e-10
      208.900   1.37196e-10
      209.000   1.32317e-10
      209.100   1.27603e-10
      209.200   1.23048e-10
      209.300   1.18645e-10
      209.400   1.14394e-10
      209.500   1.10286e-10
      209.600   1.06316e-10
      209.700   1.02485e-10
      209.800   9.87923e-11
      209.900   9.52219e-11
      210.000   9.17752e-11
      210.100   8.84474e-11
      210.200   8.52331e-11
      210.300   8.21305e-11
      210.400   7.91350e-11
      210.500   7.62424e-11
      210.600   7.34505e-11
      210.700   7.07564e-11
      210.800   6.81554e-11
      210.900   6.56450e-11
      211.000   6.32223e-11
      211.100   6.08854e-11
      211.200   5.86298e-11
      211.300   5.64568e-11
      211.400   5.43620e-11
      211.500   5.23394e-11
      211.600   5.03887e-11
      211.700   4.85078e-11
      211.800   4.66922e-11
      211.900   4.49412e-11
      212.000   4.32535e-11
      212.100   4.16257e-11
      212.200   4.00169e-11
      212.300   3.78877e-11
      212.400   3.55195e-11
      212.500   3.32894e-11
      212.600   3.11914e-11
      212.700   2.92166e-11
      212.800   2.73589e-11
      212.900   2.56128e-11
      213.000   2.39719e-11
      213.100   2.24323e-11
      213.200   2.09851e-11
      213.300   1.96263e-11
      213.400   1.83495e-11
      213.500   1.71508e-11
      213.600   1.60256e-11
      213.700   1.49703e-11
      213.800   1.39797e-11
      213.900   1.30515e-11
      214.000   1.21811e-11
      214.100   1.13650e-11
      214.200   1.06010e-11
      214.300   9.88509e-12
      214.400   9.21456e-12
      214.500   8.58699e-12
      214.600   8.00004e-12
      214.700   7.45079e-12
      214.800   6.93709e-12
      214.900   6.45716e-12
      215.000   6.00824e-12
      215.100   5.58913e-12
      215.200   5.19828e-12
      215.300   4.83363e-12
      215.400   4.49291e-12
      215.500   4.17499e-12
      215.600   3.87862e-12
      215.700   3.60197e-12
      215.800   3.34403e-12
      215.900   3.10375e-12
      216.000   2.87972e-12
      216.100   2.67100e-12
      216.200   2.47672e-12
      216.300   2.29587e-12
      216.400   2.12755e-12
      216.500   1.97088e-12
      216.600   1.82523e-12
      216.700   1.68983e-12
      216.800   1.56393e-12
      216.900   1.44700e-12
      217.000   1.33838e-12
      217.100   1.23746e-12
      217.200   1.14385e-12
      217.300   1.05695e-12
      217.400   9.76314e-13
      217.500   9.01580e-13
      217.600   8.32255e-13
      217.700   7.68004e-13
      217.800   7.08476e-13
      217.900   6.53407e-13
      218.000   6.02448e-13
      218.100   5.55286e-13
      218.200   5.11653e-13
      218.300   4.71309e-13
      218.400   4.33988e-13
      218.500   3.99472e-13
      218.600   3.67601e-13
      218.700   3.38139e-13
      218.800   3.10932e-13
      218.900   2.85832e-13
      219.000   2.62651e-13
      219.100   2.41460e-13
      219.200   2.23508e-13
      219.300   2.09245e-13
      219.400   1.95850e-13
      219.500   1.83284e-13
      219.600   1.71492e-13
      219.700   1.60428e-13
      219.800   1.50054e-13
      219.900   1.40323e-13
      220.000   1.31196e-13
      220.100   1.22640e-13
      220.200   1.14622e-13
      220.300   1.07110e-13
      220.400   1.00068e-13
      220.500   9.34735e-14
      220.600   8.72991e-14
      220.700   8.15147e-14
      220.800   7.60969e-14
      220.900   7.10299e-14
      221.000   6.62856e-14
      221.100   6.18449e-14
      221.200   5.76932e-14
      221.300   5.38088e-14
      221.400   5.01755e-14
      221.500   4.67796e-14
      221.600   4.36044e-14
      221.700   4.06359e-14
      221.800   3.78618e-14
      221.900   3.52712e-14
      222.000   3.28514e-14
      222.100   3.05901e-14
      222.200   2.84804e-14
      222.300   2.65101e-14
      222.400   2.46708e-14
      222.500   2.29541e-14
      222.600   2.13537e-14
      222.700   1.98599e-14
      222.800   1.84669e-14
      222.900   1.71690e-14
      223.000   1.59583e-14
      223.100   1.48298e-14
      223.200   1.37781e-14
      223.300   1.27988e-14
      223.400   1.18864e-14
      223.500   1.10362e-14
      223.600   1.02454e-14
      223.700   9.50876e-15
      223.800   8.82303e-15
      223.900   8.18575e-15
      224.000   7.59222e-15
      224.100   7.04024e-15
      224.200   6.52699e-15
      224.300   6.05004e-15
      224.400   5.60646e-15
      224.500   5.19432e-15
      224.600   4.81127e-15
      224.700   4.45583e-15
      224.800   4.12559e-15
      224.900   3.81883e-15
      225.000   3.53421e-15
      225.100   3.26998e-15
      225.200   3.02480e-15
      225.300   2.79755e-15
      225.400   2.58664e-15
      225.500   2.39105e-15
      225.600   2.20976e-15
      225.700   2.04182e-15
      225.800   1.88614e-15
      225.900   1.74192e-15
      226.000   1.60844e-15
      226.100   1.48476e-15
      226.200   1.37025e-15
      226.300   1.26444e-15
      226.400   1.16659e-15
      226.500   1.07600e-15
      226.600   9.92185e-16
      226.700   9.14734e-16
      226.800   8.43078e-16
      226.900   7.76823e-16
      227.000   7.15648e-16
      227.100   6.59105e-16
      227.200   6.06882e-16
      227.300   5.58668e-16
      227.400   5.14161e-16
      227.500   4.73076e-16
      227.600   4.35170e-16
      227.700   4.00202e-16
      227.800   3.67960e-16
      227.900   3.38234e-16
      228.000   3.10829e-16
      228.100   2.85574e-16
      228.200   2.62302e-16
      228.300   2.40869e-16
      228.400   2.21137e-16
      228.500   2.02965e-16
      228.600   1.86243e-16
      228.700   1.70855e-16
      228.800   1.56696e-16
      228.900   1.43682e-16
      229.000   1.31709e-16
      229.100   1.20704e-16
      229.200   1.10593e-16
      229.300   1.01303e-16
      229.400   9.27697e-17
      229.500   8.49333e-17
      229.600   7.77390e-17
      229.700   7.11368e-17
      229.800   6.50772e-17
      229.900   5.95386e-17
      230.000   5.46147e-17
      230.100   5.03754e-17
      230.200   4.64561e-17
      230.300   4.28356e-17
      230.400   3.94880e-17
      230.500   3.63974e-17
      230.600   3.35457e-17
      230.700   3.09105e-17
      230.800   2.84772e-17
      230.900   2.62309e-17
      231.000   2.41559e-17
      231.100   2.22412e-17
      231.200   2.04738e-17
      231.300   1.88435e-17
      231.400   1.73402e-17
      231.500   1.59527e-17
      231.600   1.46731e-17
      231.700   1.34938e-17
      231.800   1.24069e-17
      231.900   1.14052e-17
      232.000   1.04821e-17
      232.100   9.63168e-18
      232.200   8.84854e-18
      232.300   8.12743e-18
      232.400   7.46342e-18
      232.500   6.85208e-18
      232.600   6.28970e-18
      232.700   5.77227e-18
      232.800   5.29624e-18
      232.900   4.85845e-18
      233.000   4.45586e-18
      233.100   4.08588e-18
      233.200   3.74564e-18
      233.300   3.43309e-18
      233.400   3.14600e-18
      233.500   2.88276e-18
      233.600   2.64131e-18
      233.700   2.41949e-18
      233.800   2.21284e-18
      233.900   2.02302e-18
      234.000   1.84898e-18
      234.100   1.68960e-18
      234.200   1.54362e-18
      234.300   1.40993e-18
      234.400   1.28752e-18
      234.500   1.17548e-18
      234.600   1.07293e-18
      234.700   9.79122e-19
      234.800   8.93329e-19
      234.900   8.14840e-19
      235.000   7.43066e-19
      235.100   6.77472e-19
      235.200   6.17522e-19
      235.300   5.62740e-19
      235.400   5.12701e-19
      235.500   4.66995e-19
      235.600   4.25274e-19
      235.700   3.87211e-19
      235.800   3.52592e-19
      235.900   3.20993e-19
      236.000   2.92158e-19
      236.100   2.65846e-19
      236.200   2.41847e-19
      236.300   2.19957e-19
      236.400   2.00005e-19
      236.500   1.81815e-19
      236.600   1.65241e-19
      236.700   1.50140e-19
      236.800   1.36383e-19
      236.900   1.23857e-19
      237.000   1.12454e-19
      237.100   1.02071e-19
      237.200   9.26273e-20
      237.300   8.40328e-20
      237.400   7.62497e-20
      237.500   6.94750e-20
      237.600   6.38174e-20
      237.700   5.86261e-20
      237.800   5.38469e-20
      237.900   4.94480e-20
      238.000   4.54017e-20
      238.100   4.16772e-20
      238.200   3.82516e-20
      238.300   3.51006e-20
      238.400   3.22031e-20
      238.500   2.95388e-20
      238.600   2.70899e-20
      238.700   2.48398e-20
      238.800   2.27717e-20
      238.900   2.08717e-20
      239.000   1.91263e-20
      239.100   1.75235e-20
      239.200   1.60522e-20
      239.300   1.47051e-20
      239.400   1.34716e-20
      239.500   1.23389e-20
      239.600   1.12990e-20
      239.700   1.03451e-20
      239.800   9.46946e-21
      239.900   8.66620e-21
      240.000   7.92953e-21
      240.100   7.25375e-21
      240.200   6.63415e-21
      240.300   6.06632e-21
      240.400   5.54569e-21
      240.500   5.06893e-21
      240.600   4.63209e-21
      240.700   4.23203e-21
      240.800   3.86673e-21
      240.900   3.53316e-21
      241.000   3.22769e-21
      241.100   2.94800e-21
      241.200   2.69197e-21
      241.300   2.46902e-21
      241.400   2.28488e-21
      241.500   2.12483e-21
      241.600   1.97574e-21
      241.700   1.83685e-21
      241.800   1.70750e-21
      241.900   1.58705e-21
      242.000   1.47491e-21
      242.100   1.37052e-21
      242.200   1.27365e-21
      242.300   1.18367e-21
      242.400   1.09989e-21
      242.500   1.02190e-21
      242.600   9.49324e-22
      242.700   8.81768e-22
      242.800   8.18925e-22
      242.900   7.60454e-22
      243.000   7.06062e-22
      243.100   6.55476e-22
      243.200   6.08413e-22
      243.300   5.64660e-22
      243.400   5.23997e-22
      243.500   4.86294e-22
      243.600   4.51355e-22
      243.700   4.18854e-22
      243.800   3.88636e-22
      243.900   3.60562e-22
      244.000   3.34458e-22
      244.100   3.10202e-22
      244.200   2.87668e-22
      244.300   2.66726e-22
      244.400   2.47279e-22
      244.500   2.29215e-22
      244.600   2.12439e-22
      244.700   1.96898e-22
      244.800   1.82526e-22
      244.900   1.69183e-22
      245.000   1.56786e-22
      245.100   1.45277e-22
      245.200   1.34599e-22
      245.300   1.24686e-22
      245.400   1.15483e-22
      245.500   1.06947e-22
      245.600   9.90263e-23
      245.700   9.16765e-23
      245.800   8.48578e-23
      245.900   7.85675e-23
      246.000   7.27450e-23
      246.100   6.73424e-23
      246.200   6.23321e-23
      246.300   5.76849e-23
      246.400   5.33774e-23
      246.500   4.93831e-23
      246.600   4.56805e-23
      246.700   4.22497e-23
      246.800   3.90690e-23
      246.900   3.61223e-23
      247.000   3.34060e-23
      247.100   3.08952e-23
      247.200   2.85688e-23
      247.300   2.64137e-23
      247.400   2.44168e-23
      247.500   2.25672e-23
      247.600   2.08545e-23
      247.700   1.92685e-23
      247.800   1.78002e-23
      247.900   1.64409e-23
      248.000   1.51832e-23
      248.100   1.40289e-23
      248.200   1.29598e-23
      248.300   1.19703e-23
      248.400   1.10544e-23
      248.500   1.02067e-23
      248.600   9.42235e-24
      248.700   8.69704e-24
      248.800   8.02611e-24
      248.900   7.40576e-24
      249.000   6.83216e-24
      249.100   6.30542e-24
      249.200   5.87158e-24
      249.300   5.52126e-24
      249.400   5.20420e-24
      249.500   4.90500e-24
      249.600   4.62256e-24
      249.700   4.35605e-24
      249.800   4.10461e-24
      249.900   3.86730e-24
      250.000   3.64353e-24
      250.100   3.43316e-24
      250.200   3.23500e-24
      250.300   3.04821e-24
      250.400   2.87198e-24
      250.500   2.70581e-24
      250.600   2.54910e-24
      250.700   2.40129e-24
      250.800   2.26191e-24
      250.900   2.13048e-24
      251.000   2.00657e-24
      251.100   1.88974e-24
      251.200   1.77978e-24
      251.300   1.67640e-24
      251.400   1.57890e-24
      251.500   1.48695e-24
      251.600   1.40030e-24
      251.700   1.31864e-24
      251.800   1.24165e-24
      251.900   1.16908e-24
      252.000   1.10067e-24
      252.100   1.03624e-24
      252.200   9.75494e-25
      252.300   9.18346e-25
      252.400   8.64598e-25
      252.500   8.13978e-25
      252.600   7.66260e-25
      252.700   7.21306e-25
      252.800   6.78952e-25
      252.900   6.39040e-25
      253.000   6.01443e-25
      253.100   5.66031e-25
      253.200   5.35189e-25
      253.300   5.16704e-25
      253.400   5.01297e-25
      253.500   4.86366e-25
      253.600   4.71888e-25
      253.700   4.57836e-25
      253.800   4.44205e-25
      253.900   4.30976e-25
      254.000   4.18138e-25
      254.100   4.05678e-25
      254.200   3.93588e-25
      254.300   3.81855e-25
      254.400   3.70470e-25
      254.500   3.59425e-25
      254.600   3.48701e-25
      254.700   3.38301e-25
      254.800   3.28223e-25
      254.900   3.18439e-25
      255.000   3.08948e-25
      255.100   2.99732e-25
      255.200   2.90792e-25
      255.300   2.82116e-25
      255.400   2.73696e-25
      255.500   2.65528e-25
      255.600   2.57600e-25
      255.700   2.49906e-25
      255.800   2.42440e-25
      255.900   2.35195e-25
      256.000   2.28162e-25
      256.100   2.21346e-25
      256.200   2.14732e-25
      256.300   2.08314e-25
      256.400   2.02091e-25
      256.500   1.96048e-25
      256.600   1.90185e-25
      256.700   1.84496e-25
      256.800   1.78975e-25
      256.900   1.73616e-25
      257.000   1.68417e-25
      257.100   1.63372e-25
      257.200   1.58478e-25
      257.300   1.53728e-25
      257.400   1.49173e-25
      257.500   1.44771e-25
      257.600   1.40503e-25
      257.700   1.36361e-25
      257.800   1.32339e-25
      257.900   1.28436e-25
      258.000   1.24646e-25
      258.100   1.20966e-25
      258.200   1.17395e-25
      258.300   1.13928e-25
      258.400   1.10561e-25
      258.500   1.07293e-25
      258.600   1.04121e-25
      258.700   1.01042e-25
      258.800   9.80520e-26
      258.900   9.51512e-26
      259.000   9.23342e-26
      259.100   8.96000e-26
      259.200   8.69470e-26
      259.300   8.43741e-26
      259.400   8.18761e-26
      259.500   7.94504e-26
      259.600   7.70973e-26
      259.700   7.48127e-26
      259.800   7.25947e-26
      259.900   7.04410e-26
      260.000   6.83513e-26
      260.100   6.63232e-26
      260.200   6.43546e-26
      260.300   6.24437e-26
      260.400   6.05889e-26
      260.500   5.87894e-26
      260.600   5.70416e-26
      260.700   5.53456e-26
      260.800   5.37005e-26
      260.900   5.21025e-26
      261.000   5.05527e-26
      261.100   4.90499e-26
      261.200   4.75902e-26
      261.300   4.61738e-26
      261.400   4.47996e-26
      261.500   4.34677e-26
      261.600   4.21818e-26
      261.700   4.09344e-26
      261.800   3.97239e-26
      261.900   3.85482e-26
      262.000   3.74071e-26
      262.100   3.62993e-26
      262.200   3.52245e-26
      262.300   3.41808e-26
      262.400   3.31680e-26
      262.500   3.21846e-26
      262.600   3.12299e-26
      262.700   3.03035e-26
      262.800   2.94043e-26
      262.900   2.85308e-26
      263.000   2.76842e-26
      263.100   2.68620e-26
      263.200   2.60646e-26
      263.300   2.52903e-26
      263.400   2.45388e-26
      263.500   2.38097e-26
      263.600   2.31020e-26
      263.700   2.24150e-26
      263.800   2.17481e-26
      263.900   2.11014e-26
      264.000   2.04734e-26
      264.100   1.98638e-26
      264.200   1.92720e-26
      264.300   1.86981e-26
      264.400   1.81410e-26
      264.500   1.76002e-26
      264.600   1.70754e-26
      264.700   1.65662e-26
      264.800   1.60717e-26
      264.900   1.55922e-26
      265.000   1.51269e-26
      265.100   1.46750e-26
      265.200   1.42367e-26
      265.300   1.38113e-26
      265.400   1.33987e-26
      265.500   1.29981e-26
      265.600   1.26095e-26
      265.700   1.22670e-26
      265.800   1.20801e-26
      265.900   1.19008e-26
      266.000   1.17240e-26
      266.100   1.15498e-26
      266.200   1.13781e-26
      266.300   1.12089e-26
      266.400   1.10422e-26
      266.500   1.08779e-26
      266.600   1.07159e-26
      266.700   1.05561e-26
      266.800   1.03989e-26
      266.900   1.02440e-26
      267.000   1.00912e-26
      267.100   9.94070e-27
      267.200   9.79245e-27
      267.300   9.64630e-27
      267.400   9.50221e-27
      267.500   9.36029e-27
      267.600   9.22046e-27
      267.700   9.08267e-27
      267.800   8.94679e-27
      267.900   8.81297e-27
      268.000   8.68121e-27
      268.100   8.55136e-27
      268.200   8.42341e-27
      268.300   8.29741e-27
      268.400   8.17313e-27
      268.500   8.05066e-27
      268.600   7.92999e-27
      268.700   7.81126e-27
      268.800   7.69419e-27
      268.900   7.57885e-27
      269.000   7.46527e-27
      269.100   7.35324e-27
      269.200   7.24300e-27
      269.300   7.13439e-27
      269.400   7.02732e-27
      269.500   6.92183e-27
      269.600   6.81800e-27
      269.700   6.71558e-27
      269.800   6.61478e-27
      269.900   6.51543e-27
      270.000   6.41764e-27
      270.100   6.32157e-27
      270.200   6.22704e-27
      270.300   6.13395e-27
      270.400   6.04215e-27
      270.500   5.95175e-27
      270.600   5.86261e-27
      270.700   5.77493e-27
      270.800   5.68848e-27
      270.900   5.60330e-27
      271.000   5.51945e-27
      271.100   5.43678e-27
      271.200   5.35534e-27
      271.300   5.27514e-27
      271.400   5.19611e-27
      271.500   5.11831e-27
      271.600   5.04160e-27
      271.700   4.96601e-27
      271.800   4.89161e-27
      271.900   4.81828e-27
      272.000   4.74606e-27
      272.100   4.67490e-27
      272.200   4.60479e-27
      272.300   4.53569e-27
      272.400   4.46764e-27
      272.500   4.40062e-27
      272.600   4.33460e-27
      272.700   4.26955e-27
      272.800   4.20542e-27
      272.900   4.14232e-27
      273.000   4.08013e-27
      273.100   4.01883e-27
      273.200   3.95849e-27
      273.300   3.89906e-27
      273.400   3.84047e-27
      273.500   3.78274e-27
      273.600   3.72590e-27
      273.700   3.66988e-27
      273.800   3.61468e-27
      273.900   3.56034e-27
      274.000   3.50682e-27
      274.100   3.45407e-27
      274.200   3.40209e-27
      274.300   3.35089e-27
      274.400   3.29904e-27
      274.500   3.24434e-27
      274.600   3.18988e-27
      274.700   3.13636e-27
      274.800   3.08372e-27
      274.900   3.03194e-27
      275.000   2.98100e-27
      275.100   2.93091e-27
      275.200   2.88164e-27
      275.300   2.83317e-27
      275.400   2.78552e-27
      275.500   2.73866e-27
      275.600   2.69256e-27
      275.700   2.64722e-27
      275.800   2.60265e-27
      275.900   2.55881e-27
      276.000   2.51571e-27
      276.100   2.47329e-27
      276.200   2.43157e-27
      276.300   2.39054e-27
      276.400   2.35021e-27
      276.500   2.31053e-27
      276.600   2.27153e-27
      276.700   2.23315e-27
      276.800   2.19541e-27
      276.900   2.15829e-27
      277.000   2.12179e-27
      277.100   2.08589e-27
      277.200   2.05059e-27
      277.300   2.01587e-27
      277.400   1.98174e-27
      277.500   1.94814e-27
      277.600   1.91513e-27
      277.700   1.88264e-27
      277.800   1.85067e-27
      277.900   1.81928e-27
      278.000   1.78841e-27
      278.100   1.75804e-27
      278.200   1.72817e-27
      278.300   1.69881e-27
      278.400   1.66993e-27
      278.500   1.64151e-27
      278.600   1.61357e-27
      278.700   1.58611e-27
      278.800   1.55974e-27
      278.900   1.53662e-27
      279.000   1.51386e-27
      279.100   1.49144e-27
      279.200   1.46931e-27
      279.300   1.44753e-27
      279.400   1.42603e-27
      279.500   1.40484e-27
      279.600   1.38397e-27
      279.700   1.36339e-27
      279.800   1.34311e-27
      279.900   1.32312e-27
      280.000   1.30341e-27
      280.100   1.28397e-27
      280.200   1.26482e-27
      280.300   1.24594e-27
      280.400   1.22734e-27
      280.500   1.20901e-27
      280.600   1.19094e-27
      280.700   1.17313e-27
      280.800   1.15557e-27
      280.900   1.13825e-27
      281.000   1.12120e-27
      281.100   1.10438e-27
      281.200   1.08781e-27
      281.300   1.07148e-27
      281.400   1.05539e-27
      281.500   1.03952e-27
      281.600   1.02387e-27
      281.700   1.00846e-27
      281.800   9.93281e-28
      281.900   9.78313e-28
      282.000   9.63553e-28
      282.100   9.49013e-28
      282.200   9.34697e-28
      282.300   9.20567e-28
      282.400   9.06646e-28
      282.500   8.92920e-28
      282.600   8.79409e-28
      282.700   8.66089e-28
      282.800   8.52949e-28
      282.900   8.40024e-28
      283.000   8.27276e-28
      283.100   8.14705e-28
      283.200   8.02329e-28
      283.300   7.91742e-28
      283.400   7.89988e-28
      283.500   7.89277e-28
      283.600   7.88541e-28
      283.700   7.87796e-28
      283.800   7.87028e-28
      283.900   7.86241e-28
      284.000   7.85437e-28
      284.100   7.84610e-28
      284.200   7.83776e-28
      284.300   7.82933e-28
      284.400   7.82060e-28
      284.500   7.81172e-28
      284.600   7.80275e-28
      284.700   7.79356e-28
      284.800   7.78420e-28
      284.900   7.77475e-28
      285.000   7.76506e-28
      285.100   7.75520e-28
      285.200   7.74516e-28
      285.300   7.73501e-28
      285.400   7.72477e-28
      285.500   7.71422e-28
      285.600   7.70368e-28
      285.700   7.69285e-28
      285.800   7.68196e-28
      285.900   7.67085e-28
      286.000   7.65951e-28
      286.100   7.64818e-28
      286.200   7.63666e-28
      286.300   7.62505e-28
      286.400   7.61316e-28
      286.500   7.60117e-28
      286.600   7.58904e-28
      286.700   7.57674e-28
      286.800   7.56434e-28
      286.900   7.55184e-28
      287.000   7.53912e-28
      287.100   7.52627e-28
      287.200   7.51331e-28
      287.300   7.50013e-28
      287.400   7.48685e-28
      287.500   7.47348e-28
      287.600   7.45998e-28
      287.700   7.44635e-28
      287.800   7.43260e-28
      287.900   7.41875e-28
      288.000   7.40485e-28
      288.100   7.39084e-28
      288.200   7.37663e-28
      288.300   7.36237e-28
      288.400   7.34810e-28
      288.500   7.33358e-28
      288.600   7.31894e-28
      288.700   7.30426e-28
      288.800   7.28939e-28
      288.900   7.27440e-28
      289.000   7.25937e-28
      289.100   7.24414e-28
      289.200   7.22876e-28
      289.300   7.21333e-28
      289.400   7.19785e-28
      289.500   7.18222e-28
      289.600   7.16642e-28
      289.700   7.15060e-28
      289.800   7.13465e-28
      289.900   7.11850e-28
      290.000   7.10244e-28
      290.100   7.08601e-28
      290.200   7.06969e-28
      290.300   7.05323e-28
      290.400   7.03661e-28
      290.500   7.01997e-28
      290.600   7.00314e-28
      290.700   6.98626e-28
      290.800   6.96934e-28
      290.900   6.95231e-28
      291.000   6.93517e-28
      291.100   6.91790e-28
      291.200   6.90055e-28
      291.300   6.88317e-28
      291.400   6.86564e-28
      291.500   6.84801e-28
      291.600   6.83035e-28
      291.700   6.81257e-28
      291.800   6.79471e-28
      291.900   6.77676e-28
      292.000   6.75880e-28
      292.100   6.74076e-28
      292.200   6.72258e-28
      292.300   6.70431e-28
      292.400   6.68597e-28
      292.500   6.66756e-28
      292.600   6.64895e-28
      292.700   6.63017e-28
      292.800   6.61131e-28
      292.900   6.59235e-28
      293.000   6.57335e-28
      293.100   6.55432e-28
      293.200   6.53515e-28
      293.300   6.51590e-28
      293.400   6.49666e-28
      293.500   6.47728e-28
      293.600   6.45787e-28
      293.700   6.43841e-28
      293.800   6.41891e-28
      293.900   6.39930e-28
      294.000   6.37960e-28
      294.100   6.35989e-28
      294.200   6.34014e-28
      294.300   6.32034e-28
      294.400   6.30046e-28
      294.500   6.28049e-28
      294.600   6.26045e-28
      294.700   6.24044e-28
      294.800   6.22034e-28
      294.900   6.20011e-28
      295.000   6.17991e-28
      295.100   6.15971e-28
      295.200   6.13941e-28
      295.300   6.11901e-28
      295.400   6.09861e-28
      295.500   6.07817e-28
      295.600   6.05765e-28
      295.700   6.03710e-28
      295.800   6.01650e-28
      295.900   5.99584e-28
      296.000   5.97523e-28
      296.100   5.95446e-28
      296.200   5.93375e-28
      296.300   5.91292e-28
      296.400   5.89211e-28
      296.500   5.87120e-28
      296.600   5.85030e-28
      296.700   5.82934e-28
      296.800   5.80835e-28
      296.900   5.78734e-28
      297.000   5.76632e-28
      297.100   5.74526e-28
      297.200   5.72758e-28
      297.300   5.73534e-28
      297.400   5.80536e-28
      297.500   5.87600e-28
      297.600   5.94727e-28
      297.700   6.01929e-28
      297.800   6.09183e-28
      297.900   6.16499e-28
      298.000   6.23867e-28
      298.100   6.31296e-28
      298.200   6.38782e-28
      298.300   6.46329e-28
      298.400   6.53939e-28
      298.500   6.61604e-28
      298.600   6.69336e-28
      298.700   6.77118e-28
      298.800   6.84960e-28
      298.900   6.92871e-28
      299.000   7.00849e-28
      299.100   7.08886e-28
      299.200   7.16983e-28
      299.300   7.25131e-28
      299.400   7.33347e-28
      299.500   7.41622e-28
      299.600   7.49949e-28
      299.700   7.58333e-28
      299.800   7.66786e-28
      299.900   7.75301e-28
      300.000   7.83864e-28
      300.100   7.92502e-28
      300.192   8.00501e-28
      300.285   8.08635e-28
      300.377   8.16732e-28
      300.470   8.24978e-28
      300.562   8.33169e-28
      300.654   8.41412e-28
      300.747   8.49816e-28
      300.839   8.58168e-28
      300.932   8.66655e-28
      301.025   8.75215e-28
      301.117   8.83720e-28
      301.210   8.92357e-28
      301.303   9.01071e-28
      301.395   9.09718e-28
      301.488   9.18523e-28
      301.581   9.27360e-28
      301.674   9.36268e-28
      301.766   9.45116e-28
      301.859   9.54131e-28
      301.952   9.63176e-28
      302.045   9.72284e-28
      302.138   1.01116e-27
      302.231   1.06372e-27
      302.324   1.11930e-27
      302.417   1.17766e-27
      302.510   1.23883e-27
      302.603   1.30290e-27
      302.696   1.37008e-27
      302.789   1.44054e-27
      302.882   1.51434e-27
      302.976   1.59251e-27
      303.069   1.67353e-27
      303.162   1.75838e-27
      303.255   1.84724e-27
      303.349   1.94132e-27
      303.442   2.03880e-27
      303.535   2.14072e-27
      303.629   2.24856e-27
      303.722   2.36026e-27
      303.816   2.47839e-27
      303.909   2.60069e-27
      304.003   2.72992e-27
      304.096   2.86373e-27
      304.190   3.00516e-27
      304.283   3.15141e-27
      304.377   3.30579e-27
      304.471   3.46730e-27
      304.564   3.63427e-27
      304.658   3.81059e-27
      304.752   3.99499e-27
      304.846   4.18739e-27
      304.939   4.38625e-27
      305.033   4.59615e-27
      305.127   4.81527e-27
      305.221   5.04397e-27
      305.315   5.28293e-27
      305.409   5.53208e-27
      305.503   5.79212e-27
      305.597   6.06360e-27
      305.691   6.34659e-27
      305.785   6.64201e-27
      305.879   6.94997e-27
      305.973   7.27079e-27
      306.067   7.60559e-27
      306.161   7.95443e-27
      306.255   8.31800e-27
      306.350   8.70100e-27
      306.444   9.09588e-27
      306.538   9.50744e-27
      306.633   9.94044e-27
      306.727   1.03870e-26
      306.821   1.08519e-26
      306.916   1.13410e-26
      307.010   1.18480e-26
      307.105   1.23840e-26
      307.199   1.29367e-26
      307.294   1.35184e-26
      307.388   1.41174e-26
      307.483   1.47475e-26
      307.577   1.53965e-26
      307.672   1.60790e-26
      307.767   1.67889e-26
      307.861   1.75191e-26
      307.956   1.82874e-26
      308.051   1.90864e-26
      308.146   1.99171e-26
      308.240   2.07711e-26
      308.335   2.16681e-26
      308.430   2.26010e-26
      308.525   2.35710e-26
      308.620   2.45780e-26
      308.715   2.56247e-26
      308.810   2.67120e-26
      308.905   2.78411e-26
      309.000   2.90129e-26
      309.095   3.02302e-26
      309.190   3.14939e-26
      309.285   3.28059e-26
      309.380   3.41674e-26
      309.476   3.55949e-26
      309.571   3.70612e-26
      309.666   3.85835e-26
      309.761   4.01615e-26
      309.857   4.18149e-26
      309.952   4.35120e-26
      310.047   4.52707e-26
      310.143   4.71144e-26
      310.238   4.90057e-26
      310.334   5.09861e-26
      310.429   5.30190e-26
      310.525   5.51450e-26
      310.620   5.73263e-26
      310.716   5.96092e-26
      310.811   6.19500e-26
      310.907   6.43972e-26
      311.003   6.69318e-26
      311.098   6.95298e-26
      311.194   7.22477e-26
      311.290   7.50616e-26
      311.386   7.79727e-26
      311.481   8.09535e-26
      311.577   8.40683e-26
      311.673   8.72936e-26
      311.769   9.06297e-26
      311.865   9.40763e-26
      311.961   9.76667e-26
      312.057   1.01441e-25
      312.153   1.05364e-25
      312.249   1.09425e-25
      312.345   1.13626e-25
      312.441   1.17974e-25
      312.537   1.22467e-25
      312.633   1.27114e-25
      312.730   1.31974e-25
      312.826   1.36946e-25
      312.922   1.42084e-25
      313.018   1.47397e-25
      313.115   1.52946e-25
      313.211   1.58624e-25
      313.307   1.64489e-25
      313.404   1.70611e-25
      313.500   1.76873e-25
      313.597   1.83406e-25
      313.693   1.90080e-25
      313.790   1.97048e-25
      313.886   2.04170e-25
      313.983   2.11600e-25
      314.079   2.19192e-25
      314.176   2.27104e-25
      314.273   2.35273e-25
      314.369   2.43617e-25
      314.466   2.52314e-25
      314.563   2.61288e-25
      314.660   2.70536e-25
      314.756   2.79984e-25
      314.853   2.89823e-25
      314.950   2.99971e-25
      315.047   3.10432e-25
      315.144   3.21221e-25
      315.241   3.32337e-25
      315.338   3.43798e-25
      315.435   3.55602e-25
      315.532   3.67765e-25
      315.629   3.80291e-25
      315.726   3.93196e-25
      315.823   4.06497e-25
      315.921   4.20320e-25
      316.018   4.34422e-25
      316.115   4.48939e-25
      316.212   4.63881e-25
      316.310   4.79417e-25
      316.407   4.95241e-25
      316.504   5.11532e-25
      316.602   5.28464e-25
      316.699   5.45707e-25
      316.796   5.63431e-25
      316.894   5.81855e-25
      316.991   6.00658e-25
      317.089   6.20499e-25
      317.187   6.41107e-25
      317.284   6.62079e-25
      317.382   6.83873e-25
      317.479   7.06072e-25
      317.577   7.29126e-25
      317.675   7.52828e-25
      317.773   7.77224e-25
      317.870   8.02049e-25
      317.968   8.27854e-25
      318.066   8.54365e-25
      318.164   8.81617e-25
      318.262   9.09626e-25
      318.360   9.38425e-25
      318.458   9.68009e-25
      318.556   9.98395e-25
      318.654   1.02962e-24
      318.752   1.06167e-24
      318.850   1.09459e-24
      318.948   1.12842e-24
      319.046   1.16316e-24
      319.144   1.19881e-24
      319.242   1.23540e-24
      319.341   1.27336e-24
      319.439   1.31192e-24
      319.537   1.35148e-24
      319.635   1.39208e-24
      319.734   1.43415e-24
      319.832   1.47687e-24
      319.930   1.52069e-24
      320.029   1.56609e-24
      320.127   1.61217e-24
      320.226   1.65993e-24
      320.324   1.70839e-24
      320.423   1.75857e-24
      320.522   1.81001e-24
      320.620   1.86218e-24
      320.719   1.91619e-24
      320.818   1.97155e-24
      320.916   2.02769e-24
      321.015   2.08580e-24
      321.114   2.14530e-24
      321.213   2.20626e-24
      321.311   2.26804e-24
      321.410   2.33190e-24
      321.509   2.39733e-24
      321.608   2.46427e-24
      321.707   2.53282e-24
      321.806   2.60300e-24
      321.905   2.67477e-24
      322.004   2.74828e-24
      322.103   2.83742e-24
      322.202   2.95312e-24
      322.301   3.08344e-24
      322.401   3.22027e-24
      322.500   3.36106e-24
      322.599   3.50726e-24
      322.698   3.65908e-24
      322.798   3.81846e-24
      322.897   3.98231e-24
      322.996   4.15229e-24
      323.096   4.33062e-24
      323.195   4.51377e-24
      323.294   4.70373e-24
      323.394   4.90274e-24
      323.493   5.10716e-24
      323.593   5.32127e-24
      323.692   5.54098e-24
      323.792   5.77101e-24
      323.892   6.00939e-24
      323.991   6.25402e-24
      324.091   6.50994e-24
      324.191   6.77518e-24
      324.291   7.04970e-24
      324.390   7.33097e-24
      324.490   7.62548e-24
      324.590   7.92990e-24
      324.690   8.24494e-24
      324.790   8.57104e-24
      324.890   8.90830e-24
      324.990   9.25734e-24
      325.090   9.61834e-24
      325.190   9.99120e-24
      325.290   1.03766e-23
      325.390   1.07752e-23
      325.490   1.11869e-23
      325.590   1.16121e-23
      325.690   1.20515e-23
      325.790   1.25052e-23
      325.891   1.29784e-23
      325.991   1.34621e-23
      326.091   1.39615e-23
      326.192   1.44820e-23
      326.292   1.50138e-23
      326.392   1.55622e-23
      326.493   1.61337e-23
      326.593   1.67173e-23
      326.694   1.73245e-23
      326.794   1.79448e-23
      326.895   1.85905e-23
      326.995   1.92495e-23
      327.096   1.99347e-23
      327.197   2.06411e-23
      327.297   2.13630e-23
      327.398   2.21167e-23
      327.499   2.28947e-23
      327.599   2.36884e-23
      327.700   2.45135e-23
      327.801   2.53625e-23
      327.902   2.62363e-23
      328.003   2.71361e-23
      328.104   2.80619e-23
      328.205   2.90142e-23
      328.306   2.99935e-23
      328.407   3.10004e-23
      328.508   3.20357e-23
      328.609   3.31000e-23
      328.710   3.41935e-23
      328.811   3.53175e-23
      328.912   3.64728e-23
      329.013   3.76587e-23
      329.115   3.88894e-23
      329.216   4.01412e-23
      329.317   4.14257e-23
      329.419   4.27575e-23
      329.520   4.41117e-23
      329.621   4.55010e-23
      329.723   4.69418e-23
      329.824   4.84028e-23
      329.926   4.99173e-23
      330.027   5.14560e-23
      330.129   5.30493e-23
      330.230   5.46657e-23
      330.332   5.63401e-23
      330.434   5.80555e-23
      330.535   5.97968e-23
      330.637   6.15979e-23
      330.739   6.34411e-23
      330.840   6.53118e-23
      330.942   6.72469e-23
      331.044   6.92279e-23
      331.146   7.12553e-23
      331.248   7.33307e-23
      331.350   7.54544e-23
      331.452   7.76309e-23
      331.554   7.99238e-23
      331.656   8.23820e-23
      331.758   8.49017e-23
      331.860   8.74862e-23
      331.962   9.01346e-23
      332.064   9.28484e-23
      332.166   9.56289e-23
      332.268   9.84784e-23
      332.371   1.01425e-22
      332.473   1.04414e-22
      332.575   1.07311e-22
      332.677   1.09729e-22
      332.780   1.11776e-22
      332.882   1.13832e-22
      332.985   1.15933e-22
      333.087   1.18043e-22
      333.190   1.20199e-22
      333.292   1.22304e-22
      333.395   1.24301e-22
      333.497   1.26237e-22
      333.600   1.28210e-22
      333.702   1.30182e-22
      333.805   1.32190e-22
      333.908   1.34220e-22
      334.011   1.36266e-22
      334.113   1.38309e-22
      334.216   1.40391e-22
      334.319   1.42490e-22
      334.422   1.44607e-22
      334.525   1.46742e-22
      334.628   1.48895e-22
      334.731   1.51064e-22
      334.834   1.53251e-22
      334.937   1.55457e-22
      335.040   1.57680e-22
      335.143   1.59918e-22
      335.246   1.62173e-22
      335.349   1.64444e-22
      335.452   1.66732e-22
      335.555   1.69037e-22
      335.659   1.71381e-22
      335.762   1.73721e-22
      335.865   1.76075e-22
      335.969   1.78467e-22
      336.072   1.80853e-22
      336.175   1.83252e-22
      336.279   1.85691e-22
      336.382   1.88122e-22
      336.486   1.90593e-22
      336.589   1.93052e-22
      336.693   1.95553e-22
      336.796   1.98040e-22
      336.900   2.00570e-22
      337.004   2.03115e-22
      337.107   2.05644e-22
      337.211   2.08216e-22
      337.315   2.10800e-22
      337.419   2.13397e-22
      337.523   2.16004e-22
      337.626   2.18602e-22
      337.730   2.21238e-22
      337.834   2.23884e-22
      337.938   2.26535e-22
      338.042   2.29173e-22
      338.146   2.31856e-22
      338.250   2.34551e-22
      338.354   2.37261e-22
      338.458   2.39981e-22
      338.562   2.42712e-22
      338.667   2.45480e-22
      338.771   2.48233e-22
      338.875   2.50995e-22
      338.979   2.53768e-22
      339.084   2.56577e-22
      339.188   2.59366e-22
      339.292   2.62170e-22
      339.397   2.65007e-22
      339.501   2.67827e-22
      339.606   2.70683e-22
      339.710   2.73517e-22
      339.815   2.76390e-22
      339.919   2.79240e-22
      340.024   2.82127e-22
      340.128   2.84990e-22
      340.233   2.87892e-22
      340.338   2.90797e-22
      340.442   2.93680e-22
      340.547   2.96598e-22
      340.652   2.99522e-22
      340.757   3.02449e-22
      340.862   3.05382e-22
      340.966   3.08292e-22
      341.071   3.11228e-22
      341.176   3.14172e-22
      341.281   3.17119e-22
      341.386   3.20070e-22
      341.491   3.23023e-22
      341.596   3.25981e-22
      341.702   3.28969e-22
      341.807   3.31924e-22
      341.912   3.34885e-22
      342.017   3.37848e-22
      342.122   3.40810e-22
      342.228   3.43797e-22
      342.333   3.46759e-22
      342.438   3.49722e-22
      342.544   3.52709e-22
      342.649   3.55665e-22
      342.754   3.58623e-22
      342.860   3.61603e-22
      342.965   3.64557e-22
      343.071   3.67531e-22
      343.176   3.70478e-22
      343.282   3.73450e-22
      343.388   3.76417e-22
      343.493   3.79416e-22
      343.599   3.83002e-22
      343.705   3.86656e-22
      343.810   3.90274e-22
      343.916   3.93934e-22
      344.022   3.97602e-22
      344.128   4.01271e-22
      344.234   4.04949e-22
      344.340   4.08628e-22
      344.446   4.12310e-22
      344.552   4.15997e-22
      344.658   4.19695e-22
      344.764   4.23383e-22
      344.870   4.27082e-22
      344.976   4.30776e-22
      345.082   4.34476e-22
      345.188   4.38177e-22
      345.294   4.41876e-22
      345.401   4.45613e-22
      345.507   4.49313e-22
      345.613   4.53010e-22
      345.719   4.56709e-22
      345.826   4.60443e-22
      345.932   4.64137e-22
      346.039   4.67863e-22
      346.145   4.71551e-22
      346.252   4.75272e-22
      346.358   4.78952e-22
      346.465   4.82659e-22
      346.571   4.86334e-22
      346.678   4.90032e-22
      346.785   4.93729e-22
      346.891   4.97380e-22
      346.998   5.01057e-22
      347.105   5.04731e-22
      347.212   5.08400e-22
      347.319   5.12059e-22
      347.425   5.15670e-22
      347.532   5.19313e-22
      347.639   5.22941e-22
      347.746   5.26560e-22
      347.853   5.30176e-22
      347.960   5.33770e-22
      348.067   5.37361e-22
      348.174   5.40935e-22
      348.281   5.44492e-22
      348.389   5.48077e-22
      348.496   5.51602e-22
      348.603   5.55131e-22
      348.710   5.58631e-22
      348.818   5.62159e-22
      348.925   5.65573e-22
      349.032   5.66188e-22
      349.140   5.60039e-22
      349.247   5.53995e-22
      349.355   5.47961e-22
      349.462   5.42038e-22
      349.570   5.36110e-22
      349.677   5.30302e-22
      349.785   5.24490e-22
      349.892   5.18793e-22
      350.000   5.13101e-22
      350.100   5.07879e-22
      350.193   5.03067e-22
      350.287   4.98237e-22
      350.380   4.93505e-22
      350.473   4.88814e-22
      350.567   4.84106e-22
      350.660   4.79492e-22
      350.754   4.74871e-22
      350.847   4.70339e-22
      350.941   4.65792e-22
      351.034   4.61335e-22
      351.128   4.56871e-22
      351.221   4.52490e-22
      351.315   4.48101e-22
      351.409   4.43747e-22
      351.502   4.39479e-22
      351.596   4.35201e-22
      351.690   4.30958e-22
      351.783   4.26802e-22
      351.877   4.22638e-22
      351.971   4.18506e-22
      352.065   4.14412e-22
      352.159   4.10354e-22
      352.252   4.06373e-22
      352.346   4.02381e-22
      352.440   3.98428e-22
      352.534   3.94511e-22
      352.628   3.90627e-22
      352.722   3.86774e-22
      352.816   3.82959e-22
      352.910   3.79176e-22
      353.004   3.75428e-22
      353.098   3.71710e-22
      353.192   3.68025e-22
      353.287   3.64335e-22
      353.381   3.60714e-22
      353.475   3.57131e-22
      353.569   3.53573e-22
      353.663   3.50049e-22
      353.758   3.46523e-22
      353.852   3.43063e-22
      353.946   3.39633e-22
      354.041   3.36197e-22
      354.135   3.32829e-22
      354.229   3.29488e-22
      354.324   3.26146e-22
      354.418   3.22865e-22
      354.513   3.19580e-22
      354.607   3.16363e-22
      354.702   3.12643e-22
      354.796   3.08649e-22
      354.891   3.04626e-22
      354.985   3.00698e-22
      355.080   2.96776e-22
      355.175   2.92901e-22
      355.269   2.89115e-22
      355.364   2.85335e-22
      355.459   2.81604e-22
      355.553   2.77956e-22
      355.648   2.74316e-22
      355.743   2.70722e-22
      355.838   2.67167e-22
      355.933   2.63663e-22
      356.027   2.60236e-22
      356.122   2.56815e-22
      356.217   2.53436e-22
      356.312   2.50102e-22
      356.407   2.46806e-22
      356.502   2.43553e-22
      356.597   2.40339e-22
      356.692   2.37168e-22
      356.787   2.34035e-22
      356.882   2.30939e-22
      356.977   2.27886e-22
      357.073   2.24838e-22
      357.168   2.21856e-22
      357.263   2.18915e-22
      357.358   2.16010e-22
      357.453   2.13143e-22
      357.549   2.10281e-22
      357.644   2.07485e-22
      357.739   2.04725e-22
      357.835   2.01969e-22
      357.930   1.99277e-22
      358.025   1.96619e-22
      358.121   1.93968e-22
      358.216   1.91377e-22
      358.312   1.88791e-22
      358.407   1.86266e-22
      358.503   1.83747e-22
      358.598   1.81286e-22
      358.694   1.78830e-22
      358.790   1.76405e-22
      358.885   1.74036e-22
      358.981   1.71673e-22
      359.076   1.69364e-22
      359.172   1.67063e-22
      359.268   1.64787e-22
      359.364   1.62542e-22
      359.459   1.60352e-22
      359.555   1.58165e-22
      359.651   1.56005e-22
      359.747   1.53873e-22
      359.843   1.51770e-22
      359.939   1.49693e-22
      360.035   1.47644e-22
      360.131   1.45621e-22
      360.227   1.43623e-22
      360.323   1.41653e-22
      360.419   1.40515e-22
      360.515   1.40098e-22
      360.611   1.39814e-22
      360.707   1.39524e-22
      360.803   1.39231e-22
      360.899   1.38933e-22
      360.995   1.38631e-22
      361.092   1.38322e-22
      361.188   1.38011e-22
      361.284   1.37695e-22
      361.380   1.37376e-22
      361.477   1.37049e-22
      361.573   1.36722e-22
      361.669   1.36389e-22
      361.766   1.36049e-22
      361.862   1.35709e-22
      361.959   1.35361e-22
      362.055   1.35011e-22
      362.152   1.34656e-22
      362.248   1.34299e-22
      362.345   1.33935e-22
      362.441   1.33572e-22
      362.538   1.33200e-22
      362.635   1.32825e-22
      362.731   1.32449e-22
      362.828   1.32065e-22
      362.925   1.31678e-22
      363.021   1.31292e-22
      363.118   1.30898e-22
      363.215   1.30501e-22
      363.312   1.30099e-22
      363.409   1.29695e-22
      363.505   1.29291e-22
      363.602   1.28880e-22
      363.699   1.28466e-22
      363.796   1.28048e-22
      363.893   1.27627e-22
      363.990   1.27202e-22
      364.087   1.26775e-22
      364.184   1.26344e-22
      364.281   1.25911e-22
      364.378   1.25475e-22
      364.475   1.25036e-22
      364.573   1.24589e-22
      364.670   1.24143e-22
      364.767   1.23695e-22
      364.864   1.23245e-22
      364.961   1.22791e-22
      365.059   1.22331e-22
      365.156   1.21872e-22
      365.253   1.21411e-22
      365.351   1.20943e-22
      365.448   1.20477e-22
      365.545   1.20009e-22
      365.643   1.19534e-22
      365.740   1.19060e-22
      365.838   1.18580e-22
      365.935   1.18102e-22
      366.033   1.17618e-22
      366.130   1.17137e-22
      366.228   1.16863e-22
      366.326   1.16886e-22
      366.423   1.16998e-22
      366.521   1.17105e-22
      366.618   1.17205e-22
      366.716   1.17298e-22
      366.814   1.17386e-22
      366.912   1.17468e-22
      367.010   1.17544e-22
      367.107   1.17613e-22
      367.205   1.17675e-22
      367.303   1.17732e-22
      367.401   1.17782e-22
      367.499   1.17826e-22
      367.597   1.17864e-22
      367.695   1.17895e-22
      367.793   1.17921e-22
      367.891   1.17940e-22
      367.989   1.17954e-22
      368.087   1.17960e-22
      368.185   1.17961e-22
      368.283   1.17955e-22
      368.381   1.17944e-22
      368.480   1.17925e-22
      368.578   1.17901e-22
      368.676   1.17871e-22
      368.774   1.17836e-22
      368.873   1.17793e-22
      368.971   1.17745e-22
      369.069   1.17692e-22
      369.168   1.17631e-22
      369.266   1.17564e-22
      369.364   1.17492e-22
      369.463   1.17414e-22
      369.561   1.17331e-22
      369.660   1.17240e-22
      369.758   1.17144e-22
      369.857   1.17042e-22
      369.955   1.16936e-22
      370.054   1.16821e-22
      370.153   1.16701e-22
      370.251   1.16578e-22
      370.350   1.16447e-22
      370.449   1.16311e-22
      370.547   1.16170e-22
      370.646   1.16022e-22
      370.745   1.15869e-22
      370.844   1.15711e-22
      370.943   1.15547e-22
      371.041   1.15379e-22
      371.140   1.15204e-22
      371.239   1.15024e-22
      371.338   1.14839e-22
      371.437   1.14649e-22
      371.536   1.14452e-22
      371.635   1.14251e-22
      371.734   1.14045e-22
      371.833   1.13834e-22
      371.932   1.13618e-22
      372.032   1.13395e-22
      372.131   1.13952e-22
      372.230   1.16153e-22
      372.329   1.19222e-22
      372.428   1.22340e-22
      372.528   1.25538e-22
      372.627   1.28754e-22
      372.726   1.32019e-22
      372.826   1.35367e-22
      372.925   1.38732e-22
      373.024   1.42144e-22
      373.124   1.45640e-22
      373.223   1.49145e-22
      373.323   1.52737e-22
      373.422   1.56341e-22
      373.522   1.60027e-22
      373.621   1.63720e-22
      373.721   1.67500e-22
      373.820   1.71284e-22
      373.920   1.75152e-22
      374.020   1.79068e-22
      374.119   1.82983e-22
      374.219   1.86986e-22
      374.319   1.91029e-22
      374.419   1.95111e-22
      374.518   1.99196e-22
      374.618   2.03362e-22
      374.718   2.07570e-22
      374.818   2.11811e-22
      374.918   2.16090e-22
      375.018   2.20410e-22
      375.118   2.24763e-22
      375.218   2.29153e-22
      375.318   2.33579e-22
      375.418   2.38037e-22
      375.518   2.42525e-22
      375.618   2.47043e-22
      375.718   2.51592e-22
      375.818   2.56168e-22
      375.918   2.60774e-22
      376.019   2.65454e-22
      376.119   2.70114e-22
      376.219   2.74793e-22
      376.319   2.79500e-22
      376.420   2.84273e-22
      376.520   2.89019e-22
      376.620   2.93783e-22
      376.721   2.98615e-22
      376.821   3.03414e-22
      376.922   3.08338e-22
      377.022   3.14003e-22
      377.122   3.20559e-22
      377.223   3.27239e-22
      377.323   3.33901e-22
      377.424   3.40685e-22
      377.525   3.47512e-22
      377.625   3.54313e-22
      377.726   3.61227e-22
      377.827   3.68188e-22
      377.927   3.75117e-22
      378.028   3.82149e-22
      378.129   3.89221e-22
      378.230   3.96329e-22
      378.330   4.03399e-22
      378.431   4.10568e-22
      378.532   4.17762e-22
      378.633   4.24985e-22
      378.734   4.32231e-22
      378.835   4.39491e-22
      378.936   4.46769e-22
      379.037   4.54061e-22
      379.138   4.61360e-22
      379.239   4.68676e-22
      379.340   4.75996e-22
      379.441   4.83323e-22
      379.542   4.90649e-22
      379.643   4.97973e-22
      379.745   5.05370e-22
      379.846   5.12688e-22
      379.947   5.19990e-22
      380.048   5.27284e-22
      380.150   5.34642e-22
      380.251   5.41907e-22
      380.352   5.49151e-22
      380.454   5.56443e-22
      380.555   5.63643e-22
      380.656   5.70811e-22
      380.758   5.78024e-22
      380.859   5.85130e-22
      380.961   5.92269e-22
      381.062   5.99301e-22
      381.164   6.06367e-22
      381.266   6.13386e-22
      381.367   6.20292e-22
      381.469   6.27218e-22
      381.570   6.34021e-22
      381.672   6.40837e-22
      381.774   6.47605e-22
      381.876   6.54304e-22
      381.977   6.61054e-22
      382.079   6.68375e-22
      382.181   6.76118e-22
      382.283   6.83802e-22
      382.385   6.91425e-22
      382.487   6.98991e-22
      382.589   7.06477e-22
      382.691   7.13892e-22
      382.793   7.21235e-22
      382.895   7.28509e-22
      382.997   7.35701e-22
      383.099   7.42811e-22
      383.201   7.49832e-22
      383.303   7.56779e-22
      383.405   7.63624e-22
      383.507   7.70370e-22
      383.610   7.77097e-22
      383.712   7.83665e-22
      383.814   7.90125e-22
      383.916   7.96488e-22
      384.019   8.02807e-22
      384.121   8.08964e-22
      384.223   8.15000e-22
      384.326   8.20997e-22
      384.428   8.26797e-22
      384.531   8.32531e-22
      384.633   8.38102e-22
      384.736   8.43607e-22
      384.838   8.48933e-22
      384.941   8.54194e-22
      385.043   8.59279e-22
      385.146   8.64293e-22
      385.249   8.69178e-22
      385.351   8.73891e-22
      385.454   8.78523e-22
      385.557   8.83019e-22
      385.660   8.87394e-22
      385.762   8.91590e-22
      385.865   8.95692e-22
      385.968   8.99665e-22
      386.071   9.03501e-22
      386.174   9.07207e-22
      386.277   9.10771e-22
      386.380   9.14196e-22
      386.483   9.17485e-22
      386.586   9.20642e-22
      386.689   9.23659e-22
      386.792   9.26537e-22
      386.895   9.29276e-22
      386.998   9.31877e-22
      387.101   9.30112e-22
      387.204   9.13793e-22
      387.308   8.92769e-22
      387.411   8.72420e-22
      387.514   8.52531e-22
      387.617   8.33101e-22
      387.721   8.13930e-22
      387.824   7.95371e-22
      387.927   7.77219e-22
      388.031   7.59318e-22
      388.134   7.41997e-22
      388.238   7.24913e-22
      388.341   7.08362e-22
      388.445   6.92037e-22
      388.548   6.76227e-22
      388.652   6.60639e-22
      388.755   6.45550e-22
      388.859   6.30657e-22
      388.962   6.16244e-22
      389.066   6.02014e-22
      389.170   5.88124e-22
      389.274   5.74541e-22
      389.377   5.61393e-22
      389.481   5.48412e-22
      389.585   5.35739e-22
      389.689   5.23350e-22
      389.793   5.11238e-22
      389.897   4.99414e-22
      390.000   4.87960e-22
      390.104   4.76665e-22
      390.208   4.65620e-22
      390.312   4.54832e-22
      390.416   4.44288e-22
      390.520   4.33975e-22
      390.625   4.23800e-22
      390.729   4.13965e-22
      390.833   4.04346e-22
      390.937   3.94949e-22
      391.041   3.85770e-22
      391.145   3.76800e-22
      391.250   3.67948e-22
      391.354   3.59383e-22
      391.458   3.51010e-22
      391.563   3.42750e-22
      391.667   3.34761e-22
      391.771   3.26955e-22
      391.876   3.19254e-22
      391.980   3.11802e-22
      392.085   3.04453e-22
      392.189   2.97345e-22
      392.294   2.90331e-22
      392.398   2.83548e-22
      392.503   2.76857e-22
      392.607   2.70384e-22
      392.712   2.64001e-22
      392.817   2.57762e-22
      392.921   2.51732e-22
      393.026   2.45781e-22
      393.131   2.39972e-22
      393.236   2.34293e-22
      393.340   2.28803e-22
      393.445   2.23390e-22
      393.550   2.18101e-22
      393.655   2.12936e-22
      393.760   2.07892e-22
      393.865   2.02965e-22
      393.970   1.98157e-22
      394.075   1.93456e-22
      394.180   1.88869e-22
      394.285   1.84388e-22
      394.390   1.80013e-22
      394.495   1.75737e-22
      394.600   1.71564e-22
      394.706   1.67451e-22
      394.811   1.63473e-22
      394.916   1.59585e-22
      395.021   1.55790e-22
      395.126   1.52087e-22
      395.232   1.48432e-22
      395.337   1.44899e-22
      395.443   1.41417e-22
      395.548   1.38049e-22
      395.653   1.34762e-22
      395.759   1.31519e-22
      395.864   1.28385e-22
      395.970   1.25295e-22
      396.075   1.22306e-22
      396.181   1.19360e-22
      396.286   1.16510e-22
      396.392   1.13704e-22
      396.498   1.10963e-22
      396.603   1.08310e-22
      396.709   1.05699e-22
      396.815   1.03147e-22
      396.921   1.00657e-22
      397.026   9.82500e-23
      397.132   9.58763e-23
      397.238   9.35611e-23
      397.344   9.12982e-23
      397.450   8.90937e-23
      397.556   8.69378e-23
      397.662   8.48339e-23
      397.768   8.27809e-23
      397.874   8.07758e-23
      397.980   7.88188e-23
      398.086   7.69078e-23
      398.192   7.50437e-23
      398.298   7.32232e-23
      398.404   7.14466e-23
      398.510   6.97120e-23
      398.617   6.80046e-23
      398.723   6.63525e-23
      398.829   6.47395e-23
      398.935   6.31653e-23
      399.042   6.16153e-23
      399.148   6.01154e-23
      399.255   5.86393e-23
      399.361   5.72118e-23
      399.467   5.58169e-23
      399.574   5.44448e-23
      399.680   5.31171e-23
      399.787   5.18092e-23
      399.893       0.00000
      400.000       0.00000
