Filter Be-thin
observation_date 2021-09-22 22:45:45
wavelength effective area
      1.00000   2.78437e-10
      1.10000   7.94894e-10
      1.20000   2.06653e-09
      1.30000   4.94174e-09
      1.40000   1.12137e-08
      1.50000   2.39245e-08
      1.60000   4.84350e-08
      1.70000   9.40348e-08
      1.80000   1.75076e-07
      1.90000   3.14679e-07
      2.00000   5.47089e-07
      2.10000   9.24094e-07
      2.20000   1.52378e-06
      2.30000   2.44953e-06
      2.40000   3.84567e-06
      2.50000   5.87719e-06
      2.60000   8.96901e-06
      2.70000   1.33716e-05
      2.80000   1.95536e-05
      2.90000   2.82993e-05
      3.00000   4.03169e-05
      3.10000   5.66992e-05
      3.20000   7.88664e-05
      3.30000   0.000108582
      3.40000   0.000147933
      3.50000   0.000199588
      3.60000   0.000268034
      3.70000   0.000356119
      3.80000   0.000471174
      3.90000   0.000619921
      4.00000   0.000810519
      4.10000    0.00105477
      4.20000    0.00136773
      4.30000    0.00176844
      4.40000    0.00228036
      4.50000    0.00293226
      4.60000    0.00375770
      4.70000    0.00481508
      4.80000    0.00616335
      4.90000    0.00778734
      5.00000     0.0100976
      5.10000     0.0129080
      5.20000     0.0165481
      5.30000     0.0210344
      5.40000     0.0266916
      5.50000     0.0339270
      5.60000     0.0417982
      5.70000     0.0542475
      5.80000     0.0634890
      5.90000     0.0967653
      6.00000      0.129833
      6.10000      0.165609
      6.20000      0.202956
      6.30000      0.238401
      6.40000      0.268593
      6.50000      0.290543
      6.60000      0.300036
      6.70000      0.308615
      6.80000      0.308238
      6.90000      0.403303
      7.00000      0.437355
      7.10000      0.461180
      7.20000      0.479646
      7.30000      0.494253
      7.40000      0.504870
      7.50000      0.512840
      7.60000      0.518289
      7.70000      0.519867
      7.80000      0.516619
      7.90000      0.513918
      8.00000      0.739841
      8.10000      0.806155
      8.20000      0.815331
      8.30000      0.820715
      8.40000      0.822660
      8.50000      0.823118
      8.60000      0.821854
      8.70000      0.819446
      8.80000      0.815640
      8.90000      0.810872
      9.00000      0.805096
      9.10000      0.798378
      9.20000      0.790897
      9.30000      0.782593
      9.40000      0.773602
      9.50000      0.763987
      9.60000      0.753724
      9.70000      0.742917
      9.80000      0.731669
      9.90000      0.720017
      10.0000      0.708019
      10.1000      0.695700
      10.2000      0.683094
      10.3000      0.670192
      10.4000      0.657033
      10.5000      0.643648
      10.6000      0.630073
      10.7000      0.616334
      10.8000      0.602460
      10.9000      0.588488
      11.0000      0.574431
      11.1000      0.560328
      11.2000      0.546191
      11.3000      0.532051
      11.4000      0.517913
      11.5000      0.503786
      11.6000      0.489694
      11.7000      0.475617
      11.8000      0.461606
      11.9000      0.447585
      12.0000      0.433124
      12.1000      0.420333
      12.2000      0.414982
      12.3000      0.405279
      12.4000      0.392695
      12.5000      0.380029
      12.6000      0.367452
      12.7000      0.355033
      12.8000      0.342797
      12.9000      0.330753
      13.0000      0.318925
      13.1000      0.307327
      13.2000      0.295987
      13.3000      0.284965
      13.4000      0.274243
      13.5000      0.263810
      13.6000      0.253677
      13.7000      0.243803
      13.8000      0.234182
      13.9000      0.224823
      14.0000      0.215720
      14.1000      0.206854
      14.2000      0.198216
      14.3000      0.189809
      14.4000      0.181637
      14.5000      0.173716
      14.6000      0.166050
      14.7000      0.158614
      14.8000      0.151408
      14.9000      0.144427
      15.0000      0.137671
      15.1000      0.131140
      15.2000      0.124871
      15.3000      0.118829
      15.4000      0.112999
      15.5000      0.107377
      15.6000      0.101965
      15.7000     0.0967766
      15.8000     0.0918195
      15.9000     0.0870542
      16.0000     0.0824745
      16.1000     0.0780763
      16.2000     0.0738991
      16.3000     0.0699049
      16.4000     0.0660713
      16.5000     0.0623932
      16.6000     0.0588923
      16.7000     0.0555690
      16.8000     0.0523840
      16.9000     0.0493327
      17.0000     0.0464401
      17.1000     0.0437156
      17.2000     0.0411202
      17.3000     0.0386484
      17.4000     0.0363332
      17.5000     0.0341368
      17.6000     0.0320538
      17.7000     0.0301121
      17.8000     0.0283525
      17.9000     0.0266742
      18.0000     0.0250650
      18.1000     0.0235644
      18.2000     0.0221139
      18.3000     0.0207064
      18.4000     0.0193540
      18.5000     0.0180591
      18.6000     0.0168063
      18.7000     0.0156075
      18.8000     0.0144864
      18.9000     0.0134192
      19.0000     0.0124299
      19.1000     0.0115077
      19.2000     0.0106311
      19.3000    0.00982582
      19.4000    0.00908108
      19.5000    0.00837978
      19.6000    0.00776112
      19.7000    0.00717684
      19.8000    0.00662327
      19.9000    0.00612380
      20.0000    0.00564755
      20.1000    0.00520476
      20.2000    0.00479831
      20.3000    0.00441079
      20.4000    0.00405985
      20.5000    0.00373027
      20.6000    0.00341984
      20.7000    0.00314103
      20.8000    0.00287474
      20.9000    0.00263287
      21.0000    0.00240819
      21.1000    0.00219672
      21.2000    0.00200798
      21.3000    0.00182746
      21.4000    0.00166584
      21.5000    0.00151469
      21.6000    0.00137408
      21.7000    0.00124786
      21.8000    0.00112698
      21.9000    0.00102064
      22.0000   0.000919046
      22.1000   0.000827729
      22.2000   0.000742585
      22.3000   0.000662859
      22.4000   0.000583092
      22.5000   0.000503687
      22.6000   0.000404001
      22.7000   0.000329716
      22.8000   0.000371151
      22.9000   0.000429615
      23.0000   0.000508071
      23.1000   0.000539785
      23.2000   0.000529033
      23.3000   0.000496682
      23.4000   0.000453743
      23.5000   0.000415070
      23.6000   0.000377593
      23.7000   0.000344216
      23.8000   0.000311500
      23.9000   0.000283461
      24.0000   0.000256095
      24.1000   0.000232351
      24.2000   0.000209490
      24.3000   0.000189638
      24.4000   0.000170728
      24.5000   0.000154186
      24.6000   0.000138584
      24.7000   0.000124913
      24.8000   0.000112103
      24.9000   0.000100851
      25.0000   9.03567e-05
      25.1000   8.11545e-05
      25.2000   7.25818e-05
      25.3000   6.50886e-05
      25.4000   5.80986e-05
      25.5000   5.20344e-05
      25.6000   4.63498e-05
      25.7000   4.14668e-05
      25.8000   3.68502e-05
      25.9000   3.29391e-05
      26.0000   2.91959e-05
      26.1000   2.60783e-05
      26.2000   2.30469e-05
      26.3000   2.05768e-05
      26.4000   1.81272e-05
      26.5000   1.61798e-05
      26.6000   1.42448e-05
      26.7000   1.26770e-05
      26.8000   1.11616e-05
      26.9000   9.89658e-06
      27.0000   8.71484e-06
      27.1000   7.69369e-06
      27.2000   6.77623e-06
      27.3000   5.96476e-06
      27.4000   5.28348e-06
      27.5000   4.64139e-06
      27.6000   4.10281e-06
      27.7000   3.57446e-06
      27.8000   3.16208e-06
      27.9000   2.75234e-06
      28.0000   2.42500e-06
      28.1000   2.11527e-06
      28.2000   1.85161e-06
      28.3000   1.61903e-06
      28.4000   1.40733e-06
      28.5000   1.23385e-06
      28.6000   1.06452e-06
      28.7000   9.36125e-07
      28.8000   8.08577e-07
      28.9000   7.06878e-07
      29.0000   6.12966e-07
      29.1000   5.30959e-07
      29.2000   4.62293e-07
      29.3000   3.96585e-07
      29.4000   3.46749e-07
      29.5000   2.97251e-07
      29.6000   2.58576e-07
      29.7000   2.22920e-07
      29.8000   1.91641e-07
      29.9000   1.66146e-07
      30.0000   1.41109e-07
      30.1000   1.23019e-07
      30.2000   1.05055e-07
      30.3000   9.16390e-08
      30.4000   8.08463e-08
      30.5000   7.03950e-08
      30.6000   6.10039e-08
      30.7000   5.16784e-08
      30.8000   4.45373e-08
      30.9000   3.80820e-08
      31.0000   3.22927e-08
      31.1000   2.79464e-08
      31.2000   2.36308e-08
      31.3000   2.04075e-08
      31.4000   1.74337e-08
      31.5000   1.47713e-08
      31.6000   1.27390e-08
      31.7000   1.07212e-08
      31.8000   9.21940e-09
      31.9000   7.85432e-09
      32.0000   6.61622e-09
      32.1000   5.72599e-09
      32.2000   4.84219e-09
      32.3000   4.15532e-09
      32.4000   3.55740e-09
      32.5000   2.98463e-09
      32.6000   2.58392e-09
      32.7000   2.18607e-09
      32.8000   1.85579e-09
      32.9000   1.59094e-09
      33.0000   1.32801e-09
      33.1000   1.14320e-09
      33.2000   9.69966e-10
      33.3000   8.11457e-10
      33.4000   6.98036e-10
      33.5000   5.85415e-10
      33.6000   4.95245e-10
      33.7000   4.22178e-10
      33.8000   3.49615e-10
      33.9000   2.99565e-10
      34.0000   2.52902e-10
      34.1000   2.09342e-10
      34.2000   1.79619e-10
      34.3000   1.50094e-10
      34.4000   1.25365e-10
      34.5000   1.06732e-10
      34.6000   8.82247e-11
      34.7000   7.44180e-11
      34.8000   6.28313e-11
      34.9000   5.13219e-11
      35.0000   4.37574e-11
      35.1000   3.66434e-11
      35.2000   2.98659e-11
      35.3000   2.55131e-11
      35.4000   2.11897e-11
      35.5000   1.73708e-11
      35.6000   1.47529e-11
      35.7000   1.21527e-11
      35.8000   1.00195e-11
      35.9000   8.46160e-12
      36.0000   6.91424e-12
      36.1000   5.73152e-12
      36.2000   4.81457e-12
      36.3000   3.90387e-12
      36.4000   3.25200e-12
      36.5000   2.71825e-12
      36.6000   2.18819e-12
      36.7000   1.83027e-12
      36.8000   1.52309e-12
      36.9000   1.21804e-12
      37.0000   1.02182e-12
      37.1000   8.47054e-13
      37.2000   6.73492e-13
      37.3000   5.65867e-13
      37.4000   4.67609e-13
      37.5000   3.70037e-13
      37.6000   3.10849e-13
      37.7000   2.56277e-13
      37.8000   2.02088e-13
      37.9000   1.69384e-13
      38.0000   1.39440e-13
      38.1000   1.09706e-13
      38.2000   9.15337e-14
      38.3000   7.53033e-14
      38.4000   5.91867e-14
      38.5000   4.90364e-14
      38.6000   4.03549e-14
      38.7000   3.17347e-14
      38.8000   2.60407e-14
      38.9000   2.14584e-14
      39.0000   1.69084e-14
      39.1000   1.37056e-14
      39.2000   1.13184e-14
      39.3000   8.94799e-15
      39.4000   7.13861e-15
      39.5000   5.89764e-15
      39.6000   4.66559e-15
      39.7000   3.64440e-15
      39.8000   3.02194e-15
      39.9000   2.40394e-15
      40.0000   1.83900e-15
      40.1000   1.53192e-15
      40.2000   1.22705e-15
      40.3000   9.24420e-16
      40.4000   7.68318e-16
      40.5000   6.20126e-16
      40.6000   4.73000e-16
      40.7000   3.80917e-16
      40.8000   3.09951e-16
      40.9000   2.39506e-16
      41.0000   1.86501e-16
      41.1000   1.53065e-16
      41.2000   1.19875e-16
      41.3000   9.01299e-17
      41.4000   7.46330e-17
      41.5000   5.92479e-17
      41.6000   4.39764e-17
      41.7000   3.59012e-17
      41.8000   2.88826e-17
      41.9000   2.19154e-17
      42.0000   1.70207e-17
      42.1000   1.38716e-17
      42.2000   1.07455e-17
      42.3000   7.94542e-18
      42.4000   6.55656e-18
      42.5000   5.17780e-18
      42.6000   3.80930e-18
      42.7000   3.04747e-18
      42.8000   2.45001e-18
      42.9000   1.85691e-18
      43.0000   1.39190e-18
      43.1000   1.13749e-18
      43.2000   8.84973e-19
      43.3000   6.34332e-19
      43.4000   6.34672e-19
      43.5000   7.42505e-19
      43.6000   8.85634e-19
      43.7000   9.50748e-19
      43.8000   8.39865e-19
      43.9000   6.51978e-19
      44.0000   4.64586e-19
      44.1000   3.82352e-19
      44.2000   3.04849e-19
      44.3000   2.27557e-19
      44.4000   1.70145e-19
      44.5000   1.38783e-19
      44.6000   1.07505e-19
      44.7000   7.63118e-20
      44.8000   6.15456e-20
      44.9000   4.91327e-20
      45.0000   3.67526e-20
      45.1000   2.65942e-20
      45.2000   2.17656e-20
      45.3000   1.69503e-20
      45.4000   1.21472e-20
      45.5000   9.35986e-21
      45.6000   7.52452e-21
      45.7000   5.69414e-21
      45.8000   3.91111e-21
      45.9000   3.22596e-21
      46.0000   2.54260e-21
      46.1000   1.86105e-21
      46.2000   1.33882e-21
      46.3000   1.08970e-21
      46.4000   8.41265e-22
      46.5000   5.93470e-22
      46.6000   4.51350e-22
      46.7000   3.62127e-22
      46.8000   2.73142e-22
      46.9000   1.84388e-22
      47.0000   1.49367e-22
      47.1000   1.18073e-22
      47.2000   8.68612e-23
      47.3000   5.93120e-23
      47.4000   4.85343e-23
      47.5000   3.77843e-23
      47.6000   2.70630e-23
      47.7000   1.90972e-23
      47.8000   1.54782e-23
      47.9000   1.18682e-23
      48.0000   8.26809e-24
      48.1000   6.03474e-24
      48.2000   4.84687e-24
      48.3000   3.66205e-24
      48.4000   2.48036e-24
      48.5000   1.87127e-24
      48.6000   1.49046e-24
      48.7000   1.11064e-24
      48.8000   7.31773e-25
      48.9000   5.69224e-25
      49.0000   4.50128e-25
      49.1000   3.31345e-25
      49.2000   2.12864e-25
      49.3000   1.72816e-25
      49.4000   1.39631e-25
      49.5000   1.06532e-25
      49.6000   7.35182e-26
      49.7000   6.62040e-26
      49.8000   5.95413e-26
      49.9000   5.28959e-26
      50.0000   4.62679e-26
      50.1000   4.05800e-26
      50.2000   3.27544e-26
      50.3000   2.64835e-26
      50.4000   2.29096e-26
      50.5000   2.06460e-26
      50.6000   1.84341e-26
      50.7000   1.42478e-26
      50.8000   1.18734e-26
      50.9000   6.50153e-27
      51.0000   4.35598e-27
      51.1000   3.52180e-27
      51.2000   3.52875e-27
      51.3000   3.16047e-27
      51.4000   1.94901e-27
      51.5000   1.17530e-27
      51.6000   8.28886e-28
      51.7000   5.58958e-28
      51.8000   4.22762e-28
      51.9000   3.51793e-28
      52.0000   2.78734e-28
      52.1000   1.92663e-28
      52.2000   1.47394e-28
      52.3000   9.70841e-29
      52.4000   6.33516e-29
      52.5000   5.00617e-29
      52.6000   4.45032e-29
      52.7000   3.79668e-29
      52.8000   2.58071e-29
      52.9000   1.47612e-29
      53.0000   9.87106e-30
      53.1000   6.50878e-30
      53.2000   4.36723e-30
      53.3000   2.89842e-30
      53.4000   1.89920e-30
      53.5000   1.08406e-30
      53.6000   5.47921e-31
      53.7000   3.20087e-31
      53.8000   2.39060e-31
      53.9000   1.64176e-31
      54.0000   1.10386e-31
      54.1000   7.18267e-32
      54.2000   5.08978e-32
      54.3000   3.06573e-32
      54.4000   1.29839e-32
      54.5000   7.08961e-33
      54.6000   5.07839e-33
      54.7000   3.85364e-33
      54.8000   2.70747e-33
      54.9000   1.83566e-33
      55.0000   1.33586e-33
      55.1000   9.66056e-34
      55.2000   6.93385e-34
      55.3000   6.40776e-34
      55.4000   5.71232e-34
      55.5000   4.10395e-34
      55.6000   2.63113e-34
      55.7000   1.89337e-34
      55.8000   1.29286e-34
      55.9000   9.06426e-35
      56.0000   6.63102e-35
      56.1000   4.58254e-35
      56.2000   4.24606e-35
      56.3000   3.46266e-35
      56.4000   2.50788e-35
      56.5000   1.72848e-35
      56.6000   1.19092e-35
      56.7000   8.67704e-36
      56.8000   6.36587e-36
      56.9000   4.51070e-36
      57.0000   3.01200e-36
      57.1000   2.01147e-36
      57.2000   1.38532e-36
      57.3000   9.80590e-37
      57.4000   7.00300e-37
      57.5000   4.96863e-37
      57.6000   3.23093e-37
      57.7000   2.24565e-37
      57.8000   2.03512e-37
      57.9000   1.52381e-37
      58.0000   1.08566e-37
      58.1000   7.16039e-38
      58.2000   4.12164e-38
      58.3000   2.71122e-38
      58.4000   2.05107e-38
      58.5000   1.63539e-38
      58.6000   1.11620e-38
      58.7000   7.53832e-39
      58.8000   5.06016e-39
      58.9000   3.40869e-39
      59.0000   2.47671e-39
      59.1000   1.83782e-39
      59.2000   1.35940e-39
      59.3000   1.00207e-39
      59.4000   7.35949e-40
      59.5000   5.18350e-40
      59.6000   3.42877e-40
      59.7000   2.62561e-40
      59.8000   1.82497e-40
      59.9000   1.08469e-40
      60.0000   7.98810e-41
      60.1000   5.89274e-41
      60.2000   4.33338e-41
      60.3000   3.17548e-41
      60.4000   2.32013e-41
      60.5000   1.71000e-41
      60.6000   1.27098e-41
      60.7000   1.00067e-41
      60.8000   8.25925e-42
      60.9000   6.80190e-42
      61.0000   5.62341e-42
      61.1000   4.65792e-42
      61.2000   3.87599e-42
      61.3000   3.21037e-42
      61.4000   2.65826e-42
      61.5000   2.21125e-42
      61.6000   1.75723e-42
      61.7000   1.38308e-42
      61.8000   1.08601e-42
      61.9000   8.58996e-43
      62.0000   6.58610e-43
      62.1000   4.76441e-43
      62.2000   3.34910e-43
      62.3000   2.42425e-43
      62.4000   2.01787e-43
      62.5000   1.72360e-43
      62.6000   1.49939e-43
      62.7000   1.27518e-43
      62.8000   1.12104e-43
      62.9000   8.26766e-44
      63.0000   5.74532e-44
      63.1000   3.78351e-44
      63.2000   3.22299e-44
      63.3000   2.52234e-44
      63.4000   2.24208e-44
      63.5000   1.54143e-44
      63.6000   1.26117e-44
      63.7000   9.80909e-45
      63.8000   9.80909e-45
      63.9000   7.00649e-45
      64.0000   2.80260e-45
      64.1000   2.80260e-45
      64.2000   2.80260e-45
      64.3000   2.80260e-45
      64.4000       0.00000
      64.5000       0.00000
      64.6000       0.00000
      64.7000       0.00000
      64.8000       0.00000
      64.9000       0.00000
      65.0000       0.00000
      65.1000       0.00000
      65.2000       0.00000
      65.3000       0.00000
      65.4000       0.00000
      65.5000       0.00000
      65.6000       0.00000
      65.7000       0.00000
      65.8000       0.00000
      65.9000       0.00000
      66.0000       0.00000
      66.1000       0.00000
      66.2000       0.00000
      66.3000       0.00000
      66.4000       0.00000
      66.5000       0.00000
      66.6000       0.00000
      66.7000       0.00000
      66.8000       0.00000
      66.9000       0.00000
      67.0000       0.00000
      67.1000       0.00000
      67.2000       0.00000
      67.3000       0.00000
      67.4000       0.00000
      67.5000       0.00000
      67.6000       0.00000
      67.7000       0.00000
      67.8000       0.00000
      67.9000       0.00000
      68.0000       0.00000
      68.1000       0.00000
      68.2000       0.00000
      68.3000       0.00000
      68.4000       0.00000
      68.5000       0.00000
      68.6000       0.00000
      68.7000       0.00000
      68.8000       0.00000
      68.9000       0.00000
      69.0000       0.00000
      69.1000       0.00000
      69.2000       0.00000
      69.3000       0.00000
      69.4000       0.00000
      69.5000       0.00000
      69.6000       0.00000
      69.7000       0.00000
      69.8000       0.00000
      69.9000       0.00000
      70.0000       0.00000
      70.1000       0.00000
      70.2000       0.00000
      70.3000       0.00000
      70.4000       0.00000
      70.5000       0.00000
      70.6000       0.00000
      70.7000       0.00000
      70.8000       0.00000
      70.9000       0.00000
      71.0000       0.00000
      71.1000       0.00000
      71.2000       0.00000
      71.3000       0.00000
      71.4000       0.00000
      71.5000       0.00000
      71.6000       0.00000
      71.7000       0.00000
      71.8000       0.00000
      71.9000       0.00000
      72.0000       0.00000
      72.1000       0.00000
      72.2000       0.00000
      72.3000       0.00000
      72.4000       0.00000
      72.5000       0.00000
      72.6000       0.00000
      72.7000       0.00000
      72.8000       0.00000
      72.9000       0.00000
      73.0000       0.00000
      73.1000       0.00000
      73.2000       0.00000
      73.3000       0.00000
      73.4000       0.00000
      73.5000       0.00000
      73.6000       0.00000
      73.7000       0.00000
      73.8000       0.00000
      73.9000       0.00000
      74.0000       0.00000
      74.1000       0.00000
      74.2000       0.00000
      74.3000       0.00000
      74.4000       0.00000
      74.5000       0.00000
      74.6000       0.00000
      74.7000       0.00000
      74.8000       0.00000
      74.9000       0.00000
      75.0000       0.00000
      75.1000       0.00000
      75.2000       0.00000
      75.3000       0.00000
      75.4000       0.00000
      75.5000       0.00000
      75.6000       0.00000
      75.7000       0.00000
      75.8000       0.00000
      75.9000       0.00000
      76.0000       0.00000
      76.1000       0.00000
      76.2000       0.00000
      76.3000       0.00000
      76.4000       0.00000
      76.5000       0.00000
      76.6000       0.00000
      76.7000       0.00000
      76.8000       0.00000
      76.9000       0.00000
      77.0000       0.00000
      77.1000       0.00000
      77.2000       0.00000
      77.3000       0.00000
      77.4000       0.00000
      77.5000       0.00000
      77.6000       0.00000
      77.7000       0.00000
      77.8000       0.00000
      77.9000       0.00000
      78.0000       0.00000
      78.1000       0.00000
      78.2000       0.00000
      78.3000       0.00000
      78.4000       0.00000
      78.5000       0.00000
      78.6000       0.00000
      78.7000       0.00000
      78.8000       0.00000
      78.9000       0.00000
      79.0000       0.00000
      79.1000       0.00000
      79.2000       0.00000
      79.3000       0.00000
      79.4000       0.00000
      79.5000       0.00000
      79.6000       0.00000
      79.7000       0.00000
      79.8000       0.00000
      79.9000       0.00000
      80.0000       0.00000
      80.1000       0.00000
      80.2000       0.00000
      80.3000       0.00000
      80.4000       0.00000
      80.5000       0.00000
      80.6000       0.00000
      80.7000       0.00000
      80.8000       0.00000
      80.9000       0.00000
      81.0000       0.00000
      81.1000       0.00000
      81.2000       0.00000
      81.3000       0.00000
      81.4000       0.00000
      81.5000       0.00000
      81.6000       0.00000
      81.7000       0.00000
      81.8000       0.00000
      81.9000       0.00000
      82.0000       0.00000
      82.1000       0.00000
      82.2000       0.00000
      82.3000       0.00000
      82.4000       0.00000
      82.5000       0.00000
      82.6000       0.00000
      82.7000       0.00000
      82.8000       0.00000
      82.9000       0.00000
      83.0000       0.00000
      83.1000       0.00000
      83.2000       0.00000
      83.3000       0.00000
      83.4000       0.00000
      83.5000       0.00000
      83.6000       0.00000
      83.7000       0.00000
      83.8000       0.00000
      83.9000       0.00000
      84.0000       0.00000
      84.1000       0.00000
      84.2000       0.00000
      84.3000       0.00000
      84.4000       0.00000
      84.5000       0.00000
      84.6000       0.00000
      84.7000       0.00000
      84.8000       0.00000
      84.9000       0.00000
      85.0000       0.00000
      85.1000       0.00000
      85.2000       0.00000
      85.3000       0.00000
      85.4000       0.00000
      85.5000       0.00000
      85.6000       0.00000
      85.7000       0.00000
      85.8000       0.00000
      85.9000       0.00000
      86.0000       0.00000
      86.1000       0.00000
      86.2000       0.00000
      86.3000       0.00000
      86.4000       0.00000
      86.5000       0.00000
      86.6000       0.00000
      86.7000       0.00000
      86.8000       0.00000
      86.9000       0.00000
      87.0000       0.00000
      87.1000       0.00000
      87.2000       0.00000
      87.3000       0.00000
      87.4000       0.00000
      87.5000       0.00000
      87.6000       0.00000
      87.7000       0.00000
      87.8000       0.00000
      87.9000       0.00000
      88.0000       0.00000
      88.1000       0.00000
      88.2000       0.00000
      88.3000       0.00000
      88.4000       0.00000
      88.5000       0.00000
      88.6000       0.00000
      88.7000       0.00000
      88.8000       0.00000
      88.9000       0.00000
      89.0000       0.00000
      89.1000       0.00000
      89.2000       0.00000
      89.3000       0.00000
      89.4000       0.00000
      89.5000       0.00000
      89.6000       0.00000
      89.7000       0.00000
      89.8000       0.00000
      89.9000       0.00000
      90.0000       0.00000
      90.1000       0.00000
      90.2000       0.00000
      90.3000       0.00000
      90.4000       0.00000
      90.5000       0.00000
      90.6000       0.00000
      90.7000       0.00000
      90.8000       0.00000
      90.9000       0.00000
      91.0000       0.00000
      91.1000       0.00000
      91.2000       0.00000
      91.3000       0.00000
      91.4000       0.00000
      91.5000       0.00000
      91.6000       0.00000
      91.7000       0.00000
      91.8000       0.00000
      91.9000       0.00000
      92.0000       0.00000
      92.1000       0.00000
      92.2000       0.00000
      92.3000       0.00000
      92.4000       0.00000
      92.5000       0.00000
      92.6000       0.00000
      92.7000       0.00000
      92.8000       0.00000
      92.9000       0.00000
      93.0000       0.00000
      93.1000       0.00000
      93.2000       0.00000
      93.3000       0.00000
      93.4000       0.00000
      93.5000       0.00000
      93.6000       0.00000
      93.7000       0.00000
      93.8000       0.00000
      93.9000       0.00000
      94.0000       0.00000
      94.1000       0.00000
      94.2000       0.00000
      94.3000       0.00000
      94.4000       0.00000
      94.5000       0.00000
      94.6000       0.00000
      94.7000       0.00000
      94.8000       0.00000
      94.9000       0.00000
      95.0000       0.00000
      95.1000       0.00000
      95.2000       0.00000
      95.3000       0.00000
      95.4000       0.00000
      95.5000       0.00000
      95.6000       0.00000
      95.7000       0.00000
      95.8000       0.00000
      95.9000       0.00000
      96.0000       0.00000
      96.1000       0.00000
      96.2000       0.00000
      96.3000       0.00000
      96.4000       0.00000
      96.5000       0.00000
      96.6000       0.00000
      96.7000       0.00000
      96.8000       0.00000
      96.9000       0.00000
      97.0000       0.00000
      97.1000       0.00000
      97.2000       0.00000
      97.3000       0.00000
      97.4000       0.00000
      97.5000       0.00000
      97.6000       0.00000
      97.7000       0.00000
      97.8000       0.00000
      97.9000       0.00000
      98.0000       0.00000
      98.1000       0.00000
      98.2000       0.00000
      98.3000       0.00000
      98.4000       0.00000
      98.5000       0.00000
      98.6000       0.00000
      98.7000       0.00000
      98.8000       0.00000
      98.9000       0.00000
      99.0000       0.00000
      99.1000       0.00000
      99.2000       0.00000
      99.3000       0.00000
      99.4000       0.00000
      99.5000       0.00000
      99.6000       0.00000
      99.7000       0.00000
      99.8000       0.00000
      99.9000       0.00000
      100.000       0.00000
      100.100       0.00000
      100.200       0.00000
      100.300       0.00000
      100.400       0.00000
      100.500       0.00000
      100.600       0.00000
      100.700       0.00000
      100.800       0.00000
      100.900       0.00000
      101.000       0.00000
      101.100       0.00000
      101.200       0.00000
      101.300       0.00000
      101.400       0.00000
      101.500       0.00000
      101.600       0.00000
      101.700       0.00000
      101.800       0.00000
      101.900       0.00000
      102.000       0.00000
      102.100       0.00000
      102.200       0.00000
      102.300       0.00000
      102.400       0.00000
      102.500       0.00000
      102.600       0.00000
      102.700       0.00000
      102.800       0.00000
      102.900       0.00000
      103.000       0.00000
      103.100       0.00000
      103.200       0.00000
      103.300       0.00000
      103.400       0.00000
      103.500       0.00000
      103.600       0.00000
      103.700       0.00000
      103.800       0.00000
      103.900       0.00000
      104.000       0.00000
      104.100       0.00000
      104.200       0.00000
      104.300       0.00000
      104.400       0.00000
      104.500       0.00000
      104.600       0.00000
      104.700       0.00000
      104.800       0.00000
      104.900       0.00000
      105.000       0.00000
      105.100       0.00000
      105.200       0.00000
      105.300       0.00000
      105.400       0.00000
      105.500       0.00000
      105.600       0.00000
      105.700       0.00000
      105.800       0.00000
      105.900       0.00000
      106.000       0.00000
      106.100       0.00000
      106.200       0.00000
      106.300       0.00000
      106.400       0.00000
      106.500       0.00000
      106.600       0.00000
      106.700       0.00000
      106.800       0.00000
      106.900       0.00000
      107.000       0.00000
      107.100       0.00000
      107.200       0.00000
      107.300       0.00000
      107.400       0.00000
      107.500       0.00000
      107.600       0.00000
      107.700       0.00000
      107.800       0.00000
      107.900       0.00000
      108.000       0.00000
      108.100       0.00000
      108.200       0.00000
      108.300       0.00000
      108.400       0.00000
      108.500       0.00000
      108.600       0.00000
      108.700       0.00000
      108.800       0.00000
      108.900       0.00000
      109.000       0.00000
      109.100       0.00000
      109.200       0.00000
      109.300       0.00000
      109.400       0.00000
      109.500       0.00000
      109.600       0.00000
      109.700       0.00000
      109.800       0.00000
      109.900       0.00000
      110.000       0.00000
      110.100       0.00000
      110.200       0.00000
      110.300       0.00000
      110.400       0.00000
      110.500       0.00000
      110.600   1.03906e-41
      110.700   2.67839e-29
      110.800   7.37565e-20
      110.900   2.63119e-15
      111.000   9.13109e-13
      111.100   3.28753e-11
      111.200   1.06077e-10
      111.300   2.01666e-10
      111.400   3.17937e-10
      111.500   3.53856e-10
      111.600   3.94417e-10
      111.700   4.89251e-10
      111.800   6.15682e-10
      111.900   6.80936e-10
      112.000   8.04018e-10
      112.100   9.99764e-10
      112.200   1.17176e-09
      112.300   1.28705e-09
      112.400   1.39798e-09
      112.500   1.55098e-09
      112.600   1.76245e-09
      112.700   1.97732e-09
      112.800   2.08411e-09
      112.900   2.28862e-09
      113.000   2.51011e-09
      113.100   2.68270e-09
      113.200   2.82467e-09
      113.300   2.84422e-09
      113.400   3.08421e-09
      113.500   3.33404e-09
      113.600   3.37052e-09
      113.700   3.60729e-09
      113.800   3.77977e-09
      113.900   3.93078e-09
      114.000   4.02338e-09
      114.100   4.08298e-09
      114.200   4.46455e-09
      114.300   4.71399e-09
      114.400   4.66178e-09
      114.500   4.51262e-09
      114.600   4.51010e-09
      114.700   4.53717e-09
      114.800   4.60866e-09
      114.900   4.78371e-09
      115.000   4.95240e-09
      115.100   5.05838e-09
      115.200   5.08609e-09
      115.300   5.11864e-09
      115.400   5.14675e-09
      115.500   5.17720e-09
      115.600   5.20580e-09
      115.700   5.23148e-09
      115.800   5.26121e-09
      115.900   5.28892e-09
      116.000   5.31409e-09
      116.100   5.32869e-09
      116.200   5.34094e-09
      116.300   5.35205e-09
      116.400   5.35397e-09
      116.500   5.31607e-09
      116.600   5.27718e-09
      116.700   5.23953e-09
      116.800   5.20096e-09
      116.900   5.15786e-09
      117.000   5.12043e-09
      117.100   5.09859e-09
      117.200   5.08759e-09
      117.300   5.06605e-09
      117.400   5.04385e-09
      117.500   5.01307e-09
      117.600   4.95830e-09
      117.700   4.89678e-09
      117.800   4.83286e-09
      117.900   4.76816e-09
      118.000   4.70135e-09
      118.100   4.63269e-09
      118.200   4.56715e-09
      118.300   4.50343e-09
      118.400   4.43002e-09
      118.500   4.35858e-09
      118.600   4.29293e-09
      118.700   4.22656e-09
      118.800   4.15891e-09
      118.900   4.09380e-09
      119.000   4.02430e-09
      119.100   3.94984e-09
      119.200   3.89378e-09
      119.300   3.86329e-09
      119.400   3.84079e-09
      119.500   3.81289e-09
      119.600   3.77228e-09
      119.700   3.72522e-09
      119.800   3.67082e-09
      119.900   3.60674e-09
      120.000   3.54671e-09
      120.100   3.49000e-09
      120.200   3.44644e-09
      120.300   3.41048e-09
      120.400   3.37475e-09
      120.500   3.32937e-09
      120.600   3.27694e-09
      120.700   3.22270e-09
      120.800   3.17066e-09
      120.900   3.13196e-09
      121.000   3.11340e-09
      121.100   3.09322e-09
      121.200   3.06887e-09
      121.300   3.03796e-09
      121.400   3.00200e-09
      121.500   2.96202e-09
      121.600   2.89489e-09
      121.700   2.83169e-09
      121.800   2.76419e-09
      121.900   2.69713e-09
      122.000   2.62765e-09
      122.100   2.56200e-09
      122.200   2.49793e-09
      122.300   2.44710e-09
      122.400   2.41012e-09
      122.500   2.37640e-09
      122.600   2.34146e-09
      122.700   2.30686e-09
      122.800   2.26986e-09
      122.900   2.23499e-09
      123.000   2.21507e-09
      123.100   2.22058e-09
      123.200   2.23177e-09
      123.300   2.26879e-09
      123.400   2.31636e-09
      123.500   2.37901e-09
      123.600   2.43183e-09
      123.700   2.45078e-09
      123.800   2.44982e-09
      123.900   2.45580e-09
      124.000   2.47292e-09
      124.100   2.52767e-09
      124.200   2.66680e-09
      124.300   2.88247e-09
      124.400   3.08801e-09
      124.500   3.13665e-09
      124.600   3.11051e-09
      124.700   3.06569e-09
      124.800   3.02230e-09
      124.900   2.97944e-09
      125.000   2.93703e-09
      125.100   2.89422e-09
      125.200   2.85189e-09
      125.300   2.81012e-09
      125.400   2.76895e-09
      125.500   2.72836e-09
      125.600   2.67684e-09
      125.700   2.62358e-09
      125.800   2.57807e-09
      125.900   2.56060e-09
      126.000   2.54516e-09
      126.100   2.52981e-09
      126.200   2.51455e-09
      126.300   2.49938e-09
      126.400   2.48429e-09
      126.500   2.46928e-09
      126.600   2.45437e-09
      126.700   2.43954e-09
      126.800   2.42480e-09
      126.900   2.41014e-09
      127.000   2.39549e-09
      127.100   2.37586e-09
      127.200   2.35059e-09
      127.300   2.32366e-09
      127.400   2.29702e-09
      127.500   2.27066e-09
      127.600   2.24460e-09
      127.700   2.21881e-09
      127.800   2.19331e-09
      127.900   2.16807e-09
      128.000   2.14311e-09
      128.100   2.11841e-09
      128.200   2.09398e-09
      128.300   2.06981e-09
      128.400   2.04590e-09
      128.500   2.02225e-09
      128.600   1.99886e-09
      128.700   1.97573e-09
      128.800   1.95285e-09
      128.900   1.93022e-09
      129.000   1.90784e-09
      129.100   1.88568e-09
      129.200   1.86365e-09
      129.300   1.84185e-09
      129.400   1.82030e-09
      129.500   1.79900e-09
      129.600   1.77794e-09
      129.700   1.75711e-09
      129.800   1.73653e-09
      129.900   1.71618e-09
      130.000   1.69607e-09
      130.100   1.67619e-09
      130.200   1.65653e-09
      130.300   1.63711e-09
      130.400   1.61791e-09
      130.500   1.59892e-09
      130.600   1.58009e-09
      130.700   1.56144e-09
      130.800   1.54301e-09
      130.900   1.52480e-09
      131.000   1.50679e-09
      131.100   1.48900e-09
      131.200   1.47139e-09
      131.300   1.45395e-09
      131.400   1.43671e-09
      131.500   1.41966e-09
      131.600   1.40281e-09
      131.700   1.38614e-09
      131.800   1.36966e-09
      131.900   1.35336e-09
      132.000   1.33724e-09
      132.100   1.32130e-09
      132.200   1.30554e-09
      132.300   1.28995e-09
      132.400   1.27454e-09
      132.500   1.25931e-09
      132.600   1.24425e-09
      132.700   1.22850e-09
      132.800   1.21264e-09
      132.900   1.19693e-09
      133.000   1.18142e-09
      133.100   1.16609e-09
      133.200   1.15096e-09
      133.300   1.13600e-09
      133.400   1.12123e-09
      133.500   1.10663e-09
      133.600   1.09222e-09
      133.700   1.07799e-09
      133.800   1.06394e-09
      133.900   1.05008e-09
      134.000   1.03640e-09
      134.100   1.02288e-09
      134.200   1.00955e-09
      134.300   9.96380e-10
      134.400   9.83380e-10
      134.500   9.70549e-10
      134.600   9.57878e-10
      134.700   9.45369e-10
      134.800   9.33022e-10
      134.900   9.20838e-10
      135.000   9.08807e-10
      135.100   8.96938e-10
      135.200   8.85222e-10
      135.300   8.73655e-10
      135.400   8.62231e-10
      135.500   8.50926e-10
      135.600   8.39742e-10
      135.700   8.28699e-10
      135.800   8.17792e-10
      135.900   8.07024e-10
      136.000   7.96388e-10
      136.100   7.85885e-10
      136.200   7.75526e-10
      136.300   7.65292e-10
      136.400   7.55190e-10
      136.500   7.45215e-10
      136.600   7.35361e-10
      136.700   7.25631e-10
      136.800   7.16024e-10
      136.900   7.06541e-10
      137.000   6.97182e-10
      137.100   6.87956e-10
      137.200   6.78851e-10
      137.300   6.69870e-10
      137.400   6.61003e-10
      137.500   6.52247e-10
      137.600   6.43599e-10
      137.700   6.35051e-10
      137.800   6.26606e-10
      137.900   6.18267e-10
      138.000   6.10037e-10
      138.100   6.01913e-10
      138.200   5.93906e-10
      138.300   5.86002e-10
      138.400   5.78203e-10
      138.500   5.70504e-10
      138.600   5.62904e-10
      138.700   5.55405e-10
      138.800   5.48003e-10
      138.900   5.40696e-10
      139.000   5.33485e-10
      139.100   5.26375e-10
      139.200   5.19394e-10
      139.300   5.12539e-10
      139.400   5.05784e-10
      139.500   4.99114e-10
      139.600   4.92527e-10
      139.700   4.86026e-10
      139.800   4.79607e-10
      139.900   4.73268e-10
      140.000   4.67014e-10
      140.100   4.60840e-10
      140.200   4.54744e-10
      140.300   4.48726e-10
      140.400   4.42782e-10
      140.500   4.36913e-10
      140.600   4.31116e-10
      140.700   4.25392e-10
      140.800   4.19749e-10
      140.900   4.14178e-10
      141.000   4.08674e-10
      141.100   4.03240e-10
      141.200   3.97876e-10
      141.300   3.92577e-10
      141.400   3.87361e-10
      141.500   3.82289e-10
      141.600   3.77335e-10
      141.700   3.72443e-10
      141.800   3.67613e-10
      141.900   3.62842e-10
      142.000   3.58129e-10
      142.100   3.53613e-10
      142.200   3.49556e-10
      142.300   3.45889e-10
      142.400   3.42262e-10
      142.500   3.38668e-10
      142.600   3.35107e-10
      142.700   3.31580e-10
      142.800   3.28087e-10
      142.900   3.24628e-10
      143.000   3.21202e-10
      143.100   3.17811e-10
      143.200   3.14455e-10
      143.300   3.11130e-10
      143.400   3.07839e-10
      143.500   3.04580e-10
      143.600   3.01351e-10
      143.700   2.98179e-10
      143.800   2.95369e-10
      143.900   2.92645e-10
      144.000   2.89947e-10
      144.100   2.87272e-10
      144.200   2.84620e-10
      144.300   2.81989e-10
      144.400   2.79410e-10
      144.500   2.77268e-10
      144.600   2.75272e-10
      144.700   2.73301e-10
      144.800   2.71338e-10
      144.900   2.69385e-10
      145.000   2.67440e-10
      145.100   2.65507e-10
      145.200   2.63581e-10
      145.300   2.61666e-10
      145.400   2.59760e-10
      145.500   2.57863e-10
      145.600   2.55973e-10
      145.700   2.54092e-10
      145.800   2.52221e-10
      145.900   2.50361e-10
      146.000   2.48507e-10
      146.100   2.46635e-10
      146.200   2.44755e-10
      146.300   2.42884e-10
      146.400   2.41021e-10
      146.500   2.39171e-10
      146.600   2.37330e-10
      146.700   2.35499e-10
      146.800   2.33664e-10
      146.900   2.31818e-10
      147.000   2.29982e-10
      147.100   2.28157e-10
      147.200   2.26344e-10
      147.300   2.24542e-10
      147.400   2.22751e-10
      147.500   2.20971e-10
      147.600   2.19201e-10
      147.700   2.17443e-10
      147.800   2.15697e-10
      147.900   2.13961e-10
      148.000   2.12236e-10
      148.100   2.10522e-10
      148.200   2.08820e-10
      148.300   2.07129e-10
      148.400   2.05760e-10
      148.500   2.04640e-10
      148.600   2.03608e-10
      148.700   2.02578e-10
      148.800   2.01550e-10
      148.900   2.00527e-10
      149.000   1.99506e-10
      149.100   1.98489e-10
      149.200   1.97473e-10
      149.300   1.96459e-10
      149.400   1.95449e-10
      149.500   1.94442e-10
      149.600   1.93436e-10
      149.700   1.92434e-10
      149.800   1.91434e-10
      149.900   1.90437e-10
      150.000   1.89444e-10
      150.100   1.88454e-10
      150.200   1.87464e-10
      150.300   1.86478e-10
      150.400   1.85495e-10
      150.500   1.84514e-10
      150.600   1.83536e-10
      150.700   1.82561e-10
      150.800   1.81588e-10
      150.900   1.80618e-10
      151.000   1.79649e-10
      151.100   1.78684e-10
      151.200   1.77721e-10
      151.300   1.76761e-10
      151.400   1.75804e-10
      151.500   1.74850e-10
      151.600   1.73900e-10
      151.700   1.72955e-10
      151.800   1.72014e-10
      151.900   1.71075e-10
      152.000   1.70203e-10
      152.100   1.69996e-10
      152.200   1.69872e-10
      152.300   1.69745e-10
      152.400   1.69615e-10
      152.500   1.69484e-10
      152.600   1.69351e-10
      152.700   1.68551e-10
      152.800   1.67514e-10
      152.900   1.66479e-10
      153.000   1.65449e-10
      153.100   1.64423e-10
      153.200   1.63401e-10
      153.300   1.62597e-10
      153.400   1.62000e-10
      153.500   1.61426e-10
      153.600   1.60853e-10
      153.700   1.60282e-10
      153.800   1.59711e-10
      153.900   1.59140e-10
      154.000   1.58589e-10
      154.100   1.58080e-10
      154.200   1.57585e-10
      154.300   1.57090e-10
      154.400   1.56596e-10
      154.500   1.56101e-10
      154.600   1.55606e-10
      154.700   1.55112e-10
      154.800   1.54618e-10
      154.900   1.54123e-10
      155.000   1.53629e-10
      155.100   1.53135e-10
      155.200   1.52639e-10
      155.300   1.52144e-10
      155.400   1.51649e-10
      155.500   1.51154e-10
      155.600   1.50658e-10
      155.700   1.50161e-10
      155.800   1.49666e-10
      155.900   1.49168e-10
      156.000   1.48672e-10
      156.100   1.48174e-10
      156.200   1.47676e-10
      156.300   1.47178e-10
      156.400   1.46679e-10
      156.500   1.46173e-10
      156.600   1.45635e-10
      156.700   1.45096e-10
      156.800   1.44556e-10
      156.900   1.44016e-10
      157.000   1.43478e-10
      157.100   1.42891e-10
      157.200   1.41977e-10
      157.300   1.40714e-10
      157.400   1.39462e-10
      157.500   1.38218e-10
      157.600   1.36983e-10
      157.700   1.35756e-10
      157.800   1.34539e-10
      157.900   1.34064e-10
      158.000   1.33655e-10
      158.100   1.33247e-10
      158.200   1.32837e-10
      158.300   1.32427e-10
      158.400   1.32018e-10
      158.500   1.31608e-10
      158.600   1.31197e-10
      158.700   1.30786e-10
      158.800   1.30376e-10
      158.900   1.29964e-10
      159.000   1.29553e-10
      159.100   1.29119e-10
      159.200   1.28425e-10
      159.300   1.27304e-10
      159.400   1.26192e-10
      159.500   1.25089e-10
      159.600   1.23993e-10
      159.700   1.22906e-10
      159.800   1.21827e-10
      159.900   1.21274e-10
      160.000   1.21078e-10
      160.100   1.20892e-10
      160.200   1.20705e-10
      160.300   1.20517e-10
      160.400   1.20329e-10
      160.500   1.20080e-10
      160.600   1.19489e-10
      160.700   1.18649e-10
      160.800   1.17813e-10
      160.900   1.16981e-10
      161.000   1.16153e-10
      161.100   1.15330e-10
      161.200   1.14512e-10
      161.300   1.13698e-10
      161.400   1.12888e-10
      161.500   1.12083e-10
      161.600   1.11281e-10
      161.700   1.10483e-10
      161.800   1.09689e-10
      161.900   1.08914e-10
      162.000   1.08270e-10
      162.100   1.07706e-10
      162.200   1.07143e-10
      162.300   1.06582e-10
      162.400   1.06022e-10
      162.500   1.05464e-10
      162.600   1.04907e-10
      162.700   1.04352e-10
      162.800   1.03798e-10
      162.900   1.03246e-10
      163.000   1.02695e-10
      163.100   1.02146e-10
      163.200   1.01598e-10
      163.300   1.01052e-10
      163.400   1.00508e-10
      163.500   9.99649e-11
      163.600   9.94236e-11
      163.700   9.88838e-11
      163.800   9.83465e-11
      163.900   9.78105e-11
      164.000   9.72760e-11
      164.100   9.66294e-11
      164.200   9.56762e-11
      164.300   9.47366e-11
      164.400   9.38053e-11
      164.500   9.28823e-11
      164.600   9.19676e-11
      164.700   9.10603e-11
      164.800   9.02676e-11
      164.900   8.97138e-11
      165.000   8.92569e-11
      165.100   8.88013e-11
      165.200   8.83472e-11
      165.300   8.78947e-11
      165.400   8.74443e-11
      165.500   8.69953e-11
      165.600   8.62512e-11
      165.700   8.53841e-11
      165.800   8.45152e-11
      165.900   8.36544e-11
      166.000   8.28024e-11
      166.100   8.19581e-11
      166.200   8.11218e-11
      166.300   8.02935e-11
      166.400   7.94728e-11
      166.500   7.86595e-11
      166.600   7.78539e-11
      166.700   7.70559e-11
      166.800   7.62644e-11
      166.900   7.54807e-11
      167.000   7.47056e-11
      167.100   7.39364e-11
      167.200   7.31742e-11
      167.300   7.24193e-11
      167.400   7.16716e-11
      167.500   7.09305e-11
      167.600   7.01965e-11
      167.700   6.94694e-11
      167.800   6.87490e-11
      167.900   6.80353e-11
      168.000   6.73281e-11
      168.100   6.66275e-11
      168.200   6.59334e-11
      168.300   6.52457e-11
      168.400   6.45645e-11
      168.500   6.38954e-11
      168.600   6.33711e-11
      168.700   6.29241e-11
      168.800   6.24797e-11
      168.900   6.20378e-11
      169.000   6.15987e-11
      169.100   6.11614e-11
      169.200   6.07271e-11
      169.300   6.02950e-11
      169.400   5.98654e-11
      169.500   5.94347e-11
      169.600   5.89925e-11
      169.700   5.85372e-11
      169.800   5.80800e-11
      169.900   5.76251e-11
      170.000   5.71727e-11
      170.100   5.65292e-11
      170.200   5.56090e-11
      170.300   7.24178e-11
      170.400   1.55447e-10
      170.500   2.94340e-10
      170.600   4.32870e-10
      170.700   5.43070e-10
      170.800   5.93456e-10
      170.900   5.95816e-10
      171.000   5.87523e-10
      171.100   5.79551e-10
      171.200   5.71651e-10
      171.300   5.63822e-10
      171.400   5.56067e-10
      171.500   5.48383e-10
      171.600   5.40774e-10
      171.700   5.33246e-10
      171.800   5.25800e-10
      171.900   5.18440e-10
      172.000   5.11175e-10
      172.100   5.04002e-10
      172.200   4.96930e-10
      172.300   4.89940e-10
      172.400   4.82951e-10
      172.500   4.76045e-10
      172.600   4.69243e-10
      172.700   4.62545e-10
      172.800   4.55946e-10
      172.900   4.49445e-10
      173.000   4.43048e-10
      173.100   4.36749e-10
      173.200   4.30545e-10
      173.300   4.24438e-10
      173.400   4.18421e-10
      173.500   4.12498e-10
      173.600   4.06668e-10
      173.700   4.00924e-10
      173.800   3.95270e-10
      173.900   3.89702e-10
      174.000   3.84215e-10
      174.100   3.78811e-10
      174.200   3.73488e-10
      174.300   3.68241e-10
      174.400   3.63071e-10
      174.500   3.57974e-10
      174.600   3.52948e-10
      174.700   3.47996e-10
      174.800   3.43113e-10
      174.900   3.38297e-10
      175.000   3.33545e-10
      175.100   3.28857e-10
      175.200   3.24247e-10
      175.300   3.19695e-10
      175.400   3.15205e-10
      175.500   3.10779e-10
      175.600   3.06410e-10
      175.700   3.02103e-10
      175.800   2.97852e-10
      175.900   2.93659e-10
      176.000   2.89523e-10
      176.100   2.85445e-10
      176.200   2.81423e-10
      176.300   2.77454e-10
      176.400   2.73541e-10
      176.500   2.69672e-10
      176.600   2.64338e-10
      176.700   2.58392e-10
      176.800   2.52577e-10
      176.900   2.46889e-10
      177.000   2.41325e-10
      177.100   2.35882e-10
      177.200   2.30560e-10
      177.300   2.25354e-10
      177.400   2.20259e-10
      177.500   2.15275e-10
      177.600   2.10401e-10
      177.700   2.05635e-10
      177.800   2.00972e-10
      177.900   1.96408e-10
      178.000   1.91958e-10
      178.100   1.87606e-10
      178.200   1.83348e-10
      178.300   1.79182e-10
      178.400   1.75110e-10
      178.500   1.71126e-10
      178.600   1.67303e-10
      178.700   1.63970e-10
      178.800   1.61340e-10
      178.900   1.58749e-10
      179.000   1.56198e-10
      179.100   1.53686e-10
      179.200   1.51213e-10
      179.300   1.48778e-10
      179.400   1.46381e-10
      179.500   1.44022e-10
      179.600   1.41701e-10
      179.700   1.39417e-10
      179.800   1.37169e-10
      179.900   1.34956e-10
      180.000   1.32779e-10
      180.100   1.30637e-10
      180.200   1.28531e-10
      180.300   1.26458e-10
      180.400   1.24419e-10
      180.500   1.22414e-10
      180.600   1.20441e-10
      180.700   1.18501e-10
      180.800   1.16594e-10
      180.900   1.14717e-10
      181.000   1.12870e-10
      181.100   1.11054e-10
      181.200   1.09269e-10
      181.300   1.07513e-10
      181.400   1.05786e-10
      181.500   1.04087e-10
      181.600   1.02416e-10
      181.700   1.00772e-10
      181.800   9.91558e-11
      181.900   9.75656e-11
      182.000   9.60021e-11
      182.100   9.44630e-11
      182.200   9.29608e-11
      182.300   9.15853e-11
      182.400   9.02375e-11
      182.500   8.89095e-11
      182.600   8.76011e-11
      182.700   8.63119e-11
      182.800   8.50417e-11
      182.900   8.37899e-11
      183.000   8.25567e-11
      183.100   8.13418e-11
      183.200   8.01444e-11
      183.300   7.89640e-11
      183.400   7.78010e-11
      183.500   7.66550e-11
      183.600   7.55256e-11
      183.700   7.44126e-11
      183.800   7.33168e-11
      183.900   7.22373e-11
      184.000   7.11734e-11
      184.100   7.01254e-11
      184.200   6.90927e-11
      184.300   6.80751e-11
      184.400   6.70727e-11
      184.500   6.60849e-11
      184.600   6.51112e-11
      184.700   6.41519e-11
      184.800   6.32067e-11
      184.900   6.22752e-11
      185.000   6.13571e-11
      185.100   6.04617e-11
      185.200   5.96253e-11
      185.300   5.88608e-11
      185.400   5.81057e-11
      185.500   5.73600e-11
      185.600   5.66237e-11
      185.700   5.58965e-11
      185.800   5.51790e-11
      185.900   5.44705e-11
      186.000   5.37707e-11
      186.100   5.30796e-11
      186.200   5.23968e-11
      186.300   5.17222e-11
      186.400   5.10562e-11
      186.500   5.03983e-11
      186.600   4.97481e-11
      186.700   4.91056e-11
      186.800   4.84707e-11
      186.900   4.78437e-11
      187.000   4.72242e-11
      187.100   4.66116e-11
      187.200   4.60069e-11
      187.300   4.54098e-11
      187.400   4.48197e-11
      187.500   4.42367e-11
      187.600   4.36608e-11
      187.700   4.30919e-11
      187.800   4.25299e-11
      187.900   4.19747e-11
      188.000   4.14264e-11
      188.100   4.08608e-11
      188.200   4.02185e-11
      188.300   3.94803e-11
      188.400   3.87552e-11
      188.500   3.80431e-11
      188.600   3.73440e-11
      188.700   3.66578e-11
      188.800   3.59841e-11
      188.900   3.53225e-11
      189.000   3.46728e-11
      189.100   3.40346e-11
      189.200   3.34080e-11
      189.300   3.27928e-11
      189.400   3.21888e-11
      189.500   3.15987e-11
      189.600   3.10603e-11
      189.700   3.06894e-11
      189.800   3.03257e-11
      189.900   2.99666e-11
      190.000   2.96121e-11
      190.100   2.92620e-11
      190.200   2.89161e-11
      190.300   2.85745e-11
      190.400   2.82368e-11
      190.500   2.79033e-11
      190.600   2.75740e-11
      190.700   2.72486e-11
      190.800   2.69272e-11
      190.900   2.66097e-11
      191.000   2.62962e-11
      191.100   2.59867e-11
      191.200   2.56807e-11
      191.300   2.53785e-11
      191.400   2.50800e-11
      191.500   2.47850e-11
      191.600   2.44935e-11
      191.700   2.42056e-11
      191.800   2.39209e-11
      191.900   2.36397e-11
      192.000   2.33620e-11
      192.100   2.30875e-11
      192.200   2.28167e-11
      192.300   2.25489e-11
      192.400   2.22844e-11
      192.500   2.20076e-11
      192.600   2.16848e-11
      192.700   2.13271e-11
      192.800   2.09752e-11
      192.900   2.06288e-11
      193.000   2.02882e-11
      193.100   1.99534e-11
      193.200   1.96243e-11
      193.300   1.93007e-11
      193.400   1.89825e-11
      193.500   1.86695e-11
      193.600   1.83616e-11
      193.700   1.80587e-11
      193.800   1.77609e-11
      193.900   1.74681e-11
      194.000   1.71851e-11
      194.100   1.70053e-11
      194.200   1.68609e-11
      194.300   1.67202e-11
      194.400   1.65808e-11
      194.500   1.64426e-11
      194.600   1.63056e-11
      194.700   1.61698e-11
      194.800   1.60353e-11
      194.900   1.59018e-11
      195.000   1.57695e-11
      195.100   1.56384e-11
      195.200   1.55085e-11
      195.300   1.53796e-11
      195.400   1.52517e-11
      195.500   1.51231e-11
      195.600   1.49487e-11
      195.700   1.46980e-11
      195.800   1.44513e-11
      195.900   1.42086e-11
      196.000   1.39674e-11
      196.100   1.37301e-11
      196.200   1.34967e-11
      196.300   1.32671e-11
      196.400   1.30411e-11
      196.500   1.28188e-11
      196.600   1.26002e-11
      196.700   1.23850e-11
      196.800   1.21735e-11
      196.900   1.19656e-11
      197.000   1.17611e-11
      197.100   1.15598e-11
      197.200   1.13619e-11
      197.300   1.11670e-11
      197.400   1.09753e-11
      197.500   1.07867e-11
      197.600   1.06011e-11
      197.700   1.04189e-11
      197.800   1.02397e-11
      197.900   1.00633e-11
      198.000   9.88983e-12
      198.100   9.71919e-12
      198.200   9.55131e-12
      198.300   9.38610e-12
      198.400   9.22370e-12
      198.500   9.06420e-12
      198.600   8.90739e-12
      198.700   8.76636e-12
      198.800   8.64615e-12
      198.900   8.53661e-12
      199.000   8.42833e-12
      199.100   8.32137e-12
      199.200   8.21571e-12
      199.300   8.11151e-12
      199.400   8.00859e-12
      199.500   7.90694e-12
      199.600   7.80651e-12
      199.700   7.70733e-12
      199.800   7.60939e-12
      199.900   7.51264e-12
      200.000   7.41707e-12
      200.100   7.32318e-12
      200.200   7.23011e-12
      200.300   7.13828e-12
      200.400   7.04756e-12
      200.500   6.95796e-12
      200.600   6.86953e-12
      200.700   6.78222e-12
      200.800   6.69595e-12
      200.900   6.61084e-12
      201.000   6.52679e-12
      201.100   6.44386e-12
      201.200   6.36197e-12
      201.300   6.28111e-12
      201.400   6.20130e-12
      201.500   6.12249e-12
      201.600   6.04465e-12
      201.700   5.96783e-12
      201.800   5.89197e-12
      201.900   5.81532e-12
      202.000   5.71152e-12
      202.100   5.59618e-12
      202.200   5.48320e-12
      202.300   5.37301e-12
      202.400   5.26597e-12
      202.500   5.16133e-12
      202.600   5.05871e-12
      202.700   4.95816e-12
      202.800   4.85962e-12
      202.900   4.76308e-12
      203.000   4.66846e-12
      203.100   4.57577e-12
      203.200   4.48485e-12
      203.300   4.39571e-12
      203.400   4.30834e-12
      203.500   4.22271e-12
      203.600   4.14155e-12
      203.700   4.06971e-12
      203.800   4.00015e-12
      203.900   3.93185e-12
      204.000   3.86471e-12
      204.100   3.79874e-12
      204.200   3.73392e-12
      204.300   3.67020e-12
      204.400   3.60760e-12
      204.500   3.54608e-12
      204.600   3.48562e-12
      204.700   3.42620e-12
      204.800   3.36786e-12
      204.900   3.31055e-12
      205.000   3.25423e-12
      205.100   3.19889e-12
      205.200   3.14449e-12
      205.300   3.09104e-12
      205.400   3.03852e-12
      205.500   2.98688e-12
      205.600   2.93615e-12
      205.700   2.88584e-12
      205.800   2.83628e-12
      205.900   2.78760e-12
      206.000   2.73979e-12
      206.100   2.69279e-12
      206.200   2.64658e-12
      206.300   2.60117e-12
      206.400   2.55655e-12
      206.500   2.51267e-12
      206.600   2.46954e-12
      206.700   2.42715e-12
      206.800   2.38546e-12
      206.900   2.34448e-12
      207.000   2.30419e-12
      207.100   2.26461e-12
      207.200   2.22571e-12
      207.300   2.18744e-12
      207.400   2.14981e-12
      207.500   2.11281e-12
      207.600   2.07644e-12
      207.700   2.04066e-12
      207.800   2.00548e-12
      207.900   1.97088e-12
      208.000   1.93686e-12
      208.100   1.90341e-12
      208.200   1.87051e-12
      208.300   1.83816e-12
      208.400   1.80637e-12
      208.500   1.77511e-12
      208.600   1.74436e-12
      208.700   1.71412e-12
      208.800   1.68438e-12
      208.900   1.65417e-12
      209.000   1.62030e-12
      209.100   1.58433e-12
      209.200   1.54913e-12
      209.300   1.51468e-12
      209.400   1.48098e-12
      209.500   1.44800e-12
      209.600   1.41572e-12
      209.700   1.38416e-12
      209.800   1.35332e-12
      209.900   1.32312e-12
      210.000   1.29359e-12
      210.100   1.26469e-12
      210.200   1.23642e-12
      210.300   1.20877e-12
      210.400   1.18172e-12
      210.500   1.15525e-12
      210.600   1.12936e-12
      210.700   1.10404e-12
      210.800   1.07927e-12
      210.900   1.05503e-12
      211.000   1.03133e-12
      211.100   1.00815e-12
      211.200   9.85477e-13
      211.300   9.63321e-13
      211.400   9.41665e-13
      211.500   9.20472e-13
      211.600   8.99749e-13
      211.700   8.79485e-13
      211.800   8.59655e-13
      211.900   8.40264e-13
      212.000   8.21312e-13
      212.100   8.02770e-13
      212.200   7.84634e-13
      212.300   7.66193e-13
      212.400   7.46110e-13
      212.500   7.25731e-13
      212.600   7.05898e-13
      212.700   6.86592e-13
      212.800   6.67802e-13
      212.900   6.49521e-13
      213.000   6.31726e-13
      213.100   6.14426e-13
      213.200   5.97587e-13
      213.300   5.81203e-13
      213.400   5.65254e-13
      213.500   5.49735e-13
      213.600   5.34632e-13
      213.700   5.19938e-13
      213.800   5.05636e-13
      213.900   4.91728e-13
      214.000   4.78191e-13
      214.100   4.65234e-13
      214.200   4.55196e-13
      214.300   4.47063e-13
      214.400   4.39074e-13
      214.500   4.31227e-13
      214.600   4.23521e-13
      214.700   4.15953e-13
      214.800   4.08521e-13
      214.900   4.01224e-13
      215.000   3.94054e-13
      215.100   3.87015e-13
      215.200   3.80105e-13
      215.300   3.73323e-13
      215.400   3.66661e-13
      215.500   3.60119e-13
      215.600   3.53700e-13
      215.700   3.47392e-13
      215.800   3.41197e-13
      215.900   3.35118e-13
      216.000   3.28637e-13
      216.100   3.21061e-13
      216.200   3.13202e-13
      216.300   3.05536e-13
      216.400   2.98057e-13
      216.500   2.90758e-13
      216.600   2.83641e-13
      216.700   2.76699e-13
      216.800   2.69925e-13
      216.900   2.63319e-13
      217.000   2.56874e-13
      217.100   2.50585e-13
      217.200   2.44452e-13
      217.300   2.38469e-13
      217.400   2.32631e-13
      217.500   2.26939e-13
      217.600   2.21382e-13
      217.700   2.15961e-13
      217.800   2.10674e-13
      217.900   2.05498e-13
      218.000   1.99954e-13
      218.100   1.94558e-13
      218.200   1.89306e-13
      218.300   1.84197e-13
      218.400   1.79230e-13
      218.500   1.74393e-13
      218.600   1.69687e-13
      218.700   1.65105e-13
      218.800   1.60645e-13
      218.900   1.56307e-13
      219.000   1.52082e-13
      219.100   1.47968e-13
      219.200   1.43966e-13
      219.300   1.40071e-13
      219.400   1.36278e-13
      219.500   1.32586e-13
      219.600   1.28993e-13
      219.700   1.25495e-13
      219.800   1.22092e-13
      219.900   1.18779e-13
      220.000   1.15553e-13
      220.100   1.12413e-13
      220.200   1.09357e-13
      220.300   1.06382e-13
      220.400   1.03487e-13
      220.500   1.00669e-13
      220.600   9.79274e-14
      220.700   9.52573e-14
      220.800   9.26582e-14
      220.900   9.01302e-14
      221.000   8.76687e-14
      221.100   8.52723e-14
      221.200   8.29414e-14
      221.300   8.06724e-14
      221.400   7.84637e-14
      221.500   7.63148e-14
      221.600   7.42232e-14
      221.700   7.21875e-14
      221.800   7.03362e-14
      221.900   6.88737e-14
      222.000   6.75366e-14
      222.100   6.62243e-14
      222.200   6.49373e-14
      222.300   6.36744e-14
      222.400   6.24358e-14
      222.500   6.12205e-14
      222.600   6.00287e-14
      222.700   5.88593e-14
      222.800   5.77118e-14
      222.900   5.65864e-14
      223.000   5.54823e-14
      223.100   5.43991e-14
      223.200   5.33368e-14
      223.300   5.22945e-14
      223.400   5.12723e-14
      223.500   5.02692e-14
      223.600   4.92858e-14
      223.700   4.83209e-14
      223.800   4.73571e-14
      223.900   4.62929e-14
      224.000   4.52346e-14
      224.100   4.42000e-14
      224.200   4.31886e-14
      224.300   4.21998e-14
      224.400   4.12328e-14
      224.500   4.02879e-14
      224.600   3.93637e-14
      224.700   3.84608e-14
      224.800   3.75777e-14
      224.900   3.67142e-14
      225.000   3.58703e-14
      225.100   3.50452e-14
      225.200   3.42384e-14
      225.300   3.34504e-14
      225.400   3.26794e-14
      225.500   3.19259e-14
      225.600   3.11894e-14
      225.700   3.04697e-14
      225.800   2.97658e-14
      225.900   2.92414e-14
      226.000   2.87926e-14
      226.100   2.83573e-14
      226.200   2.79285e-14
      226.300   2.75079e-14
      226.400   2.70947e-14
      226.500   2.66868e-14
      226.600   2.62843e-14
      226.700   2.58875e-14
      226.800   2.54962e-14
      226.900   2.51106e-14
      227.000   2.47305e-14
      227.100   2.43560e-14
      227.200   2.39872e-14
      227.300   2.36239e-14
      227.400   2.32659e-14
      227.500   2.29134e-14
      227.600   2.25660e-14
      227.700   2.22240e-14
      227.800   2.18871e-14
      227.900   2.15285e-14
      228.000   2.11064e-14
      228.100   2.06533e-14
      228.200   2.02096e-14
      228.300   1.97755e-14
      228.400   1.93507e-14
      228.500   1.89349e-14
      228.600   1.85280e-14
      228.700   1.81299e-14
      228.800   1.77402e-14
      228.900   1.73590e-14
      229.000   1.69859e-14
      229.100   1.66209e-14
      229.200   1.62636e-14
      229.300   1.59141e-14
      229.400   1.55721e-14
      229.500   1.52374e-14
      229.600   1.49099e-14
      229.700   1.45895e-14
      229.800   1.42760e-14
      229.900   1.39693e-14
      230.000   1.36659e-14
      230.100   1.33438e-14
      230.200   1.30141e-14
      230.300   1.26928e-14
      230.400   1.23793e-14
      230.500   1.20736e-14
      230.600   1.17756e-14
      230.700   1.14848e-14
      230.800   1.12013e-14
      230.900   1.09248e-14
      231.000   1.06550e-14
      231.100   1.03918e-14
      231.200   1.01352e-14
      231.300   9.88498e-15
      231.400   9.64096e-15
      231.500   9.40282e-15
      231.600   9.17050e-15
      231.700   8.94398e-15
      231.800   8.72307e-15
      231.900   8.50755e-15
      232.000   8.29733e-15
      232.100   8.09226e-15
      232.200   7.91853e-15
      232.300   7.78540e-15
      232.400   7.66432e-15
      232.500   7.54515e-15
      232.600   7.42787e-15
      232.700   7.31244e-15
      232.800   7.19882e-15
      232.900   7.08693e-15
      233.000   6.97668e-15
      233.100   6.86819e-15
      233.200   6.76141e-15
      233.300   6.65631e-15
      233.400   6.55287e-15
      233.500   6.45103e-15
      233.600   6.35083e-15
      233.700   6.25218e-15
      233.800   6.15247e-15
      233.900   6.05398e-15
      234.000   5.95706e-15
      234.100   5.86169e-15
      234.200   5.76789e-15
      234.300   5.67556e-15
      234.400   5.58470e-15
      234.500   5.49531e-15
      234.600   5.40733e-15
      234.700   5.32078e-15
      234.800   5.23563e-15
      234.900   5.15181e-15
      235.000   5.06932e-15
      235.100   4.98816e-15
      235.200   4.90830e-15
      235.300   4.82972e-15
      235.400   4.75235e-15
      235.500   4.67626e-15
      235.600   4.60139e-15
      235.700   4.52768e-15
      235.800   4.45519e-15
      235.900   4.38386e-15
      236.000   4.31369e-15
      236.100   4.24460e-15
      236.200   4.17661e-15
      236.300   4.10970e-15
      236.400   4.04388e-15
      236.500   3.97908e-15
      236.600   3.91806e-15
      236.700   3.86401e-15
      236.800   3.81451e-15
      236.900   3.76563e-15
      237.000   3.71735e-15
      237.100   3.66969e-15
      237.200   3.62262e-15
      237.300   3.57616e-15
      237.400   3.53026e-15
      237.500   3.48496e-15
      237.600   3.44015e-15
      237.700   3.39595e-15
      237.800   3.35231e-15
      237.900   3.30919e-15
      238.000   3.26662e-15
      238.100   3.22458e-15
      238.200   3.18306e-15
      238.300   3.14206e-15
      238.400   3.10155e-15
      238.500   3.06155e-15
      238.600   3.02205e-15
      238.700   2.98304e-15
      238.800   2.94451e-15
      238.900   2.90872e-15
      239.000   2.88126e-15
      239.100   2.85496e-15
      239.200   2.82888e-15
      239.300   2.80301e-15
      239.400   2.77736e-15
      239.500   2.75193e-15
      239.600   2.72669e-15
      239.700   2.70167e-15
      239.800   2.67687e-15
      239.900   2.65226e-15
      240.000   2.62785e-15
      240.100   2.60364e-15
      240.200   2.57964e-15
      240.300   2.55583e-15
      240.400   2.53222e-15
      240.500   2.50881e-15
      240.600   2.48560e-15
      240.700   2.46256e-15
      240.800   2.43971e-15
      240.900   2.41707e-15
      241.000   2.39462e-15
      241.100   2.37235e-15
      241.200   2.35028e-15
      241.300   2.32837e-15
      241.400   2.30667e-15
      241.500   2.28514e-15
      241.600   2.26380e-15
      241.700   2.24265e-15
      241.800   2.22166e-15
      241.900   2.20086e-15
      242.000   2.18024e-15
      242.100   2.15981e-15
      242.200   2.13955e-15
      242.300   2.11949e-15
      242.400   2.09959e-15
      242.500   2.07988e-15
      242.600   2.06033e-15
      242.700   2.04095e-15
      242.800   2.02176e-15
      242.900   2.00274e-15
      243.000   1.98389e-15
      243.100   1.96520e-15
      243.200   1.94669e-15
      243.300   1.92834e-15
      243.400   1.91017e-15
      243.500   1.89217e-15
      243.600   1.87434e-15
      243.700   1.85667e-15
      243.800   1.83917e-15
      243.900   1.82183e-15
      244.000   1.80465e-15
      244.100   1.78764e-15
      244.200   1.77079e-15
      244.300   1.75409e-15
      244.400   1.73755e-15
      244.500   1.72117e-15
      244.600   1.70494e-15
      244.700   1.68888e-15
      244.800   1.67298e-15
      244.900   1.65722e-15
      245.000   1.64161e-15
      245.100   1.62615e-15
      245.200   1.61085e-15
      245.300   1.59570e-15
      245.400   1.58068e-15
      245.500   1.56581e-15
      245.600   1.55109e-15
      245.700   1.53651e-15
      245.800   1.52207e-15
      245.900   1.50778e-15
      246.000   1.49363e-15
      246.100   1.47962e-15
      246.200   1.46574e-15
      246.300   1.45200e-15
      246.400   1.43841e-15
      246.500   1.42493e-15
      246.600   1.41159e-15
      246.700   1.39838e-15
      246.800   1.38530e-15
      246.900   1.37235e-15
      247.000   1.35952e-15
      247.100   1.34682e-15
      247.200   1.33426e-15
      247.300   1.32181e-15
      247.400   1.30949e-15
      247.500   1.29729e-15
      247.600   1.28520e-15
      247.700   1.27323e-15
      247.800   1.26139e-15
      247.900   1.24965e-15
      248.000   1.23804e-15
      248.100   1.22655e-15
      248.200   1.21517e-15
      248.300   1.20390e-15
      248.400   1.19273e-15
      248.500   1.17883e-15
      248.600   1.16036e-15
      248.700   1.13916e-15
      248.800   1.11834e-15
      248.900   1.09791e-15
      249.000   1.07785e-15
      249.100   1.05819e-15
      249.200   1.03889e-15
      249.300   1.01994e-15
      249.400   1.00134e-15
      249.500   9.83082e-16
      249.600   9.65151e-16
      249.700   9.47549e-16
      249.800   9.30265e-16
      249.900   9.13297e-16
      250.000   8.96641e-16
      250.100   8.80312e-16
      250.200   8.64274e-16
      250.300   8.48547e-16
      250.400   8.33102e-16
      250.500   8.17938e-16
      250.600   8.03055e-16
      250.700   7.88440e-16
      250.800   7.74092e-16
      250.900   7.60006e-16
      251.000   7.46177e-16
      251.100   7.32599e-16
      251.200   7.19277e-16
      251.300   7.06207e-16
      251.400   6.93378e-16
      251.500   6.80778e-16
      251.600   6.63736e-16
      251.700   6.38167e-16
      251.800   6.12277e-16
      251.900   5.87413e-16
      252.000   5.63531e-16
      252.100   5.40612e-16
      252.200   5.18593e-16
      252.300   4.97479e-16
      252.400   4.77231e-16
      252.500   4.57799e-16
      252.600   4.40117e-16
      252.700   4.28931e-16
      252.800   4.23978e-16
      252.900   4.19085e-16
      253.000   4.14248e-16
      253.100   4.09467e-16
      253.200   4.04743e-16
      253.300   4.00169e-16
      253.400   3.95690e-16
      253.500   3.91266e-16
      253.600   3.86892e-16
      253.700   3.82499e-16
      253.800   3.77826e-16
      253.900   3.73146e-16
      254.000   3.68523e-16
      254.100   3.63956e-16
      254.200   3.59444e-16
      254.300   3.54988e-16
      254.400   3.50587e-16
      254.500   3.46240e-16
      254.600   3.41944e-16
      254.700   3.37703e-16
      254.800   3.33515e-16
      254.900   3.29378e-16
      255.000   3.25291e-16
      255.100   3.21250e-16
      255.200   3.17260e-16
      255.300   3.13318e-16
      255.400   3.09424e-16
      255.500   3.05576e-16
      255.600   3.01775e-16
      255.700   2.98019e-16
      255.800   2.94308e-16
      255.900   2.90641e-16
      256.000   2.87017e-16
      256.100   2.83439e-16
      256.200   2.79904e-16
      256.300   2.76410e-16
      256.400   2.72962e-16
      256.500   2.69552e-16
      256.600   2.66182e-16
      256.700   2.62853e-16
      256.800   2.59564e-16
      256.900   2.55726e-16
      257.000   2.51002e-16
      257.100   2.46071e-16
      257.200   2.41235e-16
      257.300   2.36491e-16
      257.400   2.31873e-16
      257.500   2.27355e-16
      257.600   2.22928e-16
      257.700   2.18585e-16
      257.800   2.14322e-16
      257.900   2.10142e-16
      258.000   2.06042e-16
      258.100   2.02018e-16
      258.200   1.98071e-16
      258.300   1.94201e-16
      258.400   1.90402e-16
      258.500   1.86675e-16
      258.600   1.83020e-16
      258.700   1.79434e-16
      258.800   1.75916e-16
      258.900   1.72467e-16
      259.000   1.69082e-16
      259.100   1.65762e-16
      259.200   1.62506e-16
      259.300   1.59316e-16
      259.400   1.56185e-16
      259.500   1.53114e-16
      259.600   1.50103e-16
      259.700   1.47150e-16
      259.800   1.44252e-16
      259.900   1.41410e-16
      260.000   1.38622e-16
      260.100   1.35714e-16
      260.200   1.32647e-16
      260.300   1.29609e-16
      260.400   1.26639e-16
      260.500   1.23737e-16
      260.600   1.20898e-16
      260.700   1.18123e-16
      260.800   1.15412e-16
      260.900   1.12761e-16
      261.000   1.10171e-16
      261.100   1.07640e-16
      261.200   1.05153e-16
      261.300   1.02722e-16
      261.400   1.00346e-16
      261.500   9.80267e-17
      261.600   9.57676e-17
      261.700   9.35613e-17
      261.800   9.14053e-17
      261.900   8.92971e-17
      262.000   8.72372e-17
      262.100   8.52237e-17
      262.200   8.32572e-17
      262.300   8.13345e-17
      262.400   7.94558e-17
      262.500   7.76193e-17
      262.600   7.58245e-17
      262.700   7.40712e-17
      262.800   7.23578e-17
      262.900   7.06827e-17
      263.000   6.90474e-17
      263.100   6.74488e-17
      263.200   6.58876e-17
      263.300   6.43621e-17
      263.400   6.28713e-17
      263.500   6.14151e-17
      263.600   5.99922e-17
      263.700   5.86018e-17
      263.800   5.72429e-17
      263.900   5.59163e-17
      264.000   5.46194e-17
      264.100   5.33520e-17
      264.200   5.21135e-17
      264.300   5.09045e-17
      264.400   4.97230e-17
      264.500   4.85684e-17
      264.600   4.74401e-17
      264.700   4.63383e-17
      264.800   4.52613e-17
      264.900   4.42098e-17
      265.000   4.31824e-17
      265.100   4.21783e-17
      265.200   4.11976e-17
      265.300   4.02394e-17
      265.400   3.92920e-17
      265.500   3.83622e-17
      265.600   3.74545e-17
      265.700   3.65675e-17
      265.800   3.57026e-17
      265.900   3.48577e-17
      266.000   3.40333e-17
      266.100   3.32281e-17
      266.200   3.24421e-17
      266.300   3.16742e-17
      266.400   3.09248e-17
      266.500   3.01927e-17
      266.600   2.94780e-17
      266.700   2.87801e-17
      266.800   2.80991e-17
      266.900   2.74338e-17
      267.000   2.67841e-17
      267.100   2.61498e-17
      267.200   2.55309e-17
      267.300   2.49264e-17
      267.400   2.43359e-17
      267.500   2.37596e-17
      267.600   2.31969e-17
      267.700   2.26475e-17
      267.800   2.21109e-17
      267.900   2.15872e-17
      268.000   2.10759e-17
      268.100   2.05766e-17
      268.200   2.00893e-17
      268.300   1.96136e-17
      268.400   1.91489e-17
      268.500   1.86953e-17
      268.600   1.82523e-17
      268.700   1.78201e-17
      268.800   1.73979e-17
      268.900   1.69858e-17
      269.000   1.65836e-17
      269.100   1.61907e-17
      269.200   1.58073e-17
      269.300   1.54329e-17
      269.400   1.50672e-17
      269.500   1.47103e-17
      269.600   1.43619e-17
      269.700   1.39751e-17
      269.800   1.35873e-17
      269.900   1.32098e-17
      270.000   1.28429e-17
      270.100   1.24861e-17
      270.200   1.21396e-17
      270.300   1.18025e-17
      270.400   1.14747e-17
      270.500   1.11560e-17
      270.600   1.08460e-17
      270.700   1.05446e-17
      270.800   1.02517e-17
      270.900   9.96667e-18
      271.000   9.68968e-18
      271.100   9.42023e-18
      271.200   9.15819e-18
      271.300   8.90351e-18
      271.400   8.65576e-18
      271.500   8.41497e-18
      271.600   8.18067e-18
      271.700   7.95294e-18
      271.800   7.73154e-18
      271.900   7.51622e-18
      272.000   7.30690e-18
      272.100   7.10329e-18
      272.200   6.90536e-18
      272.300   6.71283e-18
      272.400   6.52562e-18
      272.500   6.34367e-18
      272.600   6.16666e-18
      272.700   5.99454e-18
      272.800   5.83412e-18
      272.900   5.69816e-18
      273.000   5.57456e-18
      273.100   5.45358e-18
      273.200   5.33520e-18
      273.300   5.21943e-18
      273.400   5.10611e-18
      273.500   4.99524e-18
      273.600   4.88676e-18
      273.700   4.78060e-18
      273.800   4.67673e-18
      273.900   4.56017e-18
      274.000   4.41717e-18
      274.100   4.27825e-18
      274.200   4.14363e-18
      274.300   4.01322e-18
      274.400   3.88629e-18
      274.500   3.76214e-18
      274.600   3.64163e-18
      274.700   3.52497e-18
      274.800   3.41193e-18
      274.900   3.30245e-18
      275.000   3.19644e-18
      275.100   3.09379e-18
      275.200   2.99439e-18
      275.300   2.89810e-18
      275.400   2.80490e-18
      275.500   2.71464e-18
      275.600   2.62720e-18
      275.700   2.54257e-18
      275.800   2.46064e-18
      275.900   2.38127e-18
      276.000   2.30946e-18
      276.100   2.25310e-18
      276.200   2.20072e-18
      276.300   2.14953e-18
      276.400   2.09951e-18
      276.500   2.05063e-18
      276.600   2.00288e-18
      276.700   1.95621e-18
      276.800   1.91062e-18
      276.900   1.86606e-18
      277.000   1.82254e-18
      277.100   1.77999e-18
      277.200   1.73844e-18
      277.300   1.69783e-18
      277.400   1.65815e-18
      277.500   1.61937e-18
      277.600   1.58150e-18
      277.700   1.54448e-18
      277.800   1.50831e-18
      277.900   1.47298e-18
      278.000   1.43847e-18
      278.100   1.40400e-18
      278.200   1.36183e-18
      278.300   1.31887e-18
      278.400   1.27723e-18
      278.500   1.23687e-18
      278.600   1.19775e-18
      278.700   1.15987e-18
      278.800   1.12317e-18
      278.900   1.08757e-18
      279.000   1.05306e-18
      279.100   1.01963e-18
      279.200   9.88677e-19
      279.300   9.61705e-19
      279.400   9.35741e-19
      279.500   9.10481e-19
      279.600   8.85885e-19
      279.700   8.61952e-19
      279.800   8.38645e-19
      279.900   8.15950e-19
      280.000   7.93862e-19
      280.100   7.72354e-19
      280.200   7.51429e-19
      280.300   7.31053e-19
      280.400   7.11217e-19
      280.500   6.91921e-19
      280.600   6.73134e-19
      280.700   6.54846e-19
      280.800   6.37048e-19
      280.900   6.19721e-19
      281.000   6.02858e-19
      281.100   5.86444e-19
      281.200   5.70467e-19
      281.300   5.55753e-19
      281.400   5.42975e-19
      281.500   5.31256e-19
      281.600   5.19783e-19
      281.700   5.08554e-19
      281.800   4.97569e-19
      281.900   4.86810e-19
      282.000   4.76280e-19
      282.100   4.65973e-19
      282.200   4.55894e-19
      282.300   4.46021e-19
      282.400   4.36358e-19
      282.500   4.26899e-19
      282.600   4.17644e-19
      282.700   4.08584e-19
      282.800   3.99715e-19
      282.900   3.91043e-19
      283.000   3.82551e-19
      283.100   3.74245e-19
      283.200   3.66116e-19
      283.300   3.58162e-19
      283.400   3.50378e-19
      283.500   3.41843e-19
      283.600   3.33301e-19
      283.700   3.24955e-19
      283.800   3.16818e-19
      283.900   3.08884e-19
      284.000   3.01143e-19
      284.100   2.93592e-19
      284.200   2.86227e-19
      284.300   2.79047e-19
      284.400   2.72043e-19
      284.500   2.65212e-19
      284.600   2.58552e-19
      284.700   2.52058e-19
      284.800   2.45723e-19
      284.900   2.39546e-19
      285.000   2.33520e-19
      285.100   2.27643e-19
      285.200   2.21916e-19
      285.300   2.16329e-19
      285.400   2.10880e-19
      285.500   2.05568e-19
      285.600   2.00390e-19
      285.700   1.95339e-19
      285.800   1.90416e-19
      285.900   1.85616e-19
      286.000   1.80939e-19
      286.100   1.76380e-19
      286.200   1.71930e-19
      286.300   1.67595e-19
      286.400   1.63368e-19
      286.500   1.59246e-19
      286.600   1.55057e-19
      286.700   1.50531e-19
      286.800   1.45935e-19
      286.900   1.41478e-19
      287.000   1.37155e-19
      287.100   1.32962e-19
      287.200   1.28897e-19
      287.300   1.24955e-19
      287.400   1.21131e-19
      287.500   1.17423e-19
      287.600   1.13828e-19
      287.700   1.10341e-19
      287.800   1.06961e-19
      287.900   1.03683e-19
      288.000   1.00506e-19
      288.100   9.74247e-20
      288.200   9.44406e-20
      288.300   9.15481e-20
      288.400   8.87418e-20
      288.500   8.60221e-20
      288.600   8.33830e-20
      288.700   8.08543e-20
      288.800   7.88477e-20
      288.900   7.71073e-20
      289.000   7.54047e-20
      289.100   7.37394e-20
      289.200   7.21111e-20
      289.300   7.05192e-20
      289.400   6.89620e-20
      289.500   6.74394e-20
      289.600   6.59503e-20
      289.700   6.44950e-20
      289.800   6.30710e-20
      289.900   6.16780e-20
      290.000   6.03165e-20
      290.100   5.89854e-20
      290.200   5.76847e-20
      290.300   5.64126e-20
      290.400   5.51687e-20
      290.500   5.39528e-20
      290.600   5.27630e-20
      290.700   5.15997e-20
      290.800   5.04628e-20
      290.900   4.93504e-20
      291.000   4.82620e-20
      291.100   4.71980e-20
      291.200   4.61579e-20
      291.300   4.51403e-20
      291.400   4.41457e-20
      291.500   4.31727e-20
      291.600   4.22209e-20
      291.700   4.12906e-20
      291.800   4.03811e-20
      291.900   3.94926e-20
      292.000   3.83460e-20
      292.100   3.71894e-20
      292.200   3.60649e-20
      292.300   3.49736e-20
      292.400   3.39153e-20
      292.500   3.28883e-20
      292.600   3.18923e-20
      292.700   3.09265e-20
      292.800   2.99897e-20
      292.900   2.90812e-20
      293.000   2.81999e-20
      293.100   2.73448e-20
      293.200   2.65154e-20
      293.300   2.57112e-20
      293.400   2.49317e-20
      293.500   2.41763e-20
      293.600   2.34437e-20
      293.700   2.27330e-20
      293.800   2.20438e-20
      293.900   2.13754e-20
      294.000   2.07339e-20
      294.100   2.01703e-20
      294.200   1.96658e-20
      294.300   1.91739e-20
      294.400   1.86939e-20
      294.500   1.82262e-20
      294.600   1.77700e-20
      294.700   1.73251e-20
      294.800   1.68913e-20
      294.900   1.64687e-20
      295.000   1.60568e-20
      295.100   1.56553e-20
      295.200   1.52637e-20
      295.300   1.48818e-20
      295.400   1.45094e-20
      295.500   1.41464e-20
      295.600   1.37924e-20
      295.700   1.34471e-20
      295.800   1.31104e-20
      295.900   1.27819e-20
      296.000   1.24617e-20
      296.100   1.21493e-20
      296.200   1.18449e-20
      296.300   1.15481e-20
      296.400   1.12593e-20
      296.500   1.09773e-20
      296.600   1.07023e-20
      296.700   1.04342e-20
      296.800   1.01728e-20
      296.900   9.91785e-21
      297.000   9.66920e-21
      297.100   9.42670e-21
      297.200   9.19023e-21
      297.300   8.95960e-21
      297.400   8.73470e-21
      297.500   8.51534e-21
      297.600   8.30161e-21
      297.700   8.09332e-21
      297.800   7.89027e-21
      297.900   7.69225e-21
      298.000   7.49918e-21
      298.100   7.31084e-21
      298.200   7.12720e-21
      298.300   6.93335e-21
      298.400   6.72202e-21
      298.500   6.50924e-21
      298.600   6.30305e-21
      298.700   6.10334e-21
      298.800   5.90974e-21
      298.900   5.72276e-21
      299.000   5.54164e-21
      299.100   5.36612e-21
      299.200   5.19598e-21
      299.300   5.03119e-21
      299.400   4.87149e-21
      299.500   4.71679e-21
      299.600   4.56692e-21
      299.700   4.42173e-21
      299.800   4.28096e-21
      299.900   4.14472e-21
      300.000   4.01271e-21
      300.100   3.88490e-21
      300.192   3.77096e-21
      300.285   3.65906e-21
      300.377   3.55164e-21
      300.470   3.44624e-21
      300.562   3.34501e-21
      300.654   3.24669e-21
      300.747   3.15017e-21
      300.839   3.05753e-21
      300.932   2.96654e-21
      301.025   2.87823e-21
      301.117   2.79349e-21
      301.210   2.71028e-21
      301.303   2.62950e-21
      301.395   2.55202e-21
      301.488   2.48110e-21
      301.581   2.42929e-21
      301.674   2.37902e-21
      301.766   2.33032e-21
      301.859   2.28206e-21
      301.952   2.23482e-21
      302.045   2.18852e-21
      302.138   2.14319e-21
      302.231   2.09885e-21
      302.324   2.05540e-21
      302.417   2.01284e-21
      302.510   1.97111e-21
      302.603   1.93031e-21
      302.696   1.89028e-21
      302.789   1.85108e-21
      302.882   1.81266e-21
      302.976   1.77467e-21
      303.069   1.73782e-21
      303.162   1.70174e-21
      303.255   1.66638e-21
      303.349   1.63137e-21
      303.442   1.59743e-21
      303.535   1.56422e-21
      303.629   1.53134e-21
      303.722   1.49947e-21
      303.816   1.46791e-21
      303.909   1.43735e-21
      304.003   1.40708e-21
      304.096   1.37774e-21
      304.190   1.34869e-21
      304.283   1.32055e-21
      304.377   1.29272e-21
      304.471   1.26543e-21
      304.564   1.23899e-21
      304.658   1.21164e-21
      304.752   1.17727e-21
      304.846   1.14308e-21
      304.939   1.11022e-21
      305.033   1.07794e-21
      305.127   1.04659e-21
      305.221   1.01613e-21
      305.315   9.86553e-22
      305.409   9.57813e-22
      305.503   9.29909e-22
      305.597   9.02798e-22
      305.691   8.76463e-22
      305.785   8.58306e-22
      305.879   8.42530e-22
      305.973   8.27190e-22
      306.067   8.12109e-22
      306.161   7.97309e-22
      306.255   7.82772e-22
      306.350   7.68338e-22
      306.444   7.54312e-22
      306.538   7.40535e-22
      306.633   7.26875e-22
      306.727   7.13591e-22
      306.821   7.00544e-22
      306.916   6.87602e-22
      307.010   6.75025e-22
      307.105   6.62548e-22
      307.199   6.50427e-22
      307.294   6.38390e-22
      307.388   6.26704e-22
      307.483   6.15104e-22
      307.577   6.03834e-22
      307.672   5.92650e-22
      307.767   5.81670e-22
      307.861   5.69390e-22
      307.956   5.54573e-22
      308.051   5.39664e-22
      308.146   5.25156e-22
      308.240   5.11179e-22
      308.335   4.97423e-22
      308.430   4.84025e-22
      308.525   4.70986e-22
      308.620   4.58300e-22
      308.715   4.45948e-22
      308.810   4.33925e-22
      308.905   4.22219e-22
      309.000   4.10827e-22
      309.095   3.99736e-22
      309.190   3.88946e-22
      309.285   3.78439e-22
      309.380   3.68213e-22
      309.476   3.58160e-22
      309.571   3.48473e-22
      309.666   3.39044e-22
      309.761   3.29870e-22
      309.857   3.20850e-22
      309.952   3.12204e-22
      310.047   3.04207e-22
      310.143   2.96437e-22
      310.238   2.88941e-22
      310.334   2.81558e-22
      310.429   2.74432e-22
      310.525   2.67415e-22
      310.620   2.60647e-22
      310.716   2.53976e-22
      310.811   2.47421e-22
      310.907   2.40928e-22
      311.003   2.34602e-22
      311.098   2.28501e-22
      311.194   2.22497e-22
      311.290   2.16650e-22
      311.386   2.10956e-22
      311.481   2.05465e-22
      311.577   2.00063e-22
      311.673   1.94800e-22
      311.769   1.89673e-22
      311.865   1.84682e-22
      311.961   1.79827e-22
      312.057   1.75123e-22
      312.153   1.70551e-22
      312.249   1.66097e-22
      312.345   1.61760e-22
      312.441   1.57533e-22
      312.537   1.53417e-22
      312.633   1.49409e-22
      312.730   1.45461e-22
      312.826   1.41659e-22
      312.922   1.37955e-22
      313.018   1.34347e-22
      313.115   1.30797e-22
      313.211   1.27374e-22
      313.307   1.24041e-22
      313.404   1.20762e-22
      313.500   1.17601e-22
      313.597   1.14492e-22
      313.693   1.11495e-22
      313.790   1.08545e-22
      313.886   1.05929e-22
      313.983   1.03995e-22
      314.079   1.02343e-22
      314.176   1.00702e-22
      314.273   9.90856e-23
      314.369   9.75135e-23
      314.466   9.59499e-23
      314.563   9.44111e-23
      314.660   9.28975e-23
      314.756   9.14232e-23
      314.853   8.99572e-23
      314.950   8.85154e-23
      315.047   8.70972e-23
      315.144   8.57017e-23
      315.241   8.43287e-23
      315.338   8.29776e-23
      315.435   8.16485e-23
      315.532   8.03413e-23
      315.629   7.90553e-23
      315.726   7.77898e-23
      315.823   7.65441e-23
      315.921   7.53069e-23
      316.018   7.41018e-23
      316.115   7.29170e-23
      316.212   7.17506e-23
      316.310   7.03984e-23
      316.407   6.88371e-23
      316.504   6.72330e-23
      316.602   6.56507e-23
      316.699   6.41217e-23
      316.796   6.26285e-23
      316.894   6.11554e-23
      316.991   5.97326e-23
      317.089   5.83381e-23
      317.187   5.69803e-23
      317.284   5.56677e-23
      317.382   5.43723e-23
      317.479   5.31194e-23
      317.577   5.18837e-23
      317.675   5.06769e-23
      317.773   4.94980e-23
      317.870   4.83584e-23
      317.968   4.72328e-23
      318.066   4.61339e-23
      318.164   4.50608e-23
      318.262   4.40128e-23
      318.360   4.29889e-23
      318.458   4.19894e-23
      318.556   4.10134e-23
      318.654   4.00600e-23
      318.752   3.89321e-23
      318.850   3.76037e-23
      318.948   3.62506e-23
      319.046   3.49457e-23
      319.144   3.36872e-23
      319.242   3.24743e-23
      319.341   3.12928e-23
      319.439   3.01654e-23
      319.537   2.90785e-23
      319.635   2.80303e-23
      319.734   2.70095e-23
      319.832   2.60354e-23
      319.930   2.50959e-23
      320.029   2.41814e-23
      320.127   2.33086e-23
      320.226   2.24586e-23
      320.324   2.16472e-23
      320.423   2.08570e-23
      320.522   2.00961e-23
      320.620   1.93699e-23
      320.719   1.86625e-23
      320.818   1.79808e-23
      320.916   1.73304e-23
      321.015   1.66968e-23
      321.114   1.60863e-23
      321.213   1.54979e-23
      321.311   1.49367e-23
      321.410   1.43904e-23
      321.509   1.38636e-23
      321.608   1.33562e-23
      321.707   1.28671e-23
      321.806   1.23956e-23
      321.905   1.19416e-23
      322.004   1.15037e-23
      322.103   1.10821e-23
      322.202   1.06756e-23
      322.301   1.02840e-23
      322.401   9.90292e-24
      322.500   9.53945e-24
      322.599   9.18923e-24
      322.698   8.85180e-24
      322.798   8.52339e-24
      322.897   8.21011e-24
      322.996   7.90836e-24
      323.096   7.61453e-24
      323.195   7.33441e-24
      323.294   7.06454e-24
      323.394   6.80199e-24
      323.493   6.55150e-24
      323.593   6.30783e-24
      323.692   6.07542e-24
      323.792   5.84931e-24
      323.892   5.63153e-24
      323.991   5.42376e-24
      324.091   5.22172e-24
      324.191   5.02706e-24
      324.291   4.83962e-24
      324.390   4.66096e-24
      324.490   4.48697e-24
      324.590   4.31956e-24
      324.690   4.15833e-24
      324.790   4.00301e-24
      324.890   3.85348e-24
      324.990   3.70942e-24
      325.090   3.57067e-24
      325.190   3.43714e-24
      325.290   3.30858e-24
      325.390   3.18466e-24
      325.490   3.06545e-24
      325.590   2.95066e-24
      325.690   2.84004e-24
      325.790   2.73358e-24
      325.891   2.63005e-24
      325.991   2.53137e-24
      326.091   2.43634e-24
      326.192   2.34396e-24
      326.292   2.25590e-24
      326.392   2.17114e-24
      326.493   2.08871e-24
      326.593   2.01014e-24
      326.694   1.93380e-24
      326.794   1.86100e-24
      326.895   1.79023e-24
      326.995   1.72276e-24
      327.096   1.65722e-24
      327.197   1.59412e-24
      327.297   1.53397e-24
      327.398   1.47551e-24
      327.499   1.41926e-24
      327.599   1.36563e-24
      327.700   1.31351e-24
      327.801   1.26336e-24
      327.902   1.21512e-24
      328.003   1.16868e-24
      328.104   1.12399e-24
      328.205   1.08099e-24
      328.306   1.03962e-24
      328.407   9.99828e-25
      328.508   9.61519e-25
      328.609   9.24665e-25
      328.710   8.89216e-25
      328.811   8.55103e-25
      328.912   8.22286e-25
      329.013   7.90711e-25
      329.115   7.60049e-25
      329.216   7.30832e-25
      329.317   7.02726e-25
      329.419   6.75441e-25
      329.520   6.49434e-25
      329.621   6.24415e-25
      329.723   6.00113e-25
      329.824   5.76993e-25
      329.926   5.54526e-25
      330.027   5.33122e-25
      330.129   5.12336e-25
      330.230   4.92554e-25
      330.332   4.73329e-25
      330.434   4.54851e-25
      330.535   4.37248e-25
      330.637   4.20156e-25
      330.739   4.03732e-25
      330.840   3.88087e-25
      330.942   3.72892e-25
      331.044   3.58287e-25
      331.146   3.44246e-25
      331.248   3.30748e-25
      331.350   3.17776e-25
      331.452   3.05304e-25
      331.554   2.93390e-25
      331.656   2.82034e-25
      331.758   2.71115e-25
      331.860   2.60609e-25
      331.962   2.50506e-25
      332.064   2.40788e-25
      332.166   2.31447e-25
      332.268   2.22458e-25
      332.371   2.13737e-25
      332.473   2.05426e-25
      332.575   1.97432e-25
      332.677   1.89751e-25
      332.780   1.82295e-25
      332.882   1.75193e-25
      332.985   1.68301e-25
      333.087   1.61735e-25
      333.190   1.55364e-25
      333.292   1.49278e-25
      333.395   1.43319e-25
      333.497   1.37633e-25
      333.600   1.32117e-25
      333.702   1.26868e-25
      333.805   1.21780e-25
      333.908   1.16888e-25
      334.011   1.12194e-25
      334.113   1.07727e-25
      334.216   1.03393e-25
      334.319   9.92333e-26
      334.422   9.52369e-26
      334.525   9.13999e-26
      334.628   8.77149e-26
      334.731   8.41786e-26
      334.834   8.07820e-26
      334.937   7.75195e-26
      335.040   7.43861e-26
      335.143   7.13804e-26
      335.246   6.84929e-26
      335.349   6.57209e-26
      335.452   6.30597e-26
      335.555   6.05055e-26
      335.659   5.80289e-26
      335.762   5.56749e-26
      335.865   5.34162e-26
      335.969   5.12264e-26
      336.072   4.91438e-26
      336.175   4.71468e-26
      336.279   4.52114e-26
      336.382   4.33716e-26
      336.486   4.15883e-26
      336.589   3.98936e-26
      336.693   3.82526e-26
      336.796   3.66929e-26
      336.900   3.51811e-26
      337.004   3.37303e-26
      337.107   3.23530e-26
      337.211   3.10178e-26
      337.315   2.97378e-26
      337.419   2.85093e-26
      337.523   2.73310e-26
      337.626   2.62113e-26
      337.730   2.51272e-26
      337.834   2.40870e-26
      337.938   2.30897e-26
      338.042   2.21335e-26
      338.146   2.12190e-26
      338.250   2.03427e-26
      338.354   1.95019e-26
      338.458   1.86951e-26
      338.562   1.79215e-26
      338.667   1.71728e-26
      338.771   1.64613e-26
      338.875   1.57791e-26
      338.979   1.51246e-26
      339.084   1.44917e-26
      339.188   1.38903e-26
      339.292   1.33136e-26
      339.397   1.27552e-26
      339.501   1.22252e-26
      339.606   1.17118e-26
      339.710   1.12245e-26
      339.815   1.07528e-26
      339.919   1.03052e-26
      340.024   9.87157e-27
      340.128   9.46029e-27
      340.233   9.06186e-27
      340.338   8.68039e-27
      340.442   8.31796e-27
      340.547   7.96732e-27
      340.652   7.63127e-27
      340.757   7.30927e-27
      340.862   7.00064e-27
      340.966   6.70777e-27
      341.071   6.42437e-27
      341.176   6.15280e-27
      341.281   5.89258e-27
      341.386   5.64335e-27
      341.491   5.40438e-27
      341.596   5.17559e-27
      341.702   4.95431e-27
      341.807   4.74432e-27
      341.912   4.54316e-27
      342.017   4.35041e-27
      342.122   4.16573e-27
      342.228   3.98733e-27
      342.333   3.81795e-27
      342.438   3.65570e-27
      342.544   3.49891e-27
      342.649   3.35007e-27
      342.754   3.20762e-27
      342.860   3.06983e-27
      342.965   2.93903e-27
      343.071   2.81280e-27
      343.176   2.69293e-27
      343.282   2.57704e-27
      343.388   2.46615e-27
      343.493   2.36111e-27
      343.599   2.26090e-27
      343.705   2.16503e-27
      343.810   2.07401e-27
      343.916   1.98602e-27
      344.022   1.90172e-27
      344.128   1.82098e-27
      344.234   1.74359e-27
      344.340   1.66952e-27
      344.446   1.59852e-27
      344.552   1.53052e-27
      344.658   1.46541e-27
      344.764   1.40307e-27
      344.870   1.34332e-27
      344.976   1.28613e-27
      345.082   1.23132e-27
      345.188   1.17886e-27
      345.294   1.12859e-27
      345.401   1.08002e-27
      345.507   1.03393e-27
      345.613   9.89827e-28
      345.719   9.47562e-28
      345.826   9.06727e-28
      345.932   8.67987e-28
      346.039   8.30558e-28
      346.145   7.95047e-28
      346.252   7.60746e-28
      346.358   7.28202e-28
      346.465   6.96776e-28
      346.571   6.66945e-28
      346.678   6.38122e-28
      346.785   6.10535e-28
      346.891   5.84386e-28
      346.998   5.59126e-28
      347.105   5.34941e-28
      347.212   5.11789e-28
      347.319   4.89632e-28
      347.425   4.68615e-28
      347.532   4.48314e-28
      347.639   4.28898e-28
      347.746   4.10308e-28
      347.853   3.92508e-28
      347.960   3.75487e-28
      348.067   3.59203e-28
      348.174   3.43623e-28
      348.281   3.28707e-28
      348.389   3.14307e-28
      348.496   3.00652e-28
      348.603   2.87598e-28
      348.710   2.75101e-28
      348.818   2.63035e-28
      348.925   2.51596e-28
      349.032   2.40656e-28
      349.140   2.30086e-28
      349.247   2.20069e-28
      349.355   2.10406e-28
      349.462   2.01242e-28
      349.570   1.92389e-28
      349.677   1.84007e-28
      349.785   1.75909e-28
      349.892   1.68240e-28
      350.000   1.60836e-28
      350.100   1.54268e-28
      350.193   1.48402e-28
      350.287   1.42693e-28
      350.380   1.37266e-28
      350.473   1.32041e-28
      350.567   1.26957e-28
      350.660   1.22123e-28
      350.754   1.17421e-28
      350.847   1.12949e-28
      350.941   1.08600e-28
      351.034   1.04461e-28
      351.128   1.00436e-28
      351.221   9.66077e-29
      351.315   9.28822e-29
      351.409   8.92992e-29
      351.502   8.58929e-29
      351.596   8.25802e-29
      351.690   7.93917e-29
      351.783   7.63620e-29
      351.877   7.34147e-29
      351.971   7.05797e-29
      352.065   6.78535e-29
      352.159   6.52316e-29
      352.252   6.27378e-29
      352.346   6.03123e-29
      352.440   5.79812e-29
      352.534   5.57410e-29
      352.628   5.35842e-29
      352.722   5.15104e-29
      352.816   4.95177e-29
      352.910   4.76021e-29
      353.004   4.57597e-29
      353.098   4.39874e-29
      353.192   4.22834e-29
      353.287   4.06280e-29
      353.381   3.90528e-29
      353.475   3.75400e-29
      353.569   3.60838e-29
      353.663   3.46852e-29
      353.758   3.33260e-29
      353.852   3.20332e-29
      353.946   3.07901e-29
      354.041   2.95823e-29
      354.135   2.84336e-29
      354.229   2.73292e-29
      354.324   2.62564e-29
      354.418   2.52364e-29
      354.513   2.42450e-29
      354.607   2.33030e-29
      354.702   2.23864e-29
      354.796   2.15126e-29
      354.891   2.06637e-29
      354.985   1.98570e-29
      355.080   1.90734e-29
      355.175   1.83200e-29
      355.269   1.76040e-29
      355.364   1.69083e-29
      355.459   1.62404e-29
      355.553   1.56048e-29
      355.648   1.49880e-29
      355.743   1.43956e-29
      355.838   1.38256e-29
      355.933   1.32788e-29
      356.027   1.27587e-29
      356.122   1.22533e-29
      356.217   1.17680e-29
      356.312   1.13021e-29
      356.407   1.08542e-29
      356.502   1.04240e-29
      356.597   1.00106e-29
      356.692   9.61368e-30
      356.787   9.23231e-30
      356.882   8.86570e-30
      356.977   8.51396e-30
      357.073   8.17242e-30
      357.168   7.84764e-30
      357.263   7.53594e-30
      357.358   7.23637e-30
      357.453   6.94878e-30
      357.549   6.66957e-30
      357.644   6.40428e-30
      357.739   6.14962e-30
      357.835   5.90215e-30
      357.930   5.66716e-30
      358.025   5.44147e-30
      358.121   5.22246e-30
      358.216   5.01434e-30
      358.312   4.81230e-30
      358.407   4.62046e-30
      358.503   4.43423e-30
      358.598   4.25740e-30
      358.694   4.08572e-30
      358.790   3.92081e-30
      358.885   3.76419e-30
      358.981   3.61219e-30
      359.076   3.46790e-30
      359.172   3.32788e-30
      359.268   3.19330e-30
      359.364   3.06418e-30
      359.459   2.94165e-30
      359.555   2.82264e-30
      359.651   2.70842e-30
      359.747   2.59880e-30
      359.843   2.49356e-30
      359.939   2.39255e-30
      360.035   2.29561e-30
      360.131   2.20261e-30
      360.227   2.11321e-30
      360.323   2.02752e-30
      360.419   1.94417e-30
      360.515   1.85408e-30
      360.611   1.76540e-30
      360.707   1.68085e-30
      360.803   1.60047e-30
      360.899   1.52379e-30
      360.995   1.45080e-30
      361.092   1.38054e-30
      361.188   1.31431e-30
      361.284   1.25124e-30
      361.380   1.19117e-30
      361.477   1.13336e-30
      361.573   1.07887e-30
      361.669   1.02701e-30
      361.766   9.77080e-31
      361.862   9.30068e-31
      361.959   8.84831e-31
      362.055   8.42162e-31
      362.152   8.01171e-31
      362.248   7.62532e-31
      362.345   7.25338e-31
      362.441   6.90332e-31
      362.538   6.56655e-31
      362.635   6.24599e-31
      362.731   5.94389e-31
      362.828   5.65338e-31
      362.925   5.37700e-31
      363.021   5.11652e-31
      363.118   4.86619e-31
      363.215   4.62780e-31
      363.312   4.40097e-31
      363.409   4.18529e-31
      363.505   3.98208e-31
      363.602   3.78655e-31
      363.699   3.60064e-31
      363.796   3.42375e-31
      363.893   3.25544e-31
      363.990   3.09534e-31
      364.087   2.94304e-31
      364.184   2.79815e-31
      364.281   2.66027e-31
      364.378   2.52917e-31
      364.475   2.40444e-31
      364.573   2.28457e-31
      364.670   2.17179e-31
      364.767   2.06453e-31
      364.864   1.96248e-31
      364.961   1.86544e-31
      365.059   1.77220e-31
      365.156   1.68451e-31
      365.253   1.60107e-31
      365.351   1.52091e-31
      365.448   1.44548e-31
      365.545   1.37378e-31
      365.643   1.30488e-31
      365.740   1.24005e-31
      365.838   1.17781e-31
      365.935   1.11927e-31
      366.033   1.06302e-31
      366.130   1.01010e-31
      366.228   9.59227e-32
      366.326   9.05299e-32
      366.423   8.52108e-32
      366.521   8.01496e-32
      366.618   7.54309e-32
      366.716   7.09445e-32
      366.814   6.67234e-32
      366.912   6.27515e-32
      367.010   5.90098e-32
      367.107   5.55254e-32
      367.205   5.22103e-32
      367.303   4.90920e-32
      367.401   4.61583e-32
      367.499   4.33968e-32
      367.597   4.07995e-32
      367.695   3.83564e-32
      367.793   3.60585e-32
      367.891   3.38964e-32
      367.989   3.18608e-32
      368.087   2.99476e-32
      368.185   2.81481e-32
      368.283   2.64548e-32
      368.381   2.48618e-32
      368.480   2.33500e-32
      368.578   2.19423e-32
      368.676   2.06192e-32
      368.774   1.93750e-32
      368.873   1.81932e-32
      368.971   1.70937e-32
      369.069   1.60598e-32
      369.168   1.50776e-32
      369.266   1.41645e-32
      369.364   1.33059e-32
      369.463   1.24907e-32
      369.561   1.17326e-32
      369.660   1.10129e-32
      369.758   1.03436e-32
      369.857   9.70830e-33
      369.955   9.11744e-33
      370.054   8.55649e-33
      370.153   8.02975e-33
      370.251   7.54002e-33
      370.350   7.07524e-33
      370.449   6.63896e-33
      370.547   6.23322e-33
      370.646   5.84794e-33
      370.745   5.48656e-33
      370.844   5.14715e-33
      370.943   4.82854e-33
      371.041   4.53244e-33
      371.140   4.25141e-33
      371.239   3.98757e-33
      371.338   3.74006e-33
      371.437   3.50778e-33
      371.536   3.28979e-33
      371.635   3.08505e-33
      371.734   2.89303e-33
      371.833   2.71284e-33
      371.932   2.54374e-33
      372.032   2.38348e-33
      372.131   2.23466e-33
      372.230   2.09511e-33
      372.329   1.96414e-33
      372.428   1.84126e-33
      372.528   1.72490e-33
      372.627   1.61688e-33
      372.726   1.51555e-33
      372.826   1.41957e-33
      372.925   1.33045e-33
      373.024   1.24686e-33
      373.124   1.16770e-33
      373.223   1.09429e-33
      373.323   1.02475e-33
      373.422   9.60202e-34
      373.522   8.99081e-34
      373.621   8.42405e-34
      373.721   7.88710e-34
      373.820   7.38912e-34
      373.920   6.91762e-34
      374.020   6.47556e-34
      374.119   6.06597e-34
      374.219   5.67790e-34
      374.319   5.31465e-34
      374.419   4.97453e-34
      374.518   4.65881e-34
      374.618   4.36010e-34
      374.718   4.08013e-34
      374.818   3.81831e-34
      374.918   3.57313e-34
      375.018   3.34333e-34
      375.118   3.12831e-34
      375.218   2.92684e-34
      375.318   2.73831e-34
      375.418   2.56170e-34
      375.518   2.39651e-34
      375.618   2.24185e-34
      375.718   2.09702e-34
      375.818   1.96149e-34
      375.918   1.83463e-34
      376.019   1.71478e-34
      376.119   1.60369e-34
      376.219   1.49978e-34
      376.319   1.40248e-34
      376.420   1.31062e-34
      376.520   1.22552e-34
      376.620   1.14591e-34
      376.721   1.07067e-34
      376.821   1.00102e-34
      376.922   9.35227e-35
      377.022   8.74287e-35
      377.122   8.17312e-35
      377.223   7.63489e-35
      377.323   7.13664e-35
      377.424   6.66583e-35
      377.525   6.22607e-35
      377.625   5.81897e-35
      377.726   5.43459e-35
      377.827   5.07532e-35
      377.927   4.74270e-35
      378.028   4.42887e-35
      378.129   4.13546e-35
      378.230   3.86134e-35
      378.330   3.60776e-35
      378.431   3.36843e-35
      378.532   3.14497e-35
      378.633   2.93602e-35
      378.734   2.74083e-35
      378.835   2.55859e-35
      378.936   2.38834e-35
      379.037   2.22933e-35
      379.138   2.08079e-35
      379.239   1.94203e-35
      379.340   1.81253e-35
      379.441   1.69154e-35
      379.542   1.57853e-35
      379.643   1.47305e-35
      379.745   1.37361e-35
      379.846   1.28167e-35
      379.947   1.19583e-35
      380.048   1.11573e-35
      380.150   1.04020e-35
      380.251   9.70413e-36
      380.352   9.05288e-36
      380.454   8.43926e-36
      380.555   7.87203e-36
      380.656   7.34254e-36
      380.758   6.84369e-36
      380.859   6.38294e-36
      380.961   5.94904e-36
      381.062   5.54809e-36
      381.164   5.17023e-36
      381.266   4.81799e-36
      381.367   4.49256e-36
      381.469   4.18614e-36
      381.570   3.90318e-36
      381.672   3.63668e-36
      381.774   3.38809e-36
      381.876   3.15646e-36
      381.977   2.94253e-36
      382.079   2.74110e-36
      382.181   2.55333e-36
      382.283   2.37843e-36
      382.385   2.21532e-36
      382.487   2.06322e-36
      382.589   1.92160e-36
      382.691   1.78961e-36
      382.793   1.66662e-36
      382.895   1.55200e-36
      382.997   1.44517e-36
      383.099   1.34565e-36
      383.201   1.25295e-36
      383.303   1.16655e-36
      383.405   1.08608e-36
      383.507   1.01113e-36
      383.610   9.40657e-37
      383.712   8.75637e-37
      383.814   8.15126e-37
      383.916   7.58744e-37
      384.019   7.05734e-37
      384.121   6.56847e-37
      384.223   6.11338e-37
      384.326   5.68565e-37
      384.428   5.29118e-37
      384.531   4.92049e-37
      384.633   4.57877e-37
      384.736   4.25754e-37
      384.838   3.96143e-37
      384.941   3.68323e-37
      385.043   3.42679e-37
      385.146   3.18590e-37
      385.249   2.96181e-37
      385.351   2.75525e-37
      385.454   2.56116e-37
      385.557   2.38076e-37
      385.660   2.21286e-37
      385.762   2.05825e-37
      385.865   1.91299e-37
      385.968   1.77785e-37
      386.071   1.65218e-37
      386.174   1.53536e-37
      386.277   1.42677e-37
      386.380   1.32579e-37
      386.483   1.23189e-37
      386.586   1.14463e-37
      386.689   1.06347e-37
      386.792   9.88019e-38
      386.895   9.17894e-38
      386.998   8.52713e-38
      387.101   7.92142e-38
      387.204   7.35798e-38
      387.308   6.82967e-38
      387.411   6.34349e-38
      387.514   5.89172e-38
      387.617   5.47196e-38
      387.721   5.07834e-38
      387.824   4.71611e-38
      387.927   4.37928e-38
      388.031   4.06368e-38
      388.134   3.77330e-38
      388.238   3.50122e-38
      388.341   3.25066e-38
      388.445   3.01583e-38
      388.548   2.79979e-38
      388.652   2.59737e-38
      388.755   2.41118e-38
      388.859   2.23666e-38
      388.962   2.07614e-38
      389.066   1.92563e-38
      389.170   1.78608e-38
      389.274   1.65648e-38
      389.377   1.53730e-38
      389.481   1.42561e-38
      389.585   1.32204e-38
      389.689   1.22592e-38
      389.793   1.13669e-38
      389.897   1.05399e-38
      390.000   9.77885e-39
      390.104   9.06650e-39
      390.208   8.40528e-39
      390.312   7.79204e-39
      390.416   7.22341e-39
      390.520   6.69570e-39
      390.625   6.20150e-39
      390.729   5.74817e-39
      390.833   5.32744e-39
      390.937   4.93728e-39
      391.041   4.57567e-39
      391.145   4.24037e-39
      391.250   3.92644e-39
      391.354   3.63844e-39
      391.458   3.37132e-39
      391.563   3.12137e-39
      391.667   2.89197e-39
      391.771   2.67933e-39
      391.876   2.48033e-39
      391.980   2.29769e-39
      392.085   2.12690e-39
      392.189   1.97012e-39
      392.294   1.82347e-39
      392.398   1.68893e-39
      392.503   1.56310e-39
      392.607   1.44764e-39
      392.712   1.33968e-39
      392.817   1.23967e-39
      392.921   1.14796e-39
      393.026   1.06218e-39
      393.131   9.82789e-40
      393.236   9.09251e-40
      393.340   8.41808e-40
      393.445   7.78784e-40
      393.550   7.20441e-40
      393.655   6.66414e-40
      393.760   6.16438e-40
      393.865   5.70166e-40
      393.970   5.27373e-40
      394.075   4.87733e-40
      394.180   4.51074e-40
      394.285   4.17137e-40
      394.390   3.85754e-40
      394.495   3.56692e-40
      394.600   3.29815e-40
      394.706   3.04729e-40
      394.811   2.81748e-40
      394.916   2.60469e-40
      395.021   2.40798e-40
      395.126   2.22609e-40
      395.232   2.05621e-40
      395.337   1.90065e-40
      395.443   1.75548e-40
      395.548   1.62254e-40
      395.653   1.49959e-40
      395.759   1.38482e-40
      395.864   1.27978e-40
      395.970   1.18171e-40
      396.075   1.09198e-40
      396.181   1.00823e-40
      396.286   9.31527e-41
      396.392   8.60047e-41
      396.498   7.93976e-41
      396.603   7.33468e-41
      396.709   6.77037e-41
      396.815   6.24965e-41
      396.921   5.76816e-41
      397.026   5.32788e-41
      397.132   4.91702e-41
      397.238   4.53782e-41
      397.344   4.18736e-41
      397.450   3.86436e-41
      397.556   3.56560e-41
      397.662   3.28983e-41
      397.768   3.03521e-41
      397.874   2.80035e-41
      397.980   2.58343e-41
      398.086   2.38319e-41
      398.192   2.19850e-41
      398.298   2.02782e-41
      398.404   1.87031e-41
      398.510   1.72500e-41
      398.617   1.58977e-41
      398.723   1.46618e-41
      398.829   1.35183e-41
      398.935   1.24674e-41
      399.042   1.14864e-41
      399.148   1.05910e-41
      399.255   9.75724e-42
      399.361   8.99353e-42
      399.467   8.29148e-42
      399.574   7.63848e-42
      399.680   7.04152e-42
      399.787   6.48521e-42
      399.893       0.00000
      400.000       0.00000
