Filter Be-thin
observation_date 22Sept2022
wavelength effective area
      1.00000   2.78436e-10
      1.10000   7.94894e-10
      1.20000   2.06653e-09
      1.30000   4.94173e-09
      1.40000   1.12137e-08
      1.50000   2.39244e-08
      1.60000   4.84350e-08
      1.70000   9.40347e-08
      1.80000   1.75076e-07
      1.90000   3.14678e-07
      2.00000   5.47088e-07
      2.10000   9.24092e-07
      2.20000   1.52377e-06
      2.30000   2.44952e-06
      2.40000   3.84565e-06
      2.50000   5.87717e-06
      2.60000   8.96896e-06
      2.70000   1.33715e-05
      2.80000   1.95534e-05
      2.90000   2.82991e-05
      3.00000   4.03166e-05
      3.10000   5.66987e-05
      3.20000   7.88657e-05
      3.30000   0.000108581
      3.40000   0.000147931
      3.50000   0.000199586
      3.60000   0.000268031
      3.70000   0.000356114
      3.80000   0.000471167
      3.90000   0.000619911
      4.00000   0.000810505
      4.10000    0.00105475
      4.20000    0.00136770
      4.30000    0.00176840
      4.40000    0.00228031
      4.50000    0.00293219
      4.60000    0.00375760
      4.70000    0.00481495
      4.80000    0.00616316
      4.90000    0.00778709
      5.00000     0.0100972
      5.10000     0.0129075
      5.20000     0.0165475
      5.30000     0.0210335
      5.40000     0.0266904
      5.50000     0.0339255
      5.60000     0.0417962
      5.70000     0.0542448
      5.80000     0.0634857
      5.90000     0.0967600
      6.00000      0.129825
      6.10000      0.165599
      6.20000      0.202943
      6.30000      0.238385
      6.40000      0.268575
      6.50000      0.290522
      6.60000      0.300014
      6.70000      0.308591
      6.80000      0.308212
      6.90000      0.403268
      7.00000      0.437315
      7.10000      0.461137
      7.20000      0.479599
      7.30000      0.494204
      7.40000      0.504817
      7.50000      0.512784
      7.60000      0.518230
      7.70000      0.519806
      7.80000      0.516555
      7.90000      0.513853
      8.00000      0.739743
      8.10000      0.806045
      8.20000      0.815216
      8.30000      0.820595
      8.40000      0.822536
      8.50000      0.822989
      8.60000      0.821722
      8.70000      0.819309
      8.80000      0.815499
      8.90000      0.810728
      9.00000      0.804949
      9.10000      0.798227
      9.20000      0.790742
      9.30000      0.782435
      9.40000      0.773441
      9.50000      0.763824
      9.60000      0.753558
      9.70000      0.742749
      9.80000      0.731498
      9.90000      0.719845
      10.0000      0.707844
      10.1000      0.695523
      10.2000      0.682916
      10.3000      0.670012
      10.4000      0.656852
      10.5000      0.643466
      10.6000      0.629889
      10.7000      0.616150
      10.8000      0.602275
      10.9000      0.588303
      11.0000      0.574247
      11.1000      0.560143
      11.2000      0.546007
      11.3000      0.531867
      11.4000      0.517729
      11.5000      0.503603
      11.6000      0.489511
      11.7000      0.475435
      11.8000      0.461426
      11.9000      0.447406
      12.0000      0.432946
      12.1000      0.420157
      12.2000      0.414804
      12.3000      0.405101
      12.4000      0.392519
      12.5000      0.379855
      12.6000      0.367280
      12.7000      0.354863
      12.8000      0.342629
      12.9000      0.330588
      13.0000      0.318762
      13.1000      0.307167
      13.2000      0.295830
      13.3000      0.284810
      13.4000      0.274091
      13.5000      0.263661
      13.6000      0.253531
      13.7000      0.243660
      13.8000      0.234042
      13.9000      0.224686
      14.0000      0.215586
      14.1000      0.206723
      14.2000      0.198088
      14.3000      0.189684
      14.4000      0.181516
      14.5000      0.173597
      14.6000      0.165934
      14.7000      0.158502
      14.8000      0.151299
      14.9000      0.144321
      15.0000      0.137568
      15.1000      0.131040
      15.2000      0.124774
      15.3000      0.118735
      15.4000      0.112908
      15.5000      0.107289
      15.6000      0.101880
      15.7000     0.0966947
      15.8000     0.0917404
      15.9000     0.0869779
      16.0000     0.0824011
      16.1000     0.0780056
      16.2000     0.0738311
      16.3000     0.0698394
      16.4000     0.0660085
      16.5000     0.0623330
      16.6000     0.0588345
      16.7000     0.0555136
      16.8000     0.0523309
      16.9000     0.0492819
      17.0000     0.0463916
      17.1000     0.0436692
      17.2000     0.0410758
      17.3000     0.0386061
      17.4000     0.0362925
      17.5000     0.0340982
      17.6000     0.0320170
      17.7000     0.0300768
      17.8000     0.0283191
      17.9000     0.0266423
      18.0000     0.0250348
      18.1000     0.0235356
      18.2000     0.0220865
      18.3000     0.0206804
      18.4000     0.0193294
      18.5000     0.0180358
      18.6000     0.0167843
      18.7000     0.0155869
      18.8000     0.0144669
      18.9000     0.0134009
      19.0000     0.0124127
      19.1000     0.0114916
      19.2000     0.0106160
      19.3000    0.00981169
      19.4000    0.00906784
      19.5000    0.00836739
      19.6000    0.00774951
      19.7000    0.00716596
      19.8000    0.00661310
      19.9000    0.00611429
      20.0000    0.00563866
      20.1000    0.00519647
      20.2000    0.00479058
      20.3000    0.00440358
      20.4000    0.00405315
      20.5000    0.00372404
      20.6000    0.00341405
      20.7000    0.00313565
      20.8000    0.00286976
      20.9000    0.00262825
      21.0000    0.00240391
      21.1000    0.00219276
      21.2000    0.00200433
      21.3000    0.00182410
      21.4000    0.00166274
      21.5000    0.00151184
      21.6000    0.00137146
      21.7000    0.00124546
      21.8000    0.00112478
      21.9000    0.00101863
      22.0000   0.000917214
      22.1000   0.000826058
      22.2000   0.000741071
      22.3000   0.000661489
      22.4000   0.000581876
      22.5000   0.000502623
      22.6000   0.000403139
      22.7000   0.000327822
      22.8000   0.000369551
      22.9000   0.000430407
      23.0000   0.000507612
      23.1000   0.000539415
      23.2000   0.000528168
      23.3000   0.000495862
      23.4000   0.000452986
      23.5000   0.000414370
      23.6000   0.000376949
      23.7000   0.000343623
      23.8000   0.000310957
      23.9000   0.000282962
      24.0000   0.000255640
      24.1000   0.000231933
      24.2000   0.000209109
      24.3000   0.000189290
      24.4000   0.000170411
      24.5000   0.000153897
      24.6000   0.000138322
      24.7000   0.000124674
      24.8000   0.000111886
      24.9000   0.000100654
      25.0000   9.01786e-05
      25.1000   8.09926e-05
      25.2000   7.24358e-05
      25.3000   6.49563e-05
      25.4000   5.79793e-05
      25.5000   5.19263e-05
      25.6000   4.62525e-05
      25.7000   4.13791e-05
      25.8000   3.67715e-05
      25.9000   3.28681e-05
      26.0000   2.91324e-05
      26.1000   2.60210e-05
      26.2000   2.29958e-05
      26.3000   2.05307e-05
      26.4000   1.80862e-05
      26.5000   1.61429e-05
      26.6000   1.42120e-05
      26.7000   1.26475e-05
      26.8000   1.11354e-05
      26.9000   9.87313e-06
      27.0000   8.69403e-06
      27.1000   7.67513e-06
      27.2000   6.75974e-06
      27.3000   5.95010e-06
      27.4000   5.27039e-06
      27.5000   4.62979e-06
      27.6000   4.09246e-06
      27.7000   3.56537e-06
      27.8000   3.15395e-06
      27.9000   2.74521e-06
      28.0000   2.41865e-06
      28.1000   2.10970e-06
      28.2000   1.84668e-06
      28.3000   1.61469e-06
      28.4000   1.40352e-06
      28.5000   1.23048e-06
      28.6000   1.06159e-06
      28.7000   9.33522e-07
      28.8000   8.06310e-07
      28.9000   7.04878e-07
      29.0000   6.11219e-07
      29.1000   5.29431e-07
      29.2000   4.60952e-07
      29.3000   3.95425e-07
      29.4000   3.45726e-07
      29.5000   2.96367e-07
      29.6000   2.57800e-07
      29.7000   2.22246e-07
      29.8000   1.91055e-07
      29.9000   1.65635e-07
      30.0000   1.40671e-07
      30.1000   1.22635e-07
      30.2000   1.04723e-07
      30.3000   9.13475e-08
      30.4000   8.05873e-08
      30.5000   7.01673e-08
      30.6000   6.08052e-08
      30.7000   5.15087e-08
      30.8000   4.43898e-08
      30.9000   3.79550e-08
      31.0000   3.21839e-08
      31.1000   2.78516e-08
      31.2000   2.35500e-08
      31.3000   2.03372e-08
      31.4000   1.73732e-08
      31.5000   1.47196e-08
      31.6000   1.26940e-08
      31.7000   1.06830e-08
      31.8000   9.18636e-09
      31.9000   7.82595e-09
      32.0000   6.59212e-09
      32.1000   5.70501e-09
      32.2000   4.82429e-09
      32.3000   4.13984e-09
      32.4000   3.54404e-09
      32.5000   2.97331e-09
      32.6000   2.57402e-09
      32.7000   2.17765e-09
      32.8000   1.84862e-09
      32.9000   1.58475e-09
      33.0000   1.32280e-09
      33.1000   1.13864e-09
      33.2000   9.66080e-10
      33.3000   8.08208e-10
      33.4000   6.95224e-10
      33.5000   5.83040e-10
      33.6000   4.93223e-10
      33.7000   4.20443e-10
      33.8000   3.48168e-10
      33.9000   2.98318e-10
      34.0000   2.51842e-10
      34.1000   2.08459e-10
      34.2000   1.78857e-10
      34.3000   1.49452e-10
      34.4000   1.24826e-10
      34.5000   1.06270e-10
      34.6000   8.78399e-11
      34.7000   7.40916e-11
      34.8000   6.25539e-11
      34.9000   5.10938e-11
      35.0000   4.35619e-11
      35.1000   3.64785e-11
      35.2000   2.97306e-11
      35.3000   2.53968e-11
      35.4000   2.10924e-11
      35.5000   1.72906e-11
      35.6000   1.46844e-11
      35.7000   1.20959e-11
      35.8000   9.97246e-12
      35.9000   8.42158e-12
      36.0000   6.88132e-12
      36.1000   5.70408e-12
      36.2000   4.79137e-12
      36.3000   3.88494e-12
      36.4000   3.23614e-12
      36.5000   2.70491e-12
      36.6000   2.17738e-12
      36.7000   1.82118e-12
      36.8000   1.51547e-12
      36.9000   1.21191e-12
      37.0000   1.01665e-12
      37.1000   8.42741e-13
      37.2000   6.70044e-13
      37.3000   5.62954e-13
      37.4000   4.65185e-13
      37.5000   3.68109e-13
      37.6000   3.09219e-13
      37.7000   2.54924e-13
      37.8000   2.01016e-13
      37.9000   1.68480e-13
      38.0000   1.38691e-13
      38.1000   1.09114e-13
      38.2000   9.10367e-14
      38.3000   7.48917e-14
      38.4000   5.88617e-14
      38.5000   4.87655e-14
      38.6000   4.01304e-14
      38.7000   3.15573e-14
      38.8000   2.58944e-14
      38.9000   2.13370e-14
      39.0000   1.68123e-14
      39.1000   1.36273e-14
      39.2000   1.12532e-14
      39.3000   8.89625e-15
      39.4000   7.09710e-15
      39.5000   5.86312e-15
      39.6000   4.63814e-15
      39.7000   3.62285e-15
      39.8000   3.00396e-15
      39.9000   2.38956e-15
      40.0000   1.82794e-15
      40.1000   1.52266e-15
      40.2000   1.21959e-15
      40.3000   9.18768e-16
      40.4000   7.63592e-16
      40.5000   6.16290e-16
      40.6000   4.70060e-16
      40.7000   3.78536e-16
      40.8000   3.08002e-16
      40.9000   2.37992e-16
      41.0000   1.85316e-16
      41.1000   1.52086e-16
      41.2000   1.19105e-16
      41.3000   8.95480e-17
      41.4000   7.41483e-17
      41.5000   5.88611e-17
      41.6000   4.36879e-17
      41.7000   3.56643e-17
      41.8000   2.86910e-17
      41.9000   2.17693e-17
      42.0000   1.69066e-17
      42.1000   1.37781e-17
      42.2000   1.06727e-17
      42.3000   7.89132e-18
      42.4000   6.51165e-18
      42.5000   5.14217e-18
      42.6000   3.78295e-18
      42.7000   3.02627e-18
      42.8000   2.43288e-18
      42.9000   1.84386e-18
      43.0000   1.38207e-18
      43.1000   1.12941e-18
      43.2000   8.78658e-19
      43.3000   6.29782e-19
      43.4000   6.30094e-19
      43.5000   7.03619e-19
      43.6000   8.29326e-19
      43.7000   9.17534e-19
      43.8000   8.58044e-19
      43.9000   6.86606e-19
      44.0000   4.86337e-19
      44.1000   3.83534e-19
      44.2000   3.04712e-19
      44.3000   2.27455e-19
      44.4000   1.70067e-19
      44.5000   1.38719e-19
      44.6000   1.07456e-19
      44.7000   7.62765e-20
      44.8000   6.15169e-20
      44.9000   4.91097e-20
      45.0000   3.67353e-20
      45.1000   2.65816e-20
      45.2000   2.17552e-20
      45.3000   1.69421e-20
      45.4000   1.21414e-20
      45.5000   9.35529e-21
      45.6000   7.52082e-21
      45.7000   5.69133e-21
      45.8000   3.90917e-21
      45.9000   3.22434e-21
      46.0000   2.54132e-21
      46.1000   1.86011e-21
      46.2000   1.33813e-21
      46.3000   1.08914e-21
      46.4000   8.40831e-22
      46.5000   5.93162e-22
      46.6000   4.51114e-22
      46.7000   3.61936e-22
      46.8000   2.72997e-22
      46.9000   1.84290e-22
      47.0000   1.49287e-22
      47.1000   1.18009e-22
      47.2000   8.68138e-23
      47.3000   5.92794e-23
      47.4000   4.85075e-23
      47.5000   3.77634e-23
      47.6000   2.70479e-23
      47.7000   1.90865e-23
      47.8000   1.54695e-23
      47.9000   1.18615e-23
      48.0000   8.26337e-24
      48.1000   6.03127e-24
      48.2000   4.84407e-24
      48.3000   3.65991e-24
      48.4000   2.47890e-24
      48.5000   1.87016e-24
      48.6000   1.48957e-24
      48.7000   1.10997e-24
      48.8000   7.31331e-25
      48.9000   5.68879e-25
      49.0000   4.49854e-25
      49.1000   3.31142e-25
      49.2000   2.12734e-25
      49.3000   1.72709e-25
      49.4000   1.39544e-25
      49.5000   1.06466e-25
      49.6000   7.34719e-26
      49.7000   6.61621e-26
      49.8000   5.95033e-26
      49.9000   5.28618e-26
      50.0000   4.62378e-26
      50.1000   4.05534e-26
      50.2000   3.27328e-26
      50.3000   2.64660e-26
      50.4000   2.28943e-26
      50.5000   2.06322e-26
      50.6000   1.84217e-26
      50.7000   1.42383e-26
      50.8000   1.18654e-26
      50.9000   6.49713e-27
      51.0000   4.35302e-27
      51.1000   3.51939e-27
      51.2000   3.52632e-27
      51.3000   3.15828e-27
      51.4000   1.94766e-27
      51.5000   1.17448e-27
      51.6000   8.28300e-28
      51.7000   5.58560e-28
      51.8000   4.22459e-28
      51.9000   3.51540e-28
      52.0000   2.78532e-28
      52.1000   1.92523e-28
      52.2000   1.47286e-28
      52.3000   9.70131e-29
      52.4000   6.33052e-29
      52.5000   5.00249e-29
      52.6000   4.44705e-29
      52.7000   3.79387e-29
      52.8000   2.57879e-29
      52.9000   1.47502e-29
      53.0000   9.86364e-30
      53.1000   6.50385e-30
      53.2000   4.36390e-30
      53.3000   2.89619e-30
      53.4000   1.89773e-30
      53.5000   1.08321e-30
      53.6000   5.47490e-31
      53.7000   3.19834e-31
      53.8000   2.38870e-31
      53.9000   1.64045e-31
      54.0000   1.10298e-31
      54.1000   7.17691e-32
      54.2000   5.08569e-32
      54.3000   3.06326e-32
      54.4000   1.29735e-32
      54.5000   7.08387e-33
      54.6000   5.07426e-33
      54.7000   3.85049e-33
      54.8000   2.70525e-33
      54.9000   1.83414e-33
      55.0000   1.33475e-33
      55.1000   9.65246e-34
      55.2000   6.92799e-34
      55.3000   6.40230e-34
      55.4000   5.70742e-34
      55.5000   4.10041e-34
      55.6000   2.62884e-34
      55.7000   1.89171e-34
      55.8000   1.29173e-34
      55.9000   9.05628e-35
      56.0000   6.62517e-35
      56.1000   4.57849e-35
      56.2000   4.24230e-35
      56.3000   3.45959e-35
      56.4000   2.50565e-35
      56.5000   1.72694e-35
      56.6000   1.18985e-35
      56.7000   8.66923e-36
      56.8000   6.36012e-36
      56.9000   4.50660e-36
      57.0000   3.00924e-36
      57.1000   2.00961e-36
      57.2000   1.38403e-36
      57.3000   9.79670e-37
      57.4000   6.99639e-37
      57.5000   4.96390e-37
      57.6000   3.22784e-37
      57.7000   2.24348e-37
      57.8000   2.03315e-37
      57.9000   1.52233e-37
      58.0000   1.08460e-37
      58.1000   7.15338e-38
      58.2000   4.11760e-38
      58.3000   2.70856e-38
      58.4000   2.04905e-38
      58.5000   1.63377e-38
      58.6000   1.11510e-38
      58.7000   7.53084e-39
      58.8000   5.05513e-39
      58.9000   3.40528e-39
      59.0000   2.47423e-39
      59.1000   1.83596e-39
      59.2000   1.35802e-39
      59.3000   1.00104e-39
      59.4000   7.35190e-40
      59.5000   5.17811e-40
      59.6000   3.42519e-40
      59.7000   2.62287e-40
      59.8000   1.82305e-40
      59.9000   1.08354e-40
      60.0000   7.97941e-41
      60.1000   5.88643e-41
      60.2000   4.32847e-41
      60.3000   3.17198e-41
      60.4000   2.31761e-41
      60.5000   1.70804e-41
      60.6000   1.26930e-41
      60.7000   9.99406e-42
      60.8000   8.25225e-42
      60.9000   6.79630e-42
      61.0000   5.61640e-42
      61.1000   4.65231e-42
      61.2000   3.86899e-42
      61.3000   3.20757e-42
      61.4000   2.65546e-42
      61.5000   2.20705e-42
      61.6000   1.75723e-42
      61.7000   1.38028e-42
      61.8000   1.08601e-42
      61.9000   8.58996e-43
      62.0000   6.58610e-43
      62.1000   4.76441e-43
      62.2000   3.34910e-43
      62.3000   2.42425e-43
      62.4000   2.01787e-43
      62.5000   1.72360e-43
      62.6000   1.49939e-43
      62.7000   1.27518e-43
      62.8000   1.12104e-43
      62.9000   8.26766e-44
      63.0000   5.74532e-44
      63.1000   3.78351e-44
      63.2000   3.22299e-44
      63.3000   2.52234e-44
      63.4000   2.24208e-44
      63.5000   1.54143e-44
      63.6000   1.26117e-44
      63.7000   9.80909e-45
      63.8000   9.80909e-45
      63.9000   7.00649e-45
      64.0000   2.80260e-45
      64.1000   2.80260e-45
      64.2000   2.80260e-45
      64.3000   2.80260e-45
      64.4000       0.00000
      64.5000       0.00000
      64.6000       0.00000
      64.7000       0.00000
      64.8000       0.00000
      64.9000       0.00000
      65.0000       0.00000
      65.1000       0.00000
      65.2000       0.00000
      65.3000       0.00000
      65.4000       0.00000
      65.5000       0.00000
      65.6000       0.00000
      65.7000       0.00000
      65.8000       0.00000
      65.9000       0.00000
      66.0000       0.00000
      66.1000       0.00000
      66.2000       0.00000
      66.3000       0.00000
      66.4000       0.00000
      66.5000       0.00000
      66.6000       0.00000
      66.7000       0.00000
      66.8000       0.00000
      66.9000       0.00000
      67.0000       0.00000
      67.1000       0.00000
      67.2000       0.00000
      67.3000       0.00000
      67.4000       0.00000
      67.5000       0.00000
      67.6000       0.00000
      67.7000       0.00000
      67.8000       0.00000
      67.9000       0.00000
      68.0000       0.00000
      68.1000       0.00000
      68.2000       0.00000
      68.3000       0.00000
      68.4000       0.00000
      68.5000       0.00000
      68.6000       0.00000
      68.7000       0.00000
      68.8000       0.00000
      68.9000       0.00000
      69.0000       0.00000
      69.1000       0.00000
      69.2000       0.00000
      69.3000       0.00000
      69.4000       0.00000
      69.5000       0.00000
      69.6000       0.00000
      69.7000       0.00000
      69.8000       0.00000
      69.9000       0.00000
      70.0000       0.00000
      70.1000       0.00000
      70.2000       0.00000
      70.3000       0.00000
      70.4000       0.00000
      70.5000       0.00000
      70.6000       0.00000
      70.7000       0.00000
      70.8000       0.00000
      70.9000       0.00000
      71.0000       0.00000
      71.1000       0.00000
      71.2000       0.00000
      71.3000       0.00000
      71.4000       0.00000
      71.5000       0.00000
      71.6000       0.00000
      71.7000       0.00000
      71.8000       0.00000
      71.9000       0.00000
      72.0000       0.00000
      72.1000       0.00000
      72.2000       0.00000
      72.3000       0.00000
      72.4000       0.00000
      72.5000       0.00000
      72.6000       0.00000
      72.7000       0.00000
      72.8000       0.00000
      72.9000       0.00000
      73.0000       0.00000
      73.1000       0.00000
      73.2000       0.00000
      73.3000       0.00000
      73.4000       0.00000
      73.5000       0.00000
      73.6000       0.00000
      73.7000       0.00000
      73.8000       0.00000
      73.9000       0.00000
      74.0000       0.00000
      74.1000       0.00000
      74.2000       0.00000
      74.3000       0.00000
      74.4000       0.00000
      74.5000       0.00000
      74.6000       0.00000
      74.7000       0.00000
      74.8000       0.00000
      74.9000       0.00000
      75.0000       0.00000
      75.1000       0.00000
      75.2000       0.00000
      75.3000       0.00000
      75.4000       0.00000
      75.5000       0.00000
      75.6000       0.00000
      75.7000       0.00000
      75.8000       0.00000
      75.9000       0.00000
      76.0000       0.00000
      76.1000       0.00000
      76.2000       0.00000
      76.3000       0.00000
      76.4000       0.00000
      76.5000       0.00000
      76.6000       0.00000
      76.7000       0.00000
      76.8000       0.00000
      76.9000       0.00000
      77.0000       0.00000
      77.1000       0.00000
      77.2000       0.00000
      77.3000       0.00000
      77.4000       0.00000
      77.5000       0.00000
      77.6000       0.00000
      77.7000       0.00000
      77.8000       0.00000
      77.9000       0.00000
      78.0000       0.00000
      78.1000       0.00000
      78.2000       0.00000
      78.3000       0.00000
      78.4000       0.00000
      78.5000       0.00000
      78.6000       0.00000
      78.7000       0.00000
      78.8000       0.00000
      78.9000       0.00000
      79.0000       0.00000
      79.1000       0.00000
      79.2000       0.00000
      79.3000       0.00000
      79.4000       0.00000
      79.5000       0.00000
      79.6000       0.00000
      79.7000       0.00000
      79.8000       0.00000
      79.9000       0.00000
      80.0000       0.00000
      80.1000       0.00000
      80.2000       0.00000
      80.3000       0.00000
      80.4000       0.00000
      80.5000       0.00000
      80.6000       0.00000
      80.7000       0.00000
      80.8000       0.00000
      80.9000       0.00000
      81.0000       0.00000
      81.1000       0.00000
      81.2000       0.00000
      81.3000       0.00000
      81.4000       0.00000
      81.5000       0.00000
      81.6000       0.00000
      81.7000       0.00000
      81.8000       0.00000
      81.9000       0.00000
      82.0000       0.00000
      82.1000       0.00000
      82.2000       0.00000
      82.3000       0.00000
      82.4000       0.00000
      82.5000       0.00000
      82.6000       0.00000
      82.7000       0.00000
      82.8000       0.00000
      82.9000       0.00000
      83.0000       0.00000
      83.1000       0.00000
      83.2000       0.00000
      83.3000       0.00000
      83.4000       0.00000
      83.5000       0.00000
      83.6000       0.00000
      83.7000       0.00000
      83.8000       0.00000
      83.9000       0.00000
      84.0000       0.00000
      84.1000       0.00000
      84.2000       0.00000
      84.3000       0.00000
      84.4000       0.00000
      84.5000       0.00000
      84.6000       0.00000
      84.7000       0.00000
      84.8000       0.00000
      84.9000       0.00000
      85.0000       0.00000
      85.1000       0.00000
      85.2000       0.00000
      85.3000       0.00000
      85.4000       0.00000
      85.5000       0.00000
      85.6000       0.00000
      85.7000       0.00000
      85.8000       0.00000
      85.9000       0.00000
      86.0000       0.00000
      86.1000       0.00000
      86.2000       0.00000
      86.3000       0.00000
      86.4000       0.00000
      86.5000       0.00000
      86.6000       0.00000
      86.7000       0.00000
      86.8000       0.00000
      86.9000       0.00000
      87.0000       0.00000
      87.1000       0.00000
      87.2000       0.00000
      87.3000       0.00000
      87.4000       0.00000
      87.5000       0.00000
      87.6000       0.00000
      87.7000       0.00000
      87.8000       0.00000
      87.9000       0.00000
      88.0000       0.00000
      88.1000       0.00000
      88.2000       0.00000
      88.3000       0.00000
      88.4000       0.00000
      88.5000       0.00000
      88.6000       0.00000
      88.7000       0.00000
      88.8000       0.00000
      88.9000       0.00000
      89.0000       0.00000
      89.1000       0.00000
      89.2000       0.00000
      89.3000       0.00000
      89.4000       0.00000
      89.5000       0.00000
      89.6000       0.00000
      89.7000       0.00000
      89.8000       0.00000
      89.9000       0.00000
      90.0000       0.00000
      90.1000       0.00000
      90.2000       0.00000
      90.3000       0.00000
      90.4000       0.00000
      90.5000       0.00000
      90.6000       0.00000
      90.7000       0.00000
      90.8000       0.00000
      90.9000       0.00000
      91.0000       0.00000
      91.1000       0.00000
      91.2000       0.00000
      91.3000       0.00000
      91.4000       0.00000
      91.5000       0.00000
      91.6000       0.00000
      91.7000       0.00000
      91.8000       0.00000
      91.9000       0.00000
      92.0000       0.00000
      92.1000       0.00000
      92.2000       0.00000
      92.3000       0.00000
      92.4000       0.00000
      92.5000       0.00000
      92.6000       0.00000
      92.7000       0.00000
      92.8000       0.00000
      92.9000       0.00000
      93.0000       0.00000
      93.1000       0.00000
      93.2000       0.00000
      93.3000       0.00000
      93.4000       0.00000
      93.5000       0.00000
      93.6000       0.00000
      93.7000       0.00000
      93.8000       0.00000
      93.9000       0.00000
      94.0000       0.00000
      94.1000       0.00000
      94.2000       0.00000
      94.3000       0.00000
      94.4000       0.00000
      94.5000       0.00000
      94.6000       0.00000
      94.7000       0.00000
      94.8000       0.00000
      94.9000       0.00000
      95.0000       0.00000
      95.1000       0.00000
      95.2000       0.00000
      95.3000       0.00000
      95.4000       0.00000
      95.5000       0.00000
      95.6000       0.00000
      95.7000       0.00000
      95.8000       0.00000
      95.9000       0.00000
      96.0000       0.00000
      96.1000       0.00000
      96.2000       0.00000
      96.3000       0.00000
      96.4000       0.00000
      96.5000       0.00000
      96.6000       0.00000
      96.7000       0.00000
      96.8000       0.00000
      96.9000       0.00000
      97.0000       0.00000
      97.1000       0.00000
      97.2000       0.00000
      97.3000       0.00000
      97.4000       0.00000
      97.5000       0.00000
      97.6000       0.00000
      97.7000       0.00000
      97.8000       0.00000
      97.9000       0.00000
      98.0000       0.00000
      98.1000       0.00000
      98.2000       0.00000
      98.3000       0.00000
      98.4000       0.00000
      98.5000       0.00000
      98.6000       0.00000
      98.7000       0.00000
      98.8000       0.00000
      98.9000       0.00000
      99.0000       0.00000
      99.1000       0.00000
      99.2000       0.00000
      99.3000       0.00000
      99.4000       0.00000
      99.5000       0.00000
      99.6000       0.00000
      99.7000       0.00000
      99.8000       0.00000
      99.9000       0.00000
      100.000       0.00000
      100.100       0.00000
      100.200       0.00000
      100.300       0.00000
      100.400       0.00000
      100.500       0.00000
      100.600       0.00000
      100.700       0.00000
      100.800       0.00000
      100.900       0.00000
      101.000       0.00000
      101.100       0.00000
      101.200       0.00000
      101.300       0.00000
      101.400       0.00000
      101.500       0.00000
      101.600       0.00000
      101.700       0.00000
      101.800       0.00000
      101.900       0.00000
      102.000       0.00000
      102.100       0.00000
      102.200       0.00000
      102.300       0.00000
      102.400       0.00000
      102.500       0.00000
      102.600       0.00000
      102.700       0.00000
      102.800       0.00000
      102.900       0.00000
      103.000       0.00000
      103.100       0.00000
      103.200       0.00000
      103.300       0.00000
      103.400       0.00000
      103.500       0.00000
      103.600       0.00000
      103.700       0.00000
      103.800       0.00000
      103.900       0.00000
      104.000       0.00000
      104.100       0.00000
      104.200       0.00000
      104.300       0.00000
      104.400       0.00000
      104.500       0.00000
      104.600       0.00000
      104.700       0.00000
      104.800       0.00000
      104.900       0.00000
      105.000       0.00000
      105.100       0.00000
      105.200       0.00000
      105.300       0.00000
      105.400       0.00000
      105.500       0.00000
      105.600       0.00000
      105.700       0.00000
      105.800       0.00000
      105.900       0.00000
      106.000       0.00000
      106.100       0.00000
      106.200       0.00000
      106.300       0.00000
      106.400       0.00000
      106.500       0.00000
      106.600       0.00000
      106.700       0.00000
      106.800       0.00000
      106.900       0.00000
      107.000       0.00000
      107.100       0.00000
      107.200       0.00000
      107.300       0.00000
      107.400       0.00000
      107.500       0.00000
      107.600       0.00000
      107.700       0.00000
      107.800       0.00000
      107.900       0.00000
      108.000       0.00000
      108.100       0.00000
      108.200       0.00000
      108.300       0.00000
      108.400       0.00000
      108.500       0.00000
      108.600       0.00000
      108.700       0.00000
      108.800       0.00000
      108.900       0.00000
      109.000       0.00000
      109.100       0.00000
      109.200       0.00000
      109.300       0.00000
      109.400       0.00000
      109.500       0.00000
      109.600       0.00000
      109.700       0.00000
      109.800       0.00000
      109.900       0.00000
      110.000       0.00000
      110.100       0.00000
      110.200       0.00000
      110.300       0.00000
      110.400       0.00000
      110.500       0.00000
      110.600   1.03458e-41
      110.700   2.66661e-29
      110.800   7.34305e-20
      110.900   2.61951e-15
      111.000   9.09036e-13
      111.100   3.27279e-11
      111.200   1.05599e-10
      111.300   2.00754e-10
      111.400   3.16493e-10
      111.500   3.52243e-10
      111.600   3.92611e-10
      111.700   4.87002e-10
      111.800   6.12841e-10
      111.900   6.77781e-10
      112.000   8.00280e-10
      112.100   9.95100e-10
      112.200   1.16627e-09
      112.300   1.28101e-09
      112.400   1.39140e-09
      112.500   1.54366e-09
      112.600   1.75411e-09
      112.700   1.96793e-09
      112.800   2.07420e-09
      112.900   2.27771e-09
      113.000   2.49813e-09
      113.100   2.66987e-09
      113.200   2.81115e-09
      113.300   2.83058e-09
      113.400   3.06941e-09
      113.500   3.31802e-09
      113.600   3.35431e-09
      113.700   3.58994e-09
      113.800   3.76158e-09
      113.900   3.91186e-09
      114.000   4.00401e-09
      114.100   4.06332e-09
      114.200   4.44306e-09
      114.300   4.69130e-09
      114.400   4.63935e-09
      114.500   4.49092e-09
      114.600   4.48842e-09
      114.700   4.51537e-09
      114.800   4.58653e-09
      114.900   4.76075e-09
      115.000   4.92865e-09
      115.100   5.03413e-09
      115.200   5.06173e-09
      115.300   5.09413e-09
      115.400   5.12212e-09
      115.500   5.15245e-09
      115.600   5.18091e-09
      115.700   5.20648e-09
      115.800   5.23608e-09
      115.900   5.26366e-09
      116.000   5.28871e-09
      116.100   5.30324e-09
      116.200   5.31542e-09
      116.300   5.32648e-09
      116.400   5.32837e-09
      116.500   5.29064e-09
      116.600   5.25192e-09
      116.700   5.21442e-09
      116.800   5.17600e-09
      116.900   5.13307e-09
      117.000   5.09579e-09
      117.100   5.07401e-09
      117.200   5.06303e-09
      117.300   5.04153e-09
      117.400   5.01939e-09
      117.500   4.98870e-09
      117.600   4.93413e-09
      117.700   4.87285e-09
      117.800   4.80918e-09
      117.900   4.74472e-09
      118.000   4.67817e-09
      118.100   4.60977e-09
      118.200   4.54448e-09
      118.300   4.48099e-09
      118.400   4.40786e-09
      118.500   4.33670e-09
      118.600   4.27129e-09
      118.700   4.20517e-09
      118.800   4.13779e-09
      118.900   4.07292e-09
      119.000   4.00368e-09
      119.100   3.92952e-09
      119.200   3.87367e-09
      119.300   3.84325e-09
      119.400   3.82078e-09
      119.500   3.79295e-09
      119.600   3.75247e-09
      119.700   3.70556e-09
      119.800   3.65137e-09
      119.900   3.58756e-09
      120.000   3.52777e-09
      120.100   3.47129e-09
      120.200   3.42789e-09
      120.300   3.39205e-09
      120.400   3.35645e-09
      120.500   3.31126e-09
      120.600   3.25905e-09
      120.700   3.20504e-09
      120.800   3.15324e-09
      120.900   3.11470e-09
      121.000   3.09618e-09
      121.100   3.07607e-09
      121.200   3.05181e-09
      121.300   3.02103e-09
      121.400   2.98523e-09
      121.500   2.94544e-09
      121.600   2.87864e-09
      121.700   2.81577e-09
      121.800   2.74862e-09
      121.900   2.68192e-09
      122.000   2.61281e-09
      122.100   2.54751e-09
      122.200   2.48379e-09
      122.300   2.43323e-09
      122.400   2.39645e-09
      122.500   2.36291e-09
      122.600   2.32816e-09
      122.700   2.29375e-09
      122.800   2.25695e-09
      122.900   2.22228e-09
      123.000   2.20247e-09
      123.100   2.20794e-09
      123.200   2.21907e-09
      123.300   2.25589e-09
      123.400   2.30319e-09
      123.500   2.36548e-09
      123.600   2.41801e-09
      123.700   2.43686e-09
      123.800   2.43591e-09
      123.900   2.44186e-09
      124.000   2.45890e-09
      124.100   2.51334e-09
      124.200   2.65168e-09
      124.300   2.86614e-09
      124.400   3.07053e-09
      124.500   3.11891e-09
      124.600   3.09292e-09
      124.700   3.04836e-09
      124.800   3.00522e-09
      124.900   2.96261e-09
      125.000   2.92044e-09
      125.100   2.87788e-09
      125.200   2.83579e-09
      125.300   2.79426e-09
      125.400   2.75332e-09
      125.500   2.71296e-09
      125.600   2.66173e-09
      125.700   2.60877e-09
      125.800   2.56351e-09
      125.900   2.54614e-09
      126.000   2.53077e-09
      126.100   2.51550e-09
      126.200   2.50031e-09
      126.300   2.48522e-09
      126.400   2.47019e-09
      126.500   2.45525e-09
      126.600   2.44040e-09
      126.700   2.42564e-09
      126.800   2.41096e-09
      126.900   2.39635e-09
      127.000   2.38176e-09
      127.100   2.36221e-09
      127.200   2.33706e-09
      127.300   2.31025e-09
      127.400   2.28373e-09
      127.500   2.25750e-09
      127.600   2.23155e-09
      127.700   2.20588e-09
      127.800   2.18048e-09
      127.900   2.15535e-09
      128.000   2.13050e-09
      128.100   2.10591e-09
      128.200   2.08158e-09
      128.300   2.05751e-09
      128.400   2.03370e-09
      128.500   2.01015e-09
      128.600   1.98686e-09
      128.700   1.96383e-09
      128.800   1.94104e-09
      128.900   1.91850e-09
      129.000   1.89622e-09
      129.100   1.87415e-09
      129.200   1.85220e-09
      129.300   1.83050e-09
      129.400   1.80904e-09
      129.500   1.78783e-09
      129.600   1.76686e-09
      129.700   1.74612e-09
      129.800   1.72562e-09
      129.900   1.70537e-09
      130.000   1.68534e-09
      130.100   1.66555e-09
      130.200   1.64599e-09
      130.300   1.62665e-09
      130.400   1.60755e-09
      130.500   1.58864e-09
      130.600   1.56990e-09
      130.700   1.55134e-09
      130.800   1.53300e-09
      130.900   1.51488e-09
      131.000   1.49696e-09
      131.100   1.47926e-09
      131.200   1.46174e-09
      131.300   1.44439e-09
      131.400   1.42724e-09
      131.500   1.41029e-09
      131.600   1.39352e-09
      131.700   1.37695e-09
      131.800   1.36056e-09
      131.900   1.34435e-09
      132.000   1.32833e-09
      132.100   1.31248e-09
      132.200   1.29681e-09
      132.300   1.28132e-09
      132.400   1.26600e-09
      132.500   1.25086e-09
      132.600   1.23589e-09
      132.700   1.22024e-09
      132.800   1.20448e-09
      132.900   1.18887e-09
      133.000   1.17346e-09
      133.100   1.15823e-09
      133.200   1.14320e-09
      133.300   1.12834e-09
      133.400   1.11366e-09
      133.500   1.09916e-09
      133.600   1.08485e-09
      133.700   1.07072e-09
      133.800   1.05676e-09
      133.900   1.04300e-09
      134.000   1.02941e-09
      134.100   1.01599e-09
      134.200   1.00275e-09
      134.300   9.89671e-10
      134.400   9.76761e-10
      134.500   9.64020e-10
      134.600   9.51438e-10
      134.700   9.39016e-10
      134.800   9.26756e-10
      134.900   9.14658e-10
      135.000   9.02711e-10
      135.100   8.90925e-10
      135.200   8.79290e-10
      135.300   8.67804e-10
      135.400   8.56460e-10
      135.500   8.45233e-10
      135.600   8.34127e-10
      135.700   8.23160e-10
      135.800   8.12328e-10
      135.900   8.01634e-10
      136.000   7.91071e-10
      136.100   7.80638e-10
      136.200   7.70349e-10
      136.300   7.60184e-10
      136.400   7.50150e-10
      136.500   7.40241e-10
      136.600   7.30453e-10
      136.700   7.20787e-10
      136.800   7.11242e-10
      136.900   7.01820e-10
      137.000   6.92522e-10
      137.100   6.83355e-10
      137.200   6.74307e-10
      137.300   6.65383e-10
      137.400   6.56572e-10
      137.500   6.47870e-10
      137.600   6.39276e-10
      137.700   6.30779e-10
      137.800   6.22385e-10
      137.900   6.14097e-10
      138.000   6.05917e-10
      138.100   5.97841e-10
      138.200   5.89881e-10
      138.300   5.82023e-10
      138.400   5.74269e-10
      138.500   5.66615e-10
      138.600   5.59058e-10
      138.700   5.51601e-10
      138.800   5.44242e-10
      138.900   5.36976e-10
      139.000   5.29805e-10
      139.100   5.22735e-10
      139.200   5.15792e-10
      139.300   5.08975e-10
      139.400   5.02257e-10
      139.500   4.95624e-10
      139.600   4.89072e-10
      139.700   4.82606e-10
      139.800   4.76222e-10
      139.900   4.69917e-10
      140.000   4.63697e-10
      140.100   4.57556e-10
      140.200   4.51493e-10
      140.300   4.45507e-10
      140.400   4.39596e-10
      140.500   4.33758e-10
      140.600   4.27992e-10
      140.700   4.22300e-10
      140.800   4.16687e-10
      140.900   4.11146e-10
      141.000   4.05673e-10
      141.100   4.00269e-10
      141.200   3.94934e-10
      141.300   3.89665e-10
      141.400   3.84478e-10
      141.500   3.79434e-10
      141.600   3.74508e-10
      141.700   3.69644e-10
      141.800   3.64841e-10
      141.900   3.60097e-10
      142.000   3.55411e-10
      142.100   3.50922e-10
      142.200   3.46888e-10
      142.300   3.43240e-10
      142.400   3.39633e-10
      142.500   3.36059e-10
      142.600   3.32519e-10
      142.700   3.29012e-10
      142.800   3.25540e-10
      142.900   3.22101e-10
      143.000   3.18695e-10
      143.100   3.15324e-10
      143.200   3.11989e-10
      143.300   3.08685e-10
      143.400   3.05414e-10
      143.500   3.02176e-10
      143.600   2.98968e-10
      143.700   2.95816e-10
      143.800   2.93025e-10
      143.900   2.90318e-10
      144.000   2.87638e-10
      144.100   2.84981e-10
      144.200   2.82346e-10
      144.300   2.79733e-10
      144.400   2.77171e-10
      144.500   2.75045e-10
      144.600   2.73062e-10
      144.700   2.71104e-10
      144.800   2.69155e-10
      144.900   2.67215e-10
      145.000   2.65285e-10
      145.100   2.63365e-10
      145.200   2.61454e-10
      145.300   2.59554e-10
      145.400   2.57662e-10
      145.500   2.55779e-10
      145.600   2.53904e-10
      145.700   2.52037e-10
      145.800   2.50181e-10
      145.900   2.48336e-10
      146.000   2.46496e-10
      146.100   2.44640e-10
      146.200   2.42775e-10
      146.300   2.40919e-10
      146.400   2.39072e-10
      146.500   2.37237e-10
      146.600   2.35411e-10
      146.700   2.33596e-10
      146.800   2.31776e-10
      146.900   2.29945e-10
      147.000   2.28125e-10
      147.100   2.26315e-10
      147.200   2.24518e-10
      147.300   2.22731e-10
      147.400   2.20956e-10
      147.500   2.19190e-10
      147.600   2.17435e-10
      147.700   2.15693e-10
      147.800   2.13961e-10
      147.900   2.12240e-10
      148.000   2.10530e-10
      148.100   2.08830e-10
      148.200   2.07142e-10
      148.300   2.05466e-10
      148.400   2.04109e-10
      148.500   2.02998e-10
      148.600   2.01975e-10
      148.700   2.00953e-10
      148.800   1.99934e-10
      148.900   1.98920e-10
      149.000   1.97908e-10
      149.100   1.96898e-10
      149.200   1.95891e-10
      149.300   1.94886e-10
      149.400   1.93883e-10
      149.500   1.92884e-10
      149.600   1.91886e-10
      149.700   1.90892e-10
      149.800   1.89899e-10
      149.900   1.88910e-10
      150.000   1.87924e-10
      150.100   1.86941e-10
      150.200   1.85959e-10
      150.300   1.84980e-10
      150.400   1.84003e-10
      150.500   1.83030e-10
      150.600   1.82058e-10
      150.700   1.81089e-10
      150.800   1.80122e-10
      150.900   1.79159e-10
      151.000   1.78196e-10
      151.100   1.77237e-10
      151.200   1.76280e-10
      151.300   1.75326e-10
      151.400   1.74374e-10
      151.500   1.73426e-10
      151.600   1.72481e-10
      151.700   1.71542e-10
      151.800   1.70606e-10
      151.900   1.69672e-10
      152.000   1.68805e-10
      152.100   1.68597e-10
      152.200   1.68471e-10
      152.300   1.68341e-10
      152.400   1.68209e-10
      152.500   1.68077e-10
      152.600   1.67942e-10
      152.700   1.67145e-10
      152.800   1.66113e-10
      152.900   1.65083e-10
      153.000   1.64058e-10
      153.100   1.63037e-10
      153.200   1.62020e-10
      153.300   1.61219e-10
      153.400   1.60623e-10
      153.500   1.60050e-10
      153.600   1.59479e-10
      153.700   1.58909e-10
      153.800   1.58338e-10
      153.900   1.57768e-10
      154.000   1.57218e-10
      154.100   1.56710e-10
      154.200   1.56215e-10
      154.300   1.55720e-10
      154.400   1.55226e-10
      154.500   1.54731e-10
      154.600   1.54237e-10
      154.700   1.53743e-10
      154.800   1.53249e-10
      154.900   1.52755e-10
      155.000   1.52260e-10
      155.100   1.51767e-10
      155.200   1.51272e-10
      155.300   1.50777e-10
      155.400   1.50282e-10
      155.500   1.49788e-10
      155.600   1.49292e-10
      155.700   1.48796e-10
      155.800   1.48301e-10
      155.900   1.47804e-10
      156.000   1.47308e-10
      156.100   1.46811e-10
      156.200   1.46314e-10
      156.300   1.45817e-10
      156.400   1.45319e-10
      156.500   1.44815e-10
      156.600   1.44278e-10
      156.700   1.43740e-10
      156.800   1.43202e-10
      156.900   1.42664e-10
      157.000   1.42127e-10
      157.100   1.41542e-10
      157.200   1.40634e-10
      157.300   1.39381e-10
      157.400   1.38137e-10
      157.500   1.36902e-10
      157.600   1.35676e-10
      157.700   1.34459e-10
      157.800   1.33251e-10
      157.900   1.32778e-10
      158.000   1.32371e-10
      158.100   1.31964e-10
      158.200   1.31556e-10
      158.300   1.31148e-10
      158.400   1.30741e-10
      158.500   1.30333e-10
      158.600   1.29924e-10
      158.700   1.29515e-10
      158.800   1.29107e-10
      158.900   1.28698e-10
      159.000   1.28289e-10
      159.100   1.27858e-10
      159.200   1.27169e-10
      159.300   1.26059e-10
      159.400   1.24956e-10
      159.500   1.23863e-10
      159.600   1.22777e-10
      159.700   1.21700e-10
      159.800   1.20630e-10
      159.900   1.20082e-10
      160.000   1.19887e-10
      160.100   1.19702e-10
      160.200   1.19516e-10
      160.300   1.19330e-10
      160.400   1.19143e-10
      160.500   1.18896e-10
      160.600   1.18311e-10
      160.700   1.17479e-10
      160.800   1.16650e-10
      160.900   1.15826e-10
      161.000   1.15007e-10
      161.100   1.14192e-10
      161.200   1.13382e-10
      161.300   1.12576e-10
      161.400   1.11774e-10
      161.500   1.10977e-10
      161.600   1.10183e-10
      161.700   1.09393e-10
      161.800   1.08607e-10
      161.900   1.07840e-10
      162.000   1.07203e-10
      162.100   1.06644e-10
      162.200   1.06088e-10
      162.300   1.05532e-10
      162.400   1.04978e-10
      162.500   1.04426e-10
      162.600   1.03875e-10
      162.700   1.03325e-10
      162.800   1.02777e-10
      162.900   1.02230e-10
      163.000   1.01686e-10
      163.100   1.01143e-10
      163.200   1.00600e-10
      163.300   1.00060e-10
      163.400   9.95210e-11
      163.500   9.89839e-11
      163.600   9.84483e-11
      163.700   9.79140e-11
      163.800   9.73823e-11
      163.900   9.68518e-11
      164.000   9.63228e-11
      164.100   9.56827e-11
      164.200   9.47390e-11
      164.300   9.38088e-11
      164.400   9.28867e-11
      164.500   9.19729e-11
      164.600   9.10672e-11
      164.700   9.01689e-11
      164.800   8.93839e-11
      164.900   8.88355e-11
      165.000   8.83831e-11
      165.100   8.79318e-11
      165.200   8.74820e-11
      165.300   8.70338e-11
      165.400   8.65877e-11
      165.500   8.61428e-11
      165.600   8.54057e-11
      165.700   8.45468e-11
      165.800   8.36861e-11
      165.900   8.28333e-11
      166.000   8.19892e-11
      166.100   8.11527e-11
      166.200   8.03243e-11
      166.300   7.95036e-11
      166.400   7.86904e-11
      166.500   7.78845e-11
      166.600   7.70862e-11
      166.700   7.62953e-11
      166.800   7.55110e-11
      166.900   7.47342e-11
      167.000   7.39660e-11
      167.100   7.32036e-11
      167.200   7.24482e-11
      167.300   7.16998e-11
      167.400   7.09586e-11
      167.500   7.02240e-11
      167.600   6.94962e-11
      167.700   6.87754e-11
      167.800   6.80612e-11
      167.900   6.73535e-11
      168.000   6.66524e-11
      168.100   6.59577e-11
      168.200   6.52694e-11
      168.300   6.45875e-11
      168.400   6.39119e-11
      168.500   6.32484e-11
      168.600   6.27282e-11
      168.700   6.22845e-11
      168.800   6.18433e-11
      168.900   6.14047e-11
      169.000   6.09687e-11
      169.100   6.05346e-11
      169.200   6.01034e-11
      169.300   5.96744e-11
      169.400   5.92478e-11
      169.500   5.88202e-11
      169.600   5.83811e-11
      169.700   5.79291e-11
      169.800   5.74752e-11
      169.900   5.70236e-11
      170.000   5.65745e-11
      170.100   5.59362e-11
      170.200   5.50242e-11
      170.300   7.16544e-11
      170.400   1.53804e-10
      170.500   2.91221e-10
      170.600   4.28272e-10
      170.700   5.37287e-10
      170.800   5.87119e-10
      170.900   5.89437e-10
      171.000   5.81216e-10
      171.100   5.73314e-10
      171.200   5.65483e-10
      171.300   5.57722e-10
      171.400   5.50035e-10
      171.500   5.42419e-10
      171.600   5.34877e-10
      171.700   5.27416e-10
      171.800   5.20036e-10
      171.900   5.12742e-10
      172.000   5.05541e-10
      172.100   4.98433e-10
      172.200   4.91425e-10
      172.300   4.84498e-10
      172.400   4.77573e-10
      172.500   4.70730e-10
      172.600   4.63991e-10
      172.700   4.57354e-10
      172.800   4.50817e-10
      172.900   4.44377e-10
      173.000   4.38039e-10
      173.100   4.31800e-10
      173.200   4.25654e-10
      173.300   4.19604e-10
      173.400   4.13644e-10
      173.500   4.07779e-10
      173.600   4.02004e-10
      173.700   3.96316e-10
      173.800   3.90716e-10
      173.900   3.85202e-10
      174.000   3.79769e-10
      174.100   3.74418e-10
      174.200   3.69147e-10
      174.300   3.63952e-10
      174.400   3.58834e-10
      174.500   3.53788e-10
      174.600   3.48813e-10
      174.700   3.43910e-10
      174.800   3.39078e-10
      174.900   3.34310e-10
      175.000   3.29607e-10
      175.100   3.24968e-10
      175.200   3.20405e-10
      175.300   3.15901e-10
      175.400   3.11458e-10
      175.500   3.07079e-10
      175.600   3.02756e-10
      175.700   2.98494e-10
      175.800   2.94289e-10
      175.900   2.90142e-10
      176.000   2.86050e-10
      176.100   2.82017e-10
      176.200   2.78038e-10
      176.300   2.74113e-10
      176.400   2.70242e-10
      176.500   2.66416e-10
      176.600   2.61143e-10
      176.700   2.55266e-10
      176.800   2.49517e-10
      176.900   2.43896e-10
      177.000   2.38396e-10
      177.100   2.33016e-10
      177.200   2.27756e-10
      177.300   2.22611e-10
      177.400   2.17577e-10
      177.500   2.12651e-10
      177.600   2.07835e-10
      177.700   2.03125e-10
      177.800   1.98517e-10
      177.900   1.94008e-10
      178.000   1.89611e-10
      178.100   1.85311e-10
      178.200   1.81103e-10
      178.300   1.76988e-10
      178.400   1.72964e-10
      178.500   1.69028e-10
      178.600   1.65252e-10
      178.700   1.61959e-10
      178.800   1.59360e-10
      178.900   1.56801e-10
      179.000   1.54281e-10
      179.100   1.51799e-10
      179.200   1.49356e-10
      179.300   1.46951e-10
      179.400   1.44583e-10
      179.500   1.42253e-10
      179.600   1.39960e-10
      179.700   1.37704e-10
      179.800   1.35483e-10
      179.900   1.33298e-10
      180.000   1.31148e-10
      180.100   1.29032e-10
      180.200   1.26952e-10
      180.300   1.24905e-10
      180.400   1.22891e-10
      180.500   1.20911e-10
      180.600   1.18962e-10
      180.700   1.17046e-10
      180.800   1.15162e-10
      180.900   1.13308e-10
      181.000   1.11485e-10
      181.100   1.09692e-10
      181.200   1.07928e-10
      181.300   1.06194e-10
      181.400   1.04488e-10
      181.500   1.02811e-10
      181.600   1.01160e-10
      181.700   9.95372e-11
      181.800   9.79406e-11
      181.900   9.63701e-11
      182.000   9.48260e-11
      182.100   9.33060e-11
      182.200   9.18224e-11
      182.300   9.04639e-11
      182.400   8.91328e-11
      182.500   8.78212e-11
      182.600   8.65290e-11
      182.700   8.52557e-11
      182.800   8.40012e-11
      182.900   8.27648e-11
      183.000   8.15468e-11
      183.100   8.03468e-11
      183.200   7.91641e-11
      183.300   7.79982e-11
      183.400   7.68494e-11
      183.500   7.57175e-11
      183.600   7.46019e-11
      183.700   7.35024e-11
      183.800   7.24200e-11
      183.900   7.13536e-11
      184.000   7.03026e-11
      184.100   6.92673e-11
      184.200   6.82471e-11
      184.300   6.72418e-11
      184.400   6.62515e-11
      184.500   6.52756e-11
      184.600   6.43137e-11
      184.700   6.33658e-11
      184.800   6.24320e-11
      184.900   6.15116e-11
      185.000   6.06045e-11
      185.100   5.97197e-11
      185.200   5.88932e-11
      185.300   5.81377e-11
      185.400   5.73916e-11
      185.500   5.66546e-11
      185.600   5.59269e-11
      185.700   5.52083e-11
      185.800   5.44992e-11
      185.900   5.37989e-11
      186.000   5.31073e-11
      186.100   5.24241e-11
      186.200   5.17492e-11
      186.300   5.10824e-11
      186.400   5.04241e-11
      186.500   4.97737e-11
      186.600   4.91311e-11
      186.700   4.84959e-11
      186.800   4.78683e-11
      186.900   4.72484e-11
      187.000   4.66359e-11
      187.100   4.60303e-11
      187.200   4.54325e-11
      187.300   4.48421e-11
      187.400   4.42587e-11
      187.500   4.36823e-11
      187.600   4.31129e-11
      187.700   4.25504e-11
      187.800   4.19947e-11
      187.900   4.14457e-11
      188.000   4.09036e-11
      188.100   4.03443e-11
      188.200   3.97094e-11
      188.300   3.89797e-11
      188.400   3.82631e-11
      188.500   3.75592e-11
      188.600   3.68682e-11
      188.700   3.61899e-11
      188.800   3.55240e-11
      188.900   3.48702e-11
      189.000   3.42279e-11
      189.100   3.35971e-11
      189.200   3.29778e-11
      189.300   3.23697e-11
      189.400   3.17728e-11
      189.500   3.11895e-11
      189.600   3.06573e-11
      189.700   3.02904e-11
      189.800   2.99307e-11
      189.900   2.95755e-11
      190.000   2.92249e-11
      190.100   2.88786e-11
      190.200   2.85364e-11
      190.300   2.81985e-11
      190.400   2.78645e-11
      190.500   2.75346e-11
      190.600   2.72089e-11
      190.700   2.68870e-11
      190.800   2.65691e-11
      190.900   2.62550e-11
      191.000   2.59450e-11
      191.100   2.56388e-11
      191.200   2.53361e-11
      191.300   2.50372e-11
      191.400   2.47420e-11
      191.500   2.44502e-11
      191.600   2.41620e-11
      191.700   2.38772e-11
      191.800   2.35957e-11
      191.900   2.33176e-11
      192.000   2.30429e-11
      192.100   2.27715e-11
      192.200   2.25037e-11
      192.300   2.22389e-11
      192.400   2.19773e-11
      192.500   2.17037e-11
      192.600   2.13847e-11
      192.700   2.10313e-11
      192.800   2.06836e-11
      192.900   2.03414e-11
      193.000   2.00049e-11
      193.100   1.96742e-11
      193.200   1.93491e-11
      193.300   1.90294e-11
      193.400   1.87151e-11
      193.500   1.84060e-11
      193.600   1.81018e-11
      193.700   1.78027e-11
      193.800   1.75086e-11
      193.900   1.72194e-11
      194.000   1.69399e-11
      194.100   1.67621e-11
      194.200   1.66193e-11
      194.300   1.64801e-11
      194.400   1.63422e-11
      194.500   1.62055e-11
      194.600   1.60700e-11
      194.700   1.59358e-11
      194.800   1.58027e-11
      194.900   1.56707e-11
      195.000   1.55399e-11
      195.100   1.54103e-11
      195.200   1.52818e-11
      195.300   1.51544e-11
      195.400   1.50279e-11
      195.500   1.49008e-11
      195.600   1.47286e-11
      195.700   1.44812e-11
      195.800   1.42378e-11
      195.900   1.39983e-11
      196.000   1.37603e-11
      196.100   1.35262e-11
      196.200   1.32959e-11
      196.300   1.30694e-11
      196.400   1.28465e-11
      196.500   1.26272e-11
      196.600   1.24115e-11
      196.700   1.21993e-11
      196.800   1.19907e-11
      196.900   1.17856e-11
      197.000   1.15839e-11
      197.100   1.13855e-11
      197.200   1.11902e-11
      197.300   1.09981e-11
      197.400   1.08091e-11
      197.500   1.06231e-11
      197.600   1.04401e-11
      197.700   1.02605e-11
      197.800   1.00838e-11
      197.900   9.90994e-12
      198.000   9.73890e-12
      198.100   9.57070e-12
      198.200   9.40522e-12
      198.300   9.24238e-12
      198.400   9.08232e-12
      198.500   8.92512e-12
      198.600   8.77057e-12
      198.700   8.63158e-12
      198.800   8.51309e-12
      198.900   8.40511e-12
      199.000   8.29839e-12
      199.100   8.19295e-12
      199.200   8.08882e-12
      199.300   7.98612e-12
      199.400   7.88469e-12
      199.500   7.78452e-12
      199.600   7.68555e-12
      199.700   7.58782e-12
      199.800   7.49132e-12
      199.900   7.39600e-12
      200.000   7.30184e-12
      200.100   7.20933e-12
      200.200   7.11764e-12
      200.300   7.02717e-12
      200.400   6.93781e-12
      200.500   6.84954e-12
      200.600   6.76244e-12
      200.700   6.67644e-12
      200.800   6.59147e-12
      200.900   6.50764e-12
      201.000   6.42486e-12
      201.100   6.34318e-12
      201.200   6.26254e-12
      201.300   6.18290e-12
      201.400   6.10431e-12
      201.500   6.02670e-12
      201.600   5.95005e-12
      201.700   5.87441e-12
      201.800   5.79971e-12
      201.900   5.72424e-12
      202.000   5.62204e-12
      202.100   5.50849e-12
      202.200   5.39726e-12
      202.300   5.28874e-12
      202.400   5.18339e-12
      202.500   5.08041e-12
      202.600   4.97940e-12
      202.700   4.88042e-12
      202.800   4.78342e-12
      202.900   4.68840e-12
      203.000   4.59527e-12
      203.100   4.50403e-12
      203.200   4.41454e-12
      203.300   4.32680e-12
      203.400   4.24080e-12
      203.500   4.15652e-12
      203.600   4.07663e-12
      203.700   4.00592e-12
      203.800   3.93746e-12
      203.900   3.87023e-12
      204.000   3.80415e-12
      204.100   3.73922e-12
      204.200   3.67542e-12
      204.300   3.61271e-12
      204.400   3.55110e-12
      204.500   3.49054e-12
      204.600   3.43104e-12
      204.700   3.37255e-12
      204.800   3.31513e-12
      204.900   3.25873e-12
      205.000   3.20329e-12
      205.100   3.14883e-12
      205.200   3.09528e-12
      205.300   3.04268e-12
      205.400   2.99098e-12
      205.500   2.94016e-12
      205.600   2.89022e-12
      205.700   2.84071e-12
      205.800   2.79194e-12
      205.900   2.74402e-12
      206.000   2.69697e-12
      206.100   2.65070e-12
      206.200   2.60522e-12
      206.300   2.56053e-12
      206.400   2.51661e-12
      206.500   2.47342e-12
      206.600   2.43097e-12
      206.700   2.38924e-12
      206.800   2.34821e-12
      206.900   2.30786e-12
      207.000   2.26821e-12
      207.100   2.22924e-12
      207.200   2.19095e-12
      207.300   2.15328e-12
      207.400   2.11624e-12
      207.500   2.07982e-12
      207.600   2.04402e-12
      207.700   2.00879e-12
      207.800   1.97416e-12
      207.900   1.94010e-12
      208.000   1.90661e-12
      208.100   1.87368e-12
      208.200   1.84129e-12
      208.300   1.80944e-12
      208.400   1.77814e-12
      208.500   1.74737e-12
      208.600   1.71709e-12
      208.700   1.68732e-12
      208.800   1.65804e-12
      208.900   1.62829e-12
      209.000   1.59495e-12
      209.100   1.55954e-12
      209.200   1.52488e-12
      209.300   1.49096e-12
      209.400   1.45778e-12
      209.500   1.42531e-12
      209.600   1.39353e-12
      209.700   1.36245e-12
      209.800   1.33209e-12
      209.900   1.30235e-12
      210.000   1.27327e-12
      210.100   1.24482e-12
      210.200   1.21699e-12
      210.300   1.18976e-12
      210.400   1.16312e-12
      210.500   1.13706e-12
      210.600   1.11157e-12
      210.700   1.08663e-12
      210.800   1.06224e-12
      210.900   1.03838e-12
      211.000   1.01504e-12
      211.100   9.92215e-13
      211.200   9.69889e-13
      211.300   9.48072e-13
      211.400   9.26747e-13
      211.500   9.05879e-13
      211.600   8.85473e-13
      211.700   8.65519e-13
      211.800   8.45992e-13
      211.900   8.26897e-13
      212.000   8.08235e-13
      212.100   7.89977e-13
      212.200   7.72117e-13
      212.300   7.53959e-13
      212.400   7.34185e-13
      212.500   7.14120e-13
      212.600   6.94592e-13
      212.700   6.75585e-13
      212.800   6.57084e-13
      212.900   6.39085e-13
      213.000   6.21564e-13
      213.100   6.04531e-13
      213.200   5.87953e-13
      213.300   5.71821e-13
      213.400   5.56119e-13
      213.500   5.40840e-13
      213.600   5.25970e-13
      213.700   5.11505e-13
      213.800   4.97424e-13
      213.900   4.83732e-13
      214.000   4.70404e-13
      214.100   4.57648e-13
      214.200   4.47765e-13
      214.300   4.39754e-13
      214.400   4.31886e-13
      214.500   4.24158e-13
      214.600   4.16568e-13
      214.700   4.09115e-13
      214.800   4.01795e-13
      214.900   3.94609e-13
      215.000   3.87548e-13
      215.100   3.80615e-13
      215.200   3.73810e-13
      215.300   3.67131e-13
      215.400   3.60570e-13
      215.500   3.54128e-13
      215.600   3.47806e-13
      215.700   3.41595e-13
      215.800   3.35494e-13
      215.900   3.29508e-13
      216.000   3.23127e-13
      216.100   3.15669e-13
      216.200   3.07933e-13
      216.300   3.00388e-13
      216.400   2.93027e-13
      216.500   2.85844e-13
      216.600   2.78839e-13
      216.700   2.72006e-13
      216.800   2.65340e-13
      216.900   2.58838e-13
      217.000   2.52496e-13
      217.100   2.46307e-13
      217.200   2.40271e-13
      217.300   2.34384e-13
      217.400   2.28639e-13
      217.500   2.23038e-13
      217.600   2.17571e-13
      217.700   2.12236e-13
      217.800   2.07034e-13
      217.900   2.01942e-13
      218.000   1.96488e-13
      218.100   1.91179e-13
      218.200   1.86013e-13
      218.300   1.80988e-13
      218.400   1.76102e-13
      218.500   1.71344e-13
      218.600   1.66715e-13
      218.700   1.62208e-13
      218.800   1.57822e-13
      218.900   1.53555e-13
      219.000   1.49400e-13
      219.100   1.45355e-13
      219.200   1.41419e-13
      219.300   1.37588e-13
      219.400   1.33858e-13
      219.500   1.30228e-13
      219.600   1.26695e-13
      219.700   1.23256e-13
      219.800   1.19910e-13
      219.900   1.16652e-13
      220.000   1.13480e-13
      220.100   1.10393e-13
      220.200   1.07389e-13
      220.300   1.04465e-13
      220.400   1.01619e-13
      220.500   9.88491e-14
      220.600   9.61539e-14
      220.700   9.35293e-14
      220.800   9.09746e-14
      220.900   8.84900e-14
      221.000   8.60707e-14
      221.100   8.37156e-14
      221.200   8.14248e-14
      221.300   7.91951e-14
      221.400   7.70246e-14
      221.500   7.49130e-14
      221.600   7.28577e-14
      221.700   7.08575e-14
      221.800   6.90383e-14
      221.900   6.76009e-14
      222.000   6.62867e-14
      222.100   6.49969e-14
      222.200   6.37319e-14
      222.300   6.24908e-14
      222.400   6.12736e-14
      222.500   6.00793e-14
      222.600   5.89081e-14
      222.700   5.77590e-14
      222.800   5.66315e-14
      222.900   5.55257e-14
      223.000   5.44410e-14
      223.100   5.33767e-14
      223.200   5.23330e-14
      223.300   5.13090e-14
      223.400   5.03049e-14
      223.500   4.93195e-14
      223.600   4.83535e-14
      223.700   4.74058e-14
      223.800   4.64591e-14
      223.900   4.54140e-14
      224.000   4.43748e-14
      224.100   4.33589e-14
      224.200   4.23657e-14
      224.300   4.13949e-14
      224.400   4.04454e-14
      224.500   3.95177e-14
      224.600   3.86103e-14
      224.700   3.77239e-14
      224.800   3.68569e-14
      224.900   3.60093e-14
      225.000   3.51808e-14
      225.100   3.43709e-14
      225.200   3.35790e-14
      225.300   3.28055e-14
      225.400   3.20488e-14
      225.500   3.13093e-14
      225.600   3.05864e-14
      225.700   2.98800e-14
      225.800   2.91893e-14
      225.900   2.86745e-14
      226.000   2.82339e-14
      226.100   2.78066e-14
      226.200   2.73857e-14
      226.300   2.69728e-14
      226.400   2.65672e-14
      226.500   2.61669e-14
      226.600   2.57718e-14
      226.700   2.53824e-14
      226.800   2.49983e-14
      226.900   2.46199e-14
      227.000   2.42469e-14
      227.100   2.38793e-14
      227.200   2.35175e-14
      227.300   2.31610e-14
      227.400   2.28097e-14
      227.500   2.24638e-14
      227.600   2.21230e-14
      227.700   2.17874e-14
      227.800   2.14569e-14
      227.900   2.11051e-14
      228.000   2.06911e-14
      228.100   2.02466e-14
      228.200   1.98115e-14
      228.300   1.93857e-14
      228.400   1.89692e-14
      228.500   1.85613e-14
      228.600   1.81624e-14
      228.700   1.77719e-14
      228.800   1.73897e-14
      228.900   1.70159e-14
      229.000   1.66501e-14
      229.100   1.62921e-14
      229.200   1.59418e-14
      229.300   1.55991e-14
      229.400   1.52637e-14
      229.500   1.49356e-14
      229.600   1.46145e-14
      229.700   1.43004e-14
      229.800   1.39930e-14
      229.900   1.36923e-14
      230.000   1.33948e-14
      230.100   1.30790e-14
      230.200   1.27558e-14
      230.300   1.24408e-14
      230.400   1.21335e-14
      230.500   1.18338e-14
      230.600   1.15416e-14
      230.700   1.12566e-14
      230.800   1.09786e-14
      230.900   1.07076e-14
      231.000   1.04431e-14
      231.100   1.01851e-14
      231.200   9.93360e-15
      231.300   9.68830e-15
      231.400   9.44910e-15
      231.500   9.21567e-15
      231.600   8.98795e-15
      231.700   8.76591e-15
      231.800   8.54938e-15
      231.900   8.33813e-15
      232.000   8.13207e-15
      232.100   7.93108e-15
      232.200   7.76078e-15
      232.300   7.63029e-15
      232.400   7.51162e-15
      232.500   7.39481e-15
      232.600   7.27985e-15
      232.700   7.16671e-15
      232.800   7.05535e-15
      232.900   6.94567e-15
      233.000   6.83762e-15
      233.100   6.73128e-15
      233.200   6.62663e-15
      233.300   6.52361e-15
      233.400   6.42223e-15
      233.500   6.32242e-15
      233.600   6.22421e-15
      233.700   6.12753e-15
      233.800   6.02983e-15
      233.900   5.93327e-15
      234.000   5.83827e-15
      234.100   5.74479e-15
      234.200   5.65286e-15
      234.300   5.56236e-15
      234.400   5.47331e-15
      234.500   5.38569e-15
      234.600   5.29946e-15
      234.700   5.21463e-15
      234.800   5.13117e-15
      234.900   5.04902e-15
      235.000   4.96817e-15
      235.100   4.88862e-15
      235.200   4.81035e-15
      235.300   4.73333e-15
      235.400   4.65751e-15
      235.500   4.58293e-15
      235.600   4.50954e-15
      235.700   4.43730e-15
      235.800   4.36625e-15
      235.900   4.29634e-15
      236.000   4.22756e-15
      236.100   4.15984e-15
      236.200   4.09320e-15
      236.300   4.02762e-15
      236.400   3.96310e-15
      236.500   3.89959e-15
      236.600   3.83979e-15
      236.700   3.78681e-15
      236.800   3.73829e-15
      236.900   3.69037e-15
      237.000   3.64305e-15
      237.100   3.59633e-15
      237.200   3.55020e-15
      237.300   3.50465e-15
      237.400   3.45966e-15
      237.500   3.41525e-15
      237.600   3.37133e-15
      237.700   3.32800e-15
      237.800   3.28522e-15
      237.900   3.24295e-15
      238.000   3.20123e-15
      238.100   3.16001e-15
      238.200   3.11931e-15
      238.300   3.07911e-15
      238.400   3.03940e-15
      238.500   3.00019e-15
      238.600   2.96146e-15
      238.700   2.92322e-15
      238.800   2.88545e-15
      238.900   2.85036e-15
      239.000   2.82344e-15
      239.100   2.79764e-15
      239.200   2.77207e-15
      239.300   2.74670e-15
      239.400   2.72155e-15
      239.500   2.69661e-15
      239.600   2.67186e-15
      239.700   2.64732e-15
      239.800   2.62300e-15
      239.900   2.59887e-15
      240.000   2.57493e-15
      240.100   2.55119e-15
      240.200   2.52765e-15
      240.300   2.50430e-15
      240.400   2.48114e-15
      240.500   2.45818e-15
      240.600   2.43541e-15
      240.700   2.41282e-15
      240.800   2.39041e-15
      240.900   2.36820e-15
      241.000   2.34617e-15
      241.100   2.32433e-15
      241.200   2.30268e-15
      241.300   2.28119e-15
      241.400   2.25990e-15
      241.500   2.23879e-15
      241.600   2.21785e-15
      241.700   2.19710e-15
      241.800   2.17651e-15
      241.900   2.15610e-15
      242.000   2.13588e-15
      242.100   2.11583e-15
      242.200   2.09596e-15
      242.300   2.07628e-15
      242.400   2.05675e-15
      242.500   2.03741e-15
      242.600   2.01823e-15
      242.700   1.99922e-15
      242.800   1.98039e-15
      242.900   1.96173e-15
      243.000   1.94323e-15
      243.100   1.92490e-15
      243.200   1.90673e-15
      243.300   1.88873e-15
      243.400   1.87090e-15
      243.500   1.85324e-15
      243.600   1.83574e-15
      243.700   1.81840e-15
      243.800   1.80123e-15
      243.900   1.78422e-15
      244.000   1.76736e-15
      244.100   1.75066e-15
      244.200   1.73413e-15
      244.300   1.71774e-15
      244.400   1.70151e-15
      244.500   1.68544e-15
      244.600   1.66951e-15
      244.700   1.65374e-15
      244.800   1.63814e-15
      244.900   1.62268e-15
      245.000   1.60736e-15
      245.100   1.59219e-15
      245.200   1.57717e-15
      245.300   1.56230e-15
      245.400   1.54756e-15
      245.500   1.53297e-15
      245.600   1.51852e-15
      245.700   1.50421e-15
      245.800   1.49004e-15
      245.900   1.47602e-15
      246.000   1.46213e-15
      246.100   1.44838e-15
      246.200   1.43476e-15
      246.300   1.42128e-15
      246.400   1.40793e-15
      246.500   1.39471e-15
      246.600   1.38161e-15
      246.700   1.36865e-15
      246.800   1.35581e-15
      246.900   1.34310e-15
      247.000   1.33051e-15
      247.100   1.31805e-15
      247.200   1.30572e-15
      247.300   1.29350e-15
      247.400   1.28141e-15
      247.500   1.26943e-15
      247.600   1.25757e-15
      247.700   1.24582e-15
      247.800   1.23420e-15
      247.900   1.22268e-15
      248.000   1.21128e-15
      248.100   1.20000e-15
      248.200   1.18884e-15
      248.300   1.17777e-15
      248.400   1.16682e-15
      248.500   1.15318e-15
      248.600   1.13508e-15
      248.700   1.11431e-15
      248.800   1.09391e-15
      248.900   1.07389e-15
      249.000   1.05424e-15
      249.100   1.03498e-15
      249.200   1.01607e-15
      249.300   9.97512e-16
      249.400   9.79289e-16
      249.500   9.61400e-16
      249.600   9.43835e-16
      249.700   9.26593e-16
      249.800   9.09662e-16
      249.900   8.93042e-16
      250.000   8.76726e-16
      250.100   8.60732e-16
      250.200   8.45024e-16
      250.300   8.29621e-16
      250.400   8.14493e-16
      250.500   7.99643e-16
      250.600   7.85067e-16
      250.700   7.70754e-16
      250.800   7.56703e-16
      250.900   7.42909e-16
      251.000   7.29367e-16
      251.100   7.16071e-16
      251.200   7.03026e-16
      251.300   6.90228e-16
      251.400   6.77667e-16
      251.500   6.65330e-16
      251.600   6.48653e-16
      251.700   6.23644e-16
      251.800   5.98323e-16
      251.900   5.74007e-16
      252.000   5.50652e-16
      252.100   5.28238e-16
      252.200   5.06707e-16
      252.300   4.86060e-16
      252.400   4.66261e-16
      252.500   4.47261e-16
      252.600   4.29971e-16
      252.700   4.19028e-16
      252.800   4.14176e-16
      252.900   4.09382e-16
      253.000   4.04643e-16
      253.100   3.99959e-16
      253.200   3.95331e-16
      253.300   3.90850e-16
      253.400   3.86463e-16
      253.500   3.82130e-16
      253.600   3.77846e-16
      253.700   3.73543e-16
      253.800   3.68967e-16
      253.900   3.64385e-16
      254.000   3.59859e-16
      254.100   3.55387e-16
      254.200   3.50970e-16
      254.300   3.46608e-16
      254.400   3.42300e-16
      254.500   3.38044e-16
      254.600   3.33839e-16
      254.700   3.29688e-16
      254.800   3.25589e-16
      254.900   3.21539e-16
      255.000   3.17539e-16
      255.100   3.13584e-16
      255.200   3.09680e-16
      255.300   3.05822e-16
      255.400   3.02011e-16
      255.500   2.98246e-16
      255.600   2.94526e-16
      255.700   2.90852e-16
      255.800   2.87221e-16
      255.900   2.83633e-16
      256.000   2.80088e-16
      256.100   2.76588e-16
      256.200   2.73129e-16
      256.300   2.69711e-16
      256.400   2.66339e-16
      256.500   2.63003e-16
      256.600   2.59707e-16
      256.700   2.56451e-16
      256.800   2.53235e-16
      256.900   2.49483e-16
      257.000   2.44867e-16
      257.100   2.40048e-16
      257.200   2.35324e-16
      257.300   2.30690e-16
      257.400   2.26178e-16
      257.500   2.21764e-16
      257.600   2.17440e-16
      257.700   2.13197e-16
      257.800   2.09034e-16
      257.900   2.04951e-16
      258.000   2.00946e-16
      258.100   1.97016e-16
      258.200   1.93162e-16
      258.300   1.89382e-16
      258.400   1.85672e-16
      258.500   1.82033e-16
      258.600   1.78464e-16
      258.700   1.74962e-16
      258.800   1.71527e-16
      258.900   1.68160e-16
      259.000   1.64855e-16
      259.100   1.61614e-16
      259.200   1.58436e-16
      259.300   1.55321e-16
      259.400   1.52265e-16
      259.500   1.49267e-16
      259.600   1.46327e-16
      259.700   1.43445e-16
      259.800   1.40617e-16
      259.900   1.37842e-16
      260.000   1.35122e-16
      260.100   1.32284e-16
      260.200   1.29291e-16
      260.300   1.26327e-16
      260.400   1.23429e-16
      260.500   1.20598e-16
      260.600   1.17828e-16
      260.700   1.15121e-16
      260.800   1.12477e-16
      260.900   1.09890e-16
      261.000   1.07364e-16
      261.100   1.04894e-16
      261.200   1.02469e-16
      261.300   1.00097e-16
      261.400   9.77802e-17
      261.500   9.55182e-17
      261.600   9.33149e-17
      261.700   9.11632e-17
      261.800   8.90605e-17
      261.900   8.70046e-17
      262.000   8.49958e-17
      262.100   8.30324e-17
      262.200   8.11147e-17
      262.300   7.92399e-17
      262.400   7.74080e-17
      262.500   7.56175e-17
      262.600   7.38675e-17
      262.700   7.21580e-17
      262.800   7.04876e-17
      262.900   6.88545e-17
      263.000   6.72602e-17
      263.100   6.57017e-17
      263.200   6.41799e-17
      263.300   6.26928e-17
      263.400   6.12395e-17
      263.500   5.98201e-17
      263.600   5.84332e-17
      263.700   5.70779e-17
      263.800   5.57534e-17
      263.900   5.44604e-17
      264.000   5.31965e-17
      264.100   5.19612e-17
      264.200   5.07542e-17
      264.300   4.95759e-17
      264.400   4.84245e-17
      264.500   4.72993e-17
      264.600   4.61999e-17
      264.700   4.51262e-17
      264.800   4.40767e-17
      264.900   4.30521e-17
      265.000   4.20510e-17
      265.100   4.10726e-17
      265.200   4.01170e-17
      265.300   3.91835e-17
      265.400   3.82604e-17
      265.500   3.73545e-17
      265.600   3.64702e-17
      265.700   3.56060e-17
      265.800   3.47634e-17
      265.900   3.39403e-17
      266.000   3.31372e-17
      266.100   3.23529e-17
      266.200   3.15871e-17
      266.300   3.08391e-17
      266.400   3.01091e-17
      266.500   2.93960e-17
      266.600   2.86998e-17
      266.700   2.80200e-17
      266.800   2.73567e-17
      266.900   2.67087e-17
      267.000   2.60760e-17
      267.100   2.54581e-17
      267.200   2.48553e-17
      267.300   2.42666e-17
      267.400   2.36915e-17
      267.500   2.31302e-17
      267.600   2.25822e-17
      267.700   2.20471e-17
      267.800   2.15246e-17
      267.900   2.10146e-17
      268.000   2.05167e-17
      268.100   2.00305e-17
      268.200   1.95559e-17
      268.300   1.90927e-17
      268.400   1.86402e-17
      268.500   1.81985e-17
      268.600   1.77671e-17
      268.700   1.73462e-17
      268.800   1.69352e-17
      268.900   1.65339e-17
      269.000   1.61422e-17
      269.100   1.57597e-17
      269.200   1.53864e-17
      269.300   1.50219e-17
      269.400   1.46658e-17
      269.500   1.43183e-17
      269.600   1.39791e-17
      269.700   1.36025e-17
      269.800   1.32249e-17
      269.900   1.28575e-17
      270.000   1.25002e-17
      270.100   1.21529e-17
      270.200   1.18155e-17
      270.300   1.14874e-17
      270.400   1.11683e-17
      270.500   1.08580e-17
      270.600   1.05563e-17
      270.700   1.02629e-17
      270.800   9.97775e-18
      270.900   9.70027e-18
      271.000   9.43063e-18
      271.100   9.16834e-18
      271.200   8.91325e-18
      271.300   8.66534e-18
      271.400   8.42418e-18
      271.500   8.18979e-18
      271.600   7.96172e-18
      271.700   7.74005e-18
      271.800   7.52453e-18
      271.900   7.31494e-18
      272.000   7.11120e-18
      272.100   6.91301e-18
      272.200   6.72035e-18
      272.300   6.53295e-18
      272.400   6.35072e-18
      272.500   6.17362e-18
      272.600   6.00133e-18
      272.700   5.83380e-18
      272.800   5.67766e-18
      272.900   5.54532e-18
      273.000   5.42501e-18
      273.100   5.30725e-18
      273.200   5.19202e-18
      273.300   5.07934e-18
      273.400   4.96904e-18
      273.500   4.86113e-18
      273.600   4.75554e-18
      273.700   4.65221e-18
      273.800   4.55111e-18
      273.900   4.43766e-18
      274.000   4.29848e-18
      274.100   4.16327e-18
      274.200   4.03226e-18
      274.300   3.90533e-18
      274.400   3.78186e-18
      274.500   3.66098e-18
      274.600   3.54367e-18
      274.700   3.43012e-18
      274.800   3.32011e-18
      274.900   3.21355e-18
      275.000   3.11037e-18
      275.100   3.01047e-18
      275.200   2.91372e-18
      275.300   2.82001e-18
      275.400   2.72929e-18
      275.500   2.64145e-18
      275.600   2.55635e-18
      275.700   2.47398e-18
      275.800   2.39424e-18
      275.900   2.31700e-18
      276.000   2.24711e-18
      276.100   2.19226e-18
      276.200   2.14127e-18
      276.300   2.09145e-18
      276.400   2.04277e-18
      276.500   1.99519e-18
      276.600   1.94872e-18
      276.700   1.90329e-18
      276.800   1.85892e-18
      276.900   1.81555e-18
      277.000   1.77319e-18
      277.100   1.73179e-18
      277.200   1.69134e-18
      277.300   1.65182e-18
      277.400   1.61320e-18
      277.500   1.57546e-18
      277.600   1.53860e-18
      277.700   1.50257e-18
      277.800   1.46737e-18
      277.900   1.43299e-18
      278.000   1.39940e-18
      278.100   1.36585e-18
      278.200   1.32482e-18
      278.300   1.28301e-18
      278.400   1.24249e-18
      278.500   1.20321e-18
      278.600   1.16515e-18
      278.700   1.12829e-18
      278.800   1.09257e-18
      278.900   1.05793e-18
      279.000   1.02435e-18
      279.100   9.91821e-19
      279.200   9.61704e-19
      279.300   9.35458e-19
      279.400   9.10191e-19
      279.500   8.85611e-19
      279.600   8.61677e-19
      279.700   8.38388e-19
      279.800   8.15708e-19
      279.900   7.93623e-19
      280.000   7.72130e-19
      280.100   7.51202e-19
      280.200   7.30840e-19
      280.300   7.11014e-19
      280.400   6.91712e-19
      280.500   6.72937e-19
      280.600   6.54656e-19
      280.700   6.36862e-19
      280.800   6.19544e-19
      280.900   6.02685e-19
      281.000   5.86277e-19
      281.100   5.70306e-19
      281.200   5.54761e-19
      281.300   5.40444e-19
      281.400   5.28011e-19
      281.500   5.16607e-19
      281.600   5.05443e-19
      281.700   4.94515e-19
      281.800   4.83827e-19
      281.900   4.73358e-19
      282.000   4.63111e-19
      282.100   4.53082e-19
      282.200   4.43274e-19
      282.300   4.33667e-19
      282.400   4.24265e-19
      282.500   4.15061e-19
      282.600   4.06056e-19
      282.700   3.97240e-19
      282.800   3.88611e-19
      282.900   3.80173e-19
      283.000   3.71911e-19
      283.100   3.63830e-19
      283.200   3.55920e-19
      283.300   3.48182e-19
      283.400   3.40609e-19
      283.500   3.32305e-19
      283.600   3.23995e-19
      283.700   3.15877e-19
      283.800   3.07960e-19
      283.900   3.00243e-19
      284.000   2.92712e-19
      284.100   2.85367e-19
      284.200   2.78203e-19
      284.300   2.71218e-19
      284.400   2.64405e-19
      284.500   2.57762e-19
      284.600   2.51283e-19
      284.700   2.44967e-19
      284.800   2.38805e-19
      284.900   2.32797e-19
      285.000   2.26935e-19
      285.100   2.21220e-19
      285.200   2.15649e-19
      285.300   2.10216e-19
      285.400   2.04916e-19
      285.500   1.99750e-19
      285.600   1.94714e-19
      285.700   1.89801e-19
      285.800   1.85014e-19
      285.900   1.80346e-19
      286.000   1.75797e-19
      286.100   1.71364e-19
      286.200   1.67037e-19
      286.300   1.62821e-19
      286.400   1.58711e-19
      286.500   1.54702e-19
      286.600   1.50629e-19
      286.700   1.46229e-19
      286.800   1.41761e-19
      286.900   1.37428e-19
      287.000   1.33225e-19
      287.100   1.29149e-19
      287.200   1.25198e-19
      287.300   1.21365e-19
      287.400   1.17648e-19
      287.500   1.14044e-19
      287.600   1.10550e-19
      287.700   1.07160e-19
      287.800   1.03875e-19
      287.900   1.00689e-19
      288.000   9.76009e-20
      288.100   9.46059e-20
      288.200   9.17056e-20
      288.300   8.88944e-20
      288.400   8.61671e-20
      288.500   8.35239e-20
      288.600   8.09593e-20
      288.700   7.85017e-20
      288.800   7.65514e-20
      288.900   7.48595e-20
      289.000   7.32044e-20
      289.100   7.15856e-20
      289.200   7.00030e-20
      289.300   6.84556e-20
      289.400   6.69419e-20
      289.500   6.54621e-20
      289.600   6.40147e-20
      289.700   6.26002e-20
      289.800   6.12162e-20
      289.900   5.98623e-20
      290.000   5.85392e-20
      290.100   5.72456e-20
      290.200   5.59815e-20
      290.300   5.47453e-20
      290.400   5.35365e-20
      290.500   5.23549e-20
      290.600   5.11988e-20
      290.700   5.00684e-20
      290.800   4.89637e-20
      290.900   4.78828e-20
      291.000   4.68253e-20
      291.100   4.57915e-20
      291.200   4.47809e-20
      291.300   4.37924e-20
      291.400   4.28260e-20
      291.500   4.18808e-20
      291.600   4.09561e-20
      291.700   4.00524e-20
      291.800   3.91688e-20
      291.900   3.83057e-20
      292.000   3.71924e-20
      292.100   3.60694e-20
      292.200   3.49776e-20
      292.300   3.39180e-20
      292.400   3.28906e-20
      292.500   3.18936e-20
      292.600   3.09266e-20
      292.700   2.99890e-20
      292.800   2.90797e-20
      292.900   2.81977e-20
      293.000   2.73423e-20
      293.100   2.65123e-20
      293.200   2.57072e-20
      293.300   2.49267e-20
      293.400   2.41701e-20
      293.500   2.34370e-20
      293.600   2.27260e-20
      293.700   2.20364e-20
      293.800   2.13675e-20
      293.900   2.07189e-20
      294.000   2.00964e-20
      294.100   1.95494e-20
      294.200   1.90598e-20
      294.300   1.85824e-20
      294.400   1.81166e-20
      294.500   1.76627e-20
      294.600   1.72199e-20
      294.700   1.67882e-20
      294.800   1.63673e-20
      294.900   1.59572e-20
      295.000   1.55575e-20
      295.100   1.51679e-20
      295.200   1.47880e-20
      295.300   1.44175e-20
      295.400   1.40563e-20
      295.500   1.37041e-20
      295.600   1.33606e-20
      295.700   1.30257e-20
      295.800   1.26991e-20
      295.900   1.23805e-20
      296.000   1.20699e-20
      296.100   1.17669e-20
      296.200   1.14716e-20
      296.300   1.11838e-20
      296.400   1.09036e-20
      296.500   1.06302e-20
      296.600   1.03635e-20
      296.700   1.01035e-20
      296.800   9.85007e-21
      296.900   9.60283e-21
      297.000   9.36173e-21
      297.100   9.12661e-21
      297.200   8.89734e-21
      297.300   8.67374e-21
      297.400   8.45571e-21
      297.500   8.24305e-21
      297.600   8.03585e-21
      297.700   7.83394e-21
      297.800   7.63711e-21
      297.900   7.44517e-21
      298.000   7.25803e-21
      298.100   7.07549e-21
      298.200   6.89750e-21
      298.300   6.70966e-21
      298.400   6.50491e-21
      298.500   6.29876e-21
      298.600   6.09902e-21
      298.700   5.90555e-21
      298.800   5.71802e-21
      298.900   5.53690e-21
      299.000   5.36146e-21
      299.100   5.19145e-21
      299.200   5.02666e-21
      299.300   4.86706e-21
      299.400   4.71241e-21
      299.500   4.56258e-21
      299.600   4.41745e-21
      299.700   4.27685e-21
      299.800   4.14054e-21
      299.900   4.00863e-21
      300.000   3.88081e-21
      300.100   3.75706e-21
      300.192   3.64675e-21
      300.285   3.53842e-21
      300.377   3.43442e-21
      300.470   3.33239e-21
      300.562   3.23439e-21
      300.654   3.13921e-21
      300.747   3.04579e-21
      300.839   2.95611e-21
      300.932   2.86804e-21
      301.025   2.78258e-21
      301.117   2.70056e-21
      301.210   2.62003e-21
      301.303   2.54186e-21
      301.395   2.46688e-21
      301.488   2.39825e-21
      301.581   2.34808e-21
      301.674   2.29942e-21
      301.766   2.25227e-21
      301.859   2.20555e-21
      301.952   2.15982e-21
      302.045   2.11501e-21
      302.138   2.07113e-21
      302.231   2.02821e-21
      302.324   1.98616e-21
      302.417   1.94497e-21
      302.510   1.90458e-21
      302.603   1.86510e-21
      302.696   1.82636e-21
      302.789   1.78843e-21
      302.882   1.75125e-21
      302.976   1.71449e-21
      303.069   1.67883e-21
      303.162   1.64393e-21
      303.255   1.60972e-21
      303.349   1.57585e-21
      303.442   1.54301e-21
      303.535   1.51089e-21
      303.629   1.47907e-21
      303.722   1.44825e-21
      303.816   1.41772e-21
      303.909   1.38815e-21
      304.003   1.35888e-21
      304.096   1.33050e-21
      304.190   1.30241e-21
      304.283   1.27520e-21
      304.377   1.24828e-21
      304.471   1.22189e-21
      304.564   1.19632e-21
      304.658   1.16988e-21
      304.752   1.13666e-21
      304.846   1.10361e-21
      304.939   1.07185e-21
      305.033   1.04065e-21
      305.127   1.01035e-21
      305.221   9.80918e-22
      305.315   9.52337e-22
      305.409   9.24565e-22
      305.503   8.97601e-22
      305.597   8.71405e-22
      305.691   8.45960e-22
      305.785   8.28410e-22
      305.879   8.13158e-22
      305.973   7.98328e-22
      306.067   7.83750e-22
      306.161   7.69443e-22
      306.255   7.55391e-22
      306.350   7.41439e-22
      306.444   7.27882e-22
      306.538   7.14567e-22
      306.633   7.01364e-22
      306.727   6.88526e-22
      306.821   6.75917e-22
      306.916   6.63410e-22
      307.010   6.51257e-22
      307.105   6.39200e-22
      307.199   6.27488e-22
      307.294   6.15858e-22
      307.388   6.04565e-22
      307.483   5.93358e-22
      307.577   5.82470e-22
      307.672   5.71665e-22
      307.767   5.61058e-22
      307.861   5.49197e-22
      307.956   5.34890e-22
      308.051   5.20496e-22
      308.146   5.06488e-22
      308.240   4.92994e-22
      308.335   4.79714e-22
      308.430   4.66779e-22
      308.525   4.54193e-22
      308.620   4.41946e-22
      308.715   4.30023e-22
      308.810   4.18418e-22
      308.905   4.07119e-22
      309.000   3.96123e-22
      309.095   3.85418e-22
      309.190   3.75005e-22
      309.285   3.64864e-22
      309.380   3.54996e-22
      309.476   3.45294e-22
      309.571   3.35946e-22
      309.666   3.26847e-22
      309.761   3.17995e-22
      309.857   3.09291e-22
      309.952   3.00948e-22
      310.047   2.93232e-22
      310.143   2.85735e-22
      310.238   2.78502e-22
      310.334   2.71379e-22
      310.429   2.64503e-22
      310.525   2.57733e-22
      310.620   2.51204e-22
      310.716   2.44769e-22
      310.811   2.38445e-22
      310.907   2.32182e-22
      311.003   2.26079e-22
      311.098   2.20195e-22
      311.194   2.14403e-22
      311.290   2.08764e-22
      311.386   2.03272e-22
      311.481   1.97976e-22
      311.577   1.92766e-22
      311.673   1.87690e-22
      311.769   1.82746e-22
      311.865   1.77933e-22
      311.961   1.73251e-22
      312.057   1.68714e-22
      312.153   1.64307e-22
      312.249   1.60012e-22
      312.345   1.55830e-22
      312.441   1.51755e-22
      312.537   1.47787e-22
      312.633   1.43922e-22
      312.730   1.40116e-22
      312.826   1.36451e-22
      312.922   1.32880e-22
      313.018   1.29402e-22
      313.115   1.25980e-22
      313.211   1.22680e-22
      313.307   1.19467e-22
      313.404   1.16307e-22
      313.500   1.13259e-22
      313.597   1.10263e-22
      313.693   1.07374e-22
      313.790   1.04531e-22
      313.886   1.02010e-22
      313.983   1.00145e-22
      314.079   9.85523e-23
      314.176   9.69696e-23
      314.273   9.54113e-23
      314.369   9.38955e-23
      314.466   9.23880e-23
      314.563   9.09045e-23
      314.660   8.94452e-23
      314.756   8.80240e-23
      314.853   8.66106e-23
      314.950   8.52207e-23
      315.047   8.38536e-23
      315.144   8.25084e-23
      315.241   8.11849e-23
      315.338   7.98826e-23
      315.435   7.86015e-23
      315.532   7.73415e-23
      315.629   7.61021e-23
      315.726   7.48823e-23
      315.823   7.36818e-23
      315.921   7.24894e-23
      316.018   7.13280e-23
      316.115   7.01862e-23
      316.212   6.90622e-23
      316.310   6.77593e-23
      316.407   6.62553e-23
      316.504   6.47102e-23
      316.602   6.31860e-23
      316.699   6.17132e-23
      316.796   6.02750e-23
      316.894   5.88561e-23
      316.991   5.74857e-23
      317.089   5.61423e-23
      317.187   5.48351e-23
      317.284   5.35710e-23
      317.382   5.23234e-23
      317.479   5.11170e-23
      317.577   4.99269e-23
      317.675   4.87649e-23
      317.773   4.76296e-23
      317.870   4.65322e-23
      317.968   4.54484e-23
      318.066   4.43903e-23
      318.164   4.33570e-23
      318.262   4.23480e-23
      318.360   4.13621e-23
      318.458   4.03997e-23
      318.556   3.94601e-23
      318.654   3.85421e-23
      318.752   3.74564e-23
      318.850   3.61778e-23
      318.948   3.48754e-23
      319.046   3.36195e-23
      319.144   3.24082e-23
      319.242   3.12409e-23
      319.341   3.01038e-23
      319.439   2.90187e-23
      319.537   2.79727e-23
      319.635   2.69639e-23
      319.734   2.59816e-23
      319.832   2.50442e-23
      319.930   2.41401e-23
      320.029   2.32600e-23
      320.127   2.24202e-23
      320.226   2.16022e-23
      320.324   2.08215e-23
      320.423   2.00611e-23
      320.522   1.93290e-23
      320.620   1.86302e-23
      320.719   1.79495e-23
      320.818   1.72936e-23
      320.916   1.66678e-23
      321.015   1.60582e-23
      321.114   1.54708e-23
      321.213   1.49048e-23
      321.311   1.43648e-23
      321.410   1.38392e-23
      321.509   1.33324e-23
      321.608   1.28443e-23
      321.707   1.23737e-23
      321.806   1.19202e-23
      321.905   1.14833e-23
      322.004   1.10621e-23
      322.103   1.06565e-23
      322.202   1.02655e-23
      322.301   9.88881e-24
      322.401   9.52223e-24
      322.500   9.17261e-24
      322.599   8.83574e-24
      322.698   8.51116e-24
      322.798   8.19528e-24
      322.897   7.89395e-24
      322.996   7.60370e-24
      323.096   7.32110e-24
      323.195   7.05167e-24
      323.294   6.79211e-24
      323.394   6.53959e-24
      323.493   6.29868e-24
      323.593   6.06432e-24
      323.692   5.84081e-24
      323.792   5.62335e-24
      323.892   5.41391e-24
      323.991   5.21409e-24
      324.091   5.01980e-24
      324.191   4.83259e-24
      324.291   4.65234e-24
      324.390   4.48053e-24
      324.490   4.31322e-24
      324.590   4.15223e-24
      324.690   3.99719e-24
      324.790   3.84784e-24
      324.890   3.70406e-24
      324.990   3.56553e-24
      325.090   3.43212e-24
      325.190   3.30372e-24
      325.290   3.18011e-24
      325.390   3.06096e-24
      325.490   2.94634e-24
      325.590   2.83597e-24
      325.690   2.72961e-24
      325.790   2.62725e-24
      325.891   2.52772e-24
      325.991   2.43284e-24
      326.091   2.34148e-24
      326.192   2.25266e-24
      326.292   2.16800e-24
      326.392   2.08652e-24
      326.493   2.00728e-24
      326.593   1.93173e-24
      326.694   1.85835e-24
      326.794   1.78837e-24
      326.895   1.72033e-24
      326.995   1.65548e-24
      327.096   1.59247e-24
      327.197   1.53181e-24
      327.297   1.47399e-24
      327.398   1.41780e-24
      327.499   1.36373e-24
      327.599   1.31219e-24
      327.700   1.26208e-24
      327.801   1.21388e-24
      327.902   1.16752e-24
      328.003   1.12287e-24
      328.104   1.07992e-24
      328.205   1.03860e-24
      328.306   9.98836e-25
      328.407   9.60588e-25
      328.508   9.23769e-25
      328.609   8.88349e-25
      328.710   8.54280e-25
      328.811   8.21496e-25
      328.912   7.89957e-25
      329.013   7.59613e-25
      329.115   7.30146e-25
      329.216   7.02068e-25
      329.317   6.75058e-25
      329.419   6.48838e-25
      329.520   6.23846e-25
      329.621   5.99803e-25
      329.723   5.76451e-25
      329.824   5.54234e-25
      329.926   5.32645e-25
      330.027   5.12078e-25
      330.129   4.92106e-25
      330.230   4.73098e-25
      330.332   4.54625e-25
      330.434   4.36870e-25
      330.535   4.19957e-25
      330.637   4.03534e-25
      330.739   3.87755e-25
      330.840   3.72722e-25
      330.942   3.58124e-25
      331.044   3.44092e-25
      331.146   3.30602e-25
      331.248   3.17634e-25
      331.350   3.05171e-25
      331.452   2.93190e-25
      331.554   2.81744e-25
      331.656   2.70834e-25
      331.758   2.60345e-25
      331.860   2.50252e-25
      331.962   2.40547e-25
      332.064   2.31212e-25
      332.166   2.22239e-25
      332.268   2.13603e-25
      332.371   2.05226e-25
      332.473   1.97243e-25
      332.575   1.89564e-25
      332.677   1.82186e-25
      332.780   1.75024e-25
      332.882   1.68203e-25
      332.985   1.61583e-25
      333.087   1.55276e-25
      333.190   1.49157e-25
      333.292   1.43312e-25
      333.395   1.37589e-25
      333.497   1.32128e-25
      333.600   1.26830e-25
      333.702   1.21789e-25
      333.805   1.16903e-25
      333.908   1.12205e-25
      334.011   1.07697e-25
      334.113   1.03407e-25
      334.216   9.92456e-26
      334.319   9.52506e-26
      334.422   9.14130e-26
      334.525   8.77284e-26
      334.628   8.41899e-26
      334.731   8.07942e-26
      334.834   7.75328e-26
      334.937   7.44001e-26
      335.040   7.13915e-26
      335.143   6.85055e-26
      335.246   6.57330e-26
      335.349   6.30715e-26
      335.452   6.05165e-26
      335.555   5.80642e-26
      335.659   5.56865e-26
      335.762   5.34264e-26
      335.865   5.12579e-26
      335.969   4.91557e-26
      336.072   4.71563e-26
      336.175   4.52392e-26
      336.279   4.33812e-26
      336.382   4.16151e-26
      336.486   3.99033e-26
      336.589   3.82764e-26
      336.693   3.67012e-26
      336.796   3.52041e-26
      336.900   3.37530e-26
      337.004   3.23603e-26
      337.107   3.10384e-26
      337.211   2.97567e-26
      337.315   2.85282e-26
      337.419   2.73492e-26
      337.523   2.62182e-26
      337.626   2.51436e-26
      337.730   2.41032e-26
      337.834   2.31048e-26
      337.938   2.21477e-26
      338.042   2.12300e-26
      338.146   2.03525e-26
      338.250   1.95115e-26
      338.354   1.87047e-26
      338.458   1.79305e-26
      338.562   1.71881e-26
      338.667   1.64697e-26
      338.771   1.57870e-26
      338.875   1.51325e-26
      338.979   1.45045e-26
      339.084   1.38971e-26
      339.188   1.33201e-26
      339.292   1.27668e-26
      339.397   1.22311e-26
      339.501   1.17226e-26
      339.606   1.12300e-26
      339.710   1.07626e-26
      339.815   1.03100e-26
      339.919   9.88060e-27
      340.024   9.46464e-27
      340.128   9.07011e-27
      340.233   8.68791e-27
      340.338   8.32198e-27
      340.442   7.97433e-27
      340.547   7.63799e-27
      340.652   7.31566e-27
      340.757   7.00680e-27
      340.862   6.71079e-27
      340.966   6.42988e-27
      341.071   6.15808e-27
      341.176   5.89762e-27
      341.281   5.64805e-27
      341.386   5.40904e-27
      341.491   5.17985e-27
      341.596   4.96045e-27
      341.702   4.74825e-27
      341.807   4.54687e-27
      341.912   4.35397e-27
      342.017   4.16915e-27
      342.122   3.99206e-27
      342.228   3.82100e-27
      342.333   3.65859e-27
      342.438   3.50302e-27
      342.544   3.35270e-27
      342.649   3.21000e-27
      342.754   3.07342e-27
      342.860   2.94132e-27
      342.965   2.81592e-27
      343.071   2.69490e-27
      343.176   2.57999e-27
      343.282   2.46889e-27
      343.388   2.36259e-27
      343.493   2.26189e-27
      343.599   2.16585e-27
      343.705   2.07396e-27
      343.810   1.98671e-27
      343.916   1.90238e-27
      344.022   1.82158e-27
      344.128   1.74420e-27
      344.234   1.67003e-27
      344.340   1.59904e-27
      344.446   1.53100e-27
      344.552   1.46583e-27
      344.658   1.40344e-27
      344.764   1.34370e-27
      344.870   1.28644e-27
      344.976   1.23164e-27
      345.082   1.17912e-27
      345.188   1.12886e-27
      345.294   1.08069e-27
      345.401   1.03415e-27
      345.507   9.89995e-28
      345.613   9.47737e-28
      345.719   9.07245e-28
      345.826   8.68123e-28
      345.932   8.31009e-28
      346.039   7.95152e-28
      346.145   7.61134e-28
      346.252   7.28276e-28
      346.358   6.97101e-28
      346.465   6.66999e-28
      346.571   6.38424e-28
      346.678   6.10817e-28
      346.785   5.84393e-28
      346.891   5.59348e-28
      346.998   5.35155e-28
      347.105   5.11992e-28
      347.212   4.89819e-28
      347.319   4.68600e-28
      347.425   4.48472e-28
      347.532   4.29031e-28
      347.639   4.10438e-28
      347.746   3.92636e-28
      347.853   3.75592e-28
      347.960   3.59294e-28
      348.067   3.43702e-28
      348.174   3.28784e-28
      348.281   3.14503e-28
      348.389   3.00717e-28
      348.496   2.87643e-28
      348.603   2.75146e-28
      348.710   2.63181e-28
      348.818   2.51631e-28
      348.925   2.40680e-28
      349.032   2.30207e-28
      349.140   2.20090e-28
      349.247   2.10502e-28
      349.355   2.01253e-28
      349.462   1.92481e-28
      349.570   1.84007e-28
      349.677   1.75985e-28
      349.785   1.68235e-28
      349.892   1.60895e-28
      350.000   1.53810e-28
      350.100   1.47525e-28
      350.193   1.41911e-28
      350.287   1.36448e-28
      350.380   1.31255e-28
      350.473   1.26255e-28
      350.567   1.21390e-28
      350.660   1.16765e-28
      350.754   1.12266e-28
      350.847   1.07988e-28
      350.941   1.03826e-28
      351.034   9.98668e-29
      351.128   9.60157e-29
      351.221   9.23536e-29
      351.315   8.87896e-29
      351.409   8.53621e-29
      351.502   8.21036e-29
      351.596   7.89348e-29
      351.690   7.58848e-29
      351.783   7.29868e-29
      351.877   7.01678e-29
      351.971   6.74563e-29
      352.065   6.48488e-29
      352.159   6.23412e-29
      352.252   5.99562e-29
      352.346   5.76365e-29
      352.440   5.54072e-29
      352.534   5.32649e-29
      352.628   5.12024e-29
      352.722   4.92194e-29
      352.816   4.73139e-29
      352.910   4.54822e-29
      353.004   4.37206e-29
      353.098   4.20260e-29
      353.192   4.03968e-29
      353.287   3.88141e-29
      353.381   3.73081e-29
      353.475   3.58618e-29
      353.569   3.44697e-29
      353.663   3.31327e-29
      353.758   3.18333e-29
      353.852   3.05975e-29
      353.946   2.94093e-29
      354.041   2.82548e-29
      354.135   2.71568e-29
      354.229   2.61012e-29
      354.324   2.50758e-29
      354.418   2.41010e-29
      354.513   2.31535e-29
      354.607   2.22533e-29
      354.702   2.13772e-29
      354.796   2.05422e-29
      354.891   1.97310e-29
      354.985   1.89601e-29
      355.080   1.82113e-29
      355.175   1.74914e-29
      355.269   1.68073e-29
      355.364   1.61426e-29
      355.459   1.55044e-29
      355.553   1.48972e-29
      355.648   1.43079e-29
      355.743   1.37419e-29
      355.838   1.31974e-29
      355.933   1.26750e-29
      356.027   1.21782e-29
      356.122   1.16954e-29
      356.217   1.12319e-29
      356.312   1.07868e-29
      356.407   1.03590e-29
      356.502   9.94815e-30
      356.597   9.55328e-30
      356.692   9.17421e-30
      356.787   8.80999e-30
      356.882   8.45988e-30
      356.977   8.12398e-30
      357.073   7.79783e-30
      357.168   7.48770e-30
      357.263   7.19006e-30
      357.358   6.90402e-30
      357.453   6.62942e-30
      357.549   6.36284e-30
      357.644   6.10954e-30
      357.739   5.86641e-30
      357.835   5.63016e-30
      357.930   5.40582e-30
      358.025   5.19037e-30
      358.121   4.98131e-30
      358.216   4.78264e-30
      358.312   4.58978e-30
      358.407   4.40667e-30
      358.503   4.22892e-30
      358.598   4.06014e-30
      358.694   3.89629e-30
      358.790   3.73890e-30
      358.885   3.58943e-30
      358.981   3.44438e-30
      359.076   3.30669e-30
      359.172   3.17307e-30
      359.268   3.04465e-30
      359.364   2.92144e-30
      359.459   2.80453e-30
      359.555   2.69098e-30
      359.651   2.58200e-30
      359.747   2.47741e-30
      359.843   2.37701e-30
      359.939   2.28064e-30
      360.035   2.18817e-30
      360.131   2.09945e-30
      360.227   2.01417e-30
      360.323   1.93243e-30
      360.419   1.85293e-30
      360.515   1.76701e-30
      360.611   1.68244e-30
      360.707   1.60181e-30
      360.803   1.52516e-30
      360.899   1.45203e-30
      360.995   1.38244e-30
      361.092   1.31544e-30
      361.188   1.25230e-30
      361.284   1.19216e-30
      361.380   1.13489e-30
      361.477   1.07977e-30
      361.573   1.02783e-30
      361.669   9.78390e-31
      361.766   9.30792e-31
      361.862   8.85977e-31
      361.959   8.42856e-31
      362.055   8.02185e-31
      362.152   7.63113e-31
      362.248   7.26286e-31
      362.345   6.90837e-31
      362.441   6.57473e-31
      362.538   6.25379e-31
      362.635   5.94830e-31
      362.731   5.66040e-31
      362.828   5.38358e-31
      362.925   5.12021e-31
      363.021   4.87201e-31
      363.118   4.63348e-31
      363.215   4.40635e-31
      363.312   4.19023e-31
      363.409   3.98474e-31
      363.505   3.79115e-31
      363.602   3.60487e-31
      363.699   3.42776e-31
      363.796   3.25926e-31
      363.893   3.09893e-31
      363.990   2.94643e-31
      364.087   2.80136e-31
      364.184   2.66335e-31
      364.281   2.53204e-31
      364.378   2.40717e-31
      364.475   2.28838e-31
      364.573   2.17423e-31
      364.670   2.06683e-31
      364.767   1.96468e-31
      364.864   1.86750e-31
      364.961   1.77510e-31
      365.059   1.68632e-31
      365.156   1.60282e-31
      365.253   1.52338e-31
      365.351   1.44707e-31
      365.448   1.37525e-31
      365.545   1.30699e-31
      365.643   1.24140e-31
      365.740   1.17968e-31
      365.838   1.12043e-31
      365.935   1.06471e-31
      366.033   1.01117e-31
      366.130   9.60793e-32
      366.228   9.12377e-32
      366.326   8.61054e-32
      366.423   8.10436e-32
      366.521   7.62274e-32
      366.618   7.17372e-32
      366.716   6.74682e-32
      366.814   6.34518e-32
      366.912   5.96727e-32
      367.010   5.61127e-32
      367.107   5.27976e-32
      367.205   4.96438e-32
      367.303   4.66771e-32
      367.401   4.38863e-32
      367.499   4.12594e-32
      367.597   3.87887e-32
      367.695   3.64648e-32
      367.793   3.42791e-32
      367.891   3.22226e-32
      367.989   3.02865e-32
      368.087   2.84669e-32
      368.185   2.67556e-32
      368.283   2.51452e-32
      368.381   2.36303e-32
      368.480   2.21926e-32
      368.578   2.08540e-32
      368.676   1.95959e-32
      368.774   1.84128e-32
      368.873   1.72891e-32
      368.971   1.62437e-32
      369.069   1.52607e-32
      369.168   1.43269e-32
      369.266   1.34589e-32
      369.364   1.26426e-32
      369.463   1.18676e-32
      369.561   1.11470e-32
      369.660   1.04629e-32
      369.758   9.82668e-33
      369.857   9.22283e-33
      369.955   8.66123e-33
      370.054   8.12809e-33
      370.153   7.62747e-33
      370.251   7.16204e-33
      370.350   6.72034e-33
      370.449   6.30573e-33
      370.547   5.92017e-33
      370.646   5.55406e-33
      370.745   5.21067e-33
      370.844   4.88817e-33
      370.943   4.58544e-33
      371.041   4.30411e-33
      371.140   4.03710e-33
      371.239   3.78644e-33
      371.338   3.55131e-33
      371.437   3.33064e-33
      371.536   3.12356e-33
      371.635   2.92907e-33
      371.734   2.74666e-33
      371.833   2.57551e-33
      371.932   2.41489e-33
      372.032   2.26268e-33
      372.131   2.12133e-33
      372.230   1.98880e-33
      372.329   1.86441e-33
      372.428   1.74771e-33
      372.528   1.63721e-33
      372.627   1.53464e-33
      372.726   1.43842e-33
      372.826   1.34728e-33
      372.925   1.26265e-33
      373.024   1.18329e-33
      373.124   1.10813e-33
      373.223   1.03843e-33
      373.323   9.72413e-34
      373.422   9.11128e-34
      373.522   8.53104e-34
      373.621   7.99301e-34
      373.721   7.48330e-34
      373.820   7.01059e-34
      373.920   6.56304e-34
      374.020   6.14345e-34
      374.119   5.75468e-34
      374.219   5.38636e-34
      374.319   5.04160e-34
      374.419   4.71881e-34
      374.518   4.41918e-34
      374.618   4.13570e-34
      374.718   3.87002e-34
      374.818   3.62157e-34
      374.918   3.38892e-34
      375.018   3.17087e-34
      375.118   2.96684e-34
      375.218   2.77569e-34
      375.318   2.59681e-34
      375.418   2.42925e-34
      375.518   2.27254e-34
      375.618   2.12581e-34
      375.718   1.98842e-34
      375.818   1.85985e-34
      375.918   1.73951e-34
      376.019   1.62582e-34
      376.119   1.52045e-34
      376.219   1.42189e-34
      376.319   1.32960e-34
      376.420   1.24247e-34
      376.520   1.16177e-34
      376.620   1.08627e-34
      376.721   1.01491e-34
      376.821   9.48860e-35
      376.922   8.86466e-35
      377.022   8.28678e-35
      377.122   7.74651e-35
      377.223   7.23615e-35
      377.323   6.76372e-35
      377.424   6.31733e-35
      377.525   5.90037e-35
      377.625   5.51440e-35
      377.726   5.14998e-35
      377.827   4.80939e-35
      377.927   4.49406e-35
      378.028   4.19656e-35
      378.129   3.91842e-35
      378.230   3.65857e-35
      378.330   3.41821e-35
      378.431   3.19136e-35
      378.532   2.97956e-35
      378.633   2.78151e-35
      378.734   2.59652e-35
      378.835   2.42380e-35
      378.936   2.26246e-35
      379.037   2.11177e-35
      379.138   1.97100e-35
      379.239   1.83950e-35
      379.340   1.71679e-35
      379.441   1.60214e-35
      379.542   1.49507e-35
      379.643   1.39512e-35
      379.745   1.30090e-35
      379.846   1.21379e-35
      379.947   1.13247e-35
      380.048   1.05658e-35
      380.150   9.85030e-36
      380.251   9.18914e-36
      380.352   8.57220e-36
      380.454   7.99093e-36
      380.555   7.45362e-36
      380.656   6.95207e-36
      380.758   6.47956e-36
      380.859   6.04315e-36
      380.961   5.63219e-36
      381.062   5.25244e-36
      381.164   4.89457e-36
      381.266   4.56098e-36
      381.367   4.25279e-36
      381.469   3.96261e-36
      381.570   3.69465e-36
      381.672   3.44229e-36
      381.774   3.20690e-36
      381.876   2.98757e-36
      381.977   2.78500e-36
      382.079   2.59429e-36
      382.181   2.41651e-36
      382.283   2.25091e-36
      382.385   2.09649e-36
      382.487   1.95249e-36
      382.589   1.81842e-36
      382.691   1.69348e-36
      382.793   1.57705e-36
      382.895   1.46854e-36
      382.997   1.36742e-36
      383.099   1.27322e-36
      383.201   1.18548e-36
      383.303   1.10369e-36
      383.405   1.02753e-36
      383.507   9.56592e-37
      383.610   8.89899e-37
      383.712   8.28364e-37
      383.814   7.71099e-37
      383.916   7.17743e-37
      384.019   6.67578e-37
      384.121   6.21317e-37
      384.223   5.78254e-37
      384.326   5.37781e-37
      384.428   5.00456e-37
      384.531   4.65382e-37
      384.633   4.33050e-37
      384.736   4.02658e-37
      384.838   3.74643e-37
      384.941   3.48324e-37
      385.043   3.24063e-37
      385.146   3.01275e-37
      385.249   2.80076e-37
      385.351   2.60535e-37
      385.454   2.42176e-37
      385.557   2.25111e-37
      385.660   2.09231e-37
      385.762   1.94606e-37
      385.865   1.80867e-37
      385.968   1.68086e-37
      386.071   1.56200e-37
      386.174   1.45151e-37
      386.277   1.34882e-37
      386.380   1.25332e-37
      386.483   1.16452e-37
      386.586   1.08201e-37
      386.689   1.00526e-37
      386.792   9.33913e-38
      386.895   8.67605e-38
      386.998   8.05974e-38
      387.101   7.48702e-38
      387.204   6.95429e-38
      387.308   6.45480e-38
      387.411   5.99515e-38
      387.514   5.56804e-38
      387.617   5.17120e-38
      387.721   4.79909e-38
      387.824   4.45666e-38
      387.927   4.13825e-38
      388.031   3.83991e-38
      388.134   3.56543e-38
      388.238   3.30825e-38
      388.341   3.07142e-38
      388.445   2.84946e-38
      388.548   2.64527e-38
      388.652   2.45395e-38
      388.755   2.27799e-38
      388.859   2.11306e-38
      388.962   1.96135e-38
      389.066   1.81912e-38
      389.170   1.68724e-38
      389.274   1.56477e-38
      389.377   1.45215e-38
      389.481   1.34661e-38
      389.585   1.24875e-38
      389.689   1.15793e-38
      389.793   1.07362e-38
      389.897   9.95479e-39
      390.000   9.23577e-39
      390.104   8.56276e-39
      390.208   7.93806e-39
      390.312   7.35873e-39
      390.416   6.82154e-39
      390.520   6.32302e-39
      390.625   5.85617e-39
      390.729   5.42795e-39
      390.833   5.03053e-39
      390.937   4.66199e-39
      391.041   4.32043e-39
      391.145   4.00373e-39
      391.250   3.70723e-39
      391.354   3.43521e-39
      391.458   3.18293e-39
      391.563   2.94688e-39
      391.667   2.73022e-39
      391.771   2.52941e-39
      391.876   2.34149e-39
      391.980   2.16901e-39
      392.085   2.00774e-39
      392.189   1.85970e-39
      392.294   1.72122e-39
      392.398   1.59418e-39
      392.503   1.47538e-39
      392.607   1.36636e-39
      392.712   1.26443e-39
      392.817   1.17000e-39
      392.921   1.08342e-39
      393.026   1.00243e-39
      393.131   9.27490e-40
      393.236   8.58067e-40
      393.340   7.94402e-40
      393.445   7.34908e-40
      393.550   6.79833e-40
      393.655   6.28835e-40
      393.760   5.81665e-40
      393.865   5.37987e-40
      393.970   4.97595e-40
      394.075   4.60184e-40
      394.180   4.25584e-40
      394.285   3.93555e-40
      394.390   3.63935e-40
      394.495   3.36509e-40
      394.600   3.11147e-40
      394.706   2.87474e-40
      394.811   2.65786e-40
      394.916   2.45708e-40
      395.021   2.27142e-40
      395.126   2.09979e-40
      395.232   1.93954e-40
      395.337   1.79272e-40
      395.443   1.65579e-40
      395.548   1.53032e-40
      395.653   1.41434e-40
      395.759   1.30607e-40
      395.864   1.20697e-40
      395.970   1.11447e-40
      396.075   1.02980e-40
      396.181   9.50795e-41
      396.286   8.78418e-41
      396.392   8.11015e-41
      396.498   7.48672e-41
      396.603   6.91611e-41
      396.709   6.38418e-41
      396.815   5.89274e-41
      396.921   5.43872e-41
      397.026   5.02337e-41
      397.132   4.63592e-41
      397.238   4.27802e-41
      397.344   3.94774e-41
      397.450   3.64296e-41
      397.556   3.36115e-41
      397.662   3.10135e-41
      397.768   2.86145e-41
      397.874   2.63963e-41
      397.980   2.43518e-41
      398.086   2.24642e-41
      398.192   2.07224e-41
      398.298   1.91123e-41
      398.404   1.76269e-41
      398.510   1.62565e-41
      398.617   1.49813e-41
      398.723   1.38182e-41
      398.829   1.27420e-41
      398.935   1.17485e-41
      399.042   1.08250e-41
      399.148   9.98145e-42
      399.255   9.19532e-42
      399.361   8.47645e-42
      399.467   7.81224e-42
      399.574   7.19847e-42
      399.680   6.63235e-42
      399.787   6.10826e-42
      399.893       0.00000
      400.000       0.00000
