Filter Al-thick
observation_date 22-Sept-2015 22:40:45
wavelength effective area 
      1.00000   2.52796e-10
      1.10000   6.99234e-10
      1.20000   1.75057e-09
      1.30000   4.00503e-09
      1.40000   8.63392e-09
      1.50000   1.73697e-08
      1.60000   3.28993e-08
      1.70000   5.92541e-08
      1.80000   1.01465e-07
      1.90000   1.66201e-07
      2.00000   2.60869e-07
      2.10000   3.93900e-07
      2.20000   5.74587e-07
      2.30000   8.08522e-07
      2.40000   1.09915e-06
      2.50000   1.43842e-06
      2.60000   1.85779e-06
      2.70000   2.31653e-06
      2.80000   2.80077e-06
      2.90000   3.30675e-06
      3.00000   3.79690e-06
      3.10000   4.24888e-06
      3.20000   4.64097e-06
      3.30000   4.95072e-06
      3.40000   5.15684e-06
      3.50000   5.24917e-06
      3.60000   5.23909e-06
      3.70000   5.10750e-06
      3.80000   4.88395e-06
      3.90000   4.57865e-06
      4.00000   4.20588e-06
      4.10000   3.78967e-06
      4.20000   3.35281e-06
      4.30000   2.91378e-06
      4.40000   2.48830e-06
      4.50000   2.08792e-06
      4.60000   1.72034e-06
      4.70000   1.39659e-06
      4.80000   1.11525e-06
      4.90000   8.66166e-07
      5.00000   6.79922e-07
      5.10000   5.18520e-07
      5.20000   3.90806e-07
      5.30000   2.87565e-07
      5.40000   2.08207e-07
      5.50000   1.48948e-07
      5.60000   1.01645e-07
      5.70000   7.18975e-08
      5.80000   4.51527e-08
      5.90000   3.65638e-08
      6.00000   2.57218e-08
      6.10000   1.69662e-08
      6.20000   1.07906e-08
      6.30000   6.46809e-09
      6.40000   3.65045e-09
      6.50000   1.94652e-09
      6.60000   9.74329e-10
      6.70000   4.69880e-10
      6.80000   2.19531e-10
      6.90000   1.32214e-10
      7.00000   6.59944e-11
      7.10000   3.14317e-11
      7.20000   1.44975e-11
      7.30000   6.59246e-12
      7.40000   3.05228e-12
      7.50000   1.35379e-12
      7.60000   5.73275e-13
      7.70000   2.50274e-13
      7.80000   1.03196e-13
      7.90000   4.15863e-14
      8.00000     0.0717990
      8.10000     0.0718503
      8.20000     0.0665728
      8.30000     0.0612638
      8.40000     0.0563269
      8.50000     0.0516365
      8.60000     0.0472250
      8.70000     0.0430457
      8.80000     0.0391392
      8.90000     0.0354603
      9.00000     0.0320373
      9.10000     0.0288628
      9.20000     0.0259087
      9.30000     0.0232161
      9.40000     0.0207346
      9.50000     0.0184526
      9.60000     0.0163996
      9.70000     0.0145272
      9.80000     0.0128177
      9.90000     0.0112797
      10.0000    0.00989699
      10.1000    0.00865039
      10.2000    0.00753131
      10.3000    0.00654261
      10.4000    0.00567221
      10.5000    0.00490121
      10.6000    0.00422091
      10.7000    0.00362286
      10.8000    0.00310173
      10.9000    0.00265193
      11.0000    0.00226013
      11.1000    0.00192010
      11.2000    0.00162601
      11.3000    0.00137264
      11.4000    0.00115509
      11.5000   0.000968943
      11.6000   0.000810239
      11.7000   0.000676753
      11.8000   0.000563676
      11.9000   0.000469045
      12.0000   0.000389297
      12.1000   0.000323684
      12.2000   0.000273489
      12.3000   0.000227415
      12.4000   0.000186852
      12.5000   0.000152925
      12.6000   0.000124723
      12.7000   0.000101376
      12.8000   8.21344e-05
      12.9000   6.63433e-05
      13.0000   5.34233e-05
      13.1000   4.28824e-05
      13.2000   3.43100e-05
      13.3000   2.73601e-05
      13.4000   2.17447e-05
      13.5000   1.72316e-05
      13.6000   1.36738e-05
      13.7000   1.08171e-05
      13.8000   8.52932e-06
      13.9000   6.70257e-06
      14.0000   5.24810e-06
      14.1000   4.09346e-06
      14.2000   3.17983e-06
      14.3000   2.45957e-06
      14.4000   1.89408e-06
      14.5000   1.45807e-06
      14.6000   1.12558e-06
      14.7000   8.64815e-07
      14.8000   6.61071e-07
      14.9000   5.02558e-07
      15.0000   3.79834e-07
      15.1000   2.85320e-07
      15.2000   2.16320e-07
      15.3000   1.63425e-07
      15.4000   1.22590e-07
      15.5000   9.12767e-08
      15.6000   6.74393e-08
      15.7000   5.00206e-08
      15.8000   3.73306e-08
      15.9000   2.76113e-08
      16.0000   2.02392e-08
      16.1000   1.47029e-08
      16.2000   1.08498e-08
      16.3000   7.98541e-09
      16.4000   5.80739e-09
      16.5000   4.17380e-09
      16.6000   3.02010e-09
      16.7000   2.20405e-09
      16.8000   1.58382e-09
      16.9000   1.12134e-09
      17.0000   8.02055e-10
      17.1000   5.78098e-10
      17.2000   4.08793e-10
      17.3000   2.84022e-10
      17.4000   2.03825e-10
      17.5000   1.45380e-10
      17.6000   1.01944e-10
      17.7000   7.17025e-11
      17.8000   5.20755e-11
      17.9000   3.69603e-11
      18.0000   2.56404e-11
      18.1000   1.84804e-11
      18.2000   1.29846e-11
      18.3000   8.83334e-12
      18.4000   6.14250e-12
      18.5000   4.21103e-12
      18.6000   2.76709e-12
      18.7000   1.84922e-12
      18.8000   1.23327e-12
      18.9000   7.86103e-13
      19.0000   5.19620e-13
      19.1000   3.42505e-13
      19.2000   2.15049e-13
      19.3000   1.42814e-13
      19.4000   9.31628e-14
      19.5000   5.78043e-14
      19.6000   3.90179e-14
      19.7000   2.51392e-14
      19.8000   1.56008e-14
      19.9000   1.05910e-14
      20.0000   6.68260e-15
      20.1000   4.27939e-15
      20.2000   2.80698e-15
      20.3000   1.71313e-15
      20.4000   1.13276e-15
      20.5000   7.12368e-16
      20.6000   4.34231e-16
      20.7000   2.86302e-16
      20.8000   1.71651e-16
      20.9000   1.10536e-16
      21.0000   6.84677e-17
      21.1000   4.06325e-17
      21.2000   2.64724e-17
      21.3000   1.53927e-17
      21.4000   9.87958e-18
      21.5000   5.92108e-18
      21.6000   3.53724e-18
      21.7000   2.21630e-18
      21.8000   1.23034e-18
      21.9000   8.07666e-19
      22.0000   4.59568e-19
      22.1000   2.85717e-19
      22.2000   1.67397e-19
      22.3000   9.72330e-20
      22.4000   5.87901e-20
      22.5000   3.04867e-20
      22.6000   1.84935e-20
      22.7000   8.62085e-21
      22.8000   6.47740e-21
      22.9000   4.76159e-21
      23.0000   3.69115e-21
      23.1000   2.67139e-21
      23.2000   1.69964e-21
      23.3000   1.06852e-21
      23.4000   6.07080e-22
      23.5000   3.76424e-22
      23.6000   2.02163e-22
      23.7000   1.29570e-22
      23.8000   6.66239e-23
      23.9000   4.35162e-23
      24.0000   2.24159e-23
      24.1000   1.43400e-23
      24.2000   7.38350e-24
      24.3000   4.63963e-24
      24.4000   2.39280e-24
      24.5000   1.48200e-24
      24.6000   7.65694e-25
      24.7000   4.68578e-25
      24.8000   2.41804e-25
      24.9000   1.47226e-25
      25.0000   7.60354e-26
      25.1000   4.60621e-26
      25.2000   2.35616e-26
      25.3000   1.42900e-26
      25.4000   7.23292e-27
      25.5000   4.39853e-27
      25.6000   2.18288e-27
      25.7000   1.33700e-27
      25.8000   6.48072e-28
      25.9000   4.01078e-28
      26.0000   1.88838e-28
      26.1000   1.18481e-28
      26.2000   5.39684e-29
      26.3000   3.44180e-29
      26.4000   1.51084e-29
      26.5000   9.81381e-30
      26.6000   4.54582e-30
      26.7000   2.74165e-30
      26.8000   1.35288e-30
      26.9000   7.49580e-31
      27.0000   3.93089e-31
      27.1000   2.00221e-31
      27.2000   1.11133e-31
      27.3000   5.21653e-32
      27.4000   3.06154e-32
      27.5000   1.33743e-32
      27.6000   8.21924e-33
      27.7000   3.31227e-33
      27.8000   2.12494e-33
      27.9000   9.43521e-34
      28.0000   5.30432e-34
      28.1000   2.67791e-34
      28.2000   1.28877e-34
      28.3000   7.23913e-35
      28.4000   3.12285e-35
      28.5000   1.89475e-35
      28.6000   7.39936e-36
      28.7000   4.83062e-36
      28.8000   2.27490e-36
      28.9000   1.25802e-36
      29.0000   6.80995e-37
      29.1000   3.15451e-37
      29.2000   1.88689e-37
      29.3000   7.62618e-38
      29.4000   4.91682e-38
      29.5000   2.22144e-38
      29.6000   1.21540e-38
      29.7000   6.55455e-39
      29.8000   2.86556e-39
      29.9000   1.73531e-39
      30.0000   6.46593e-40
      30.1000   4.25039e-40
      30.2000   2.04618e-40
      30.3000   9.81778e-41
      30.4000   5.68829e-41
      30.5000   2.27193e-41
      30.6000   1.44726e-41
      30.7000   6.27221e-42
      30.8000   3.23980e-42
      30.9000   1.77685e-42
      31.0000   6.86636e-43
      31.1000   4.31600e-43
      31.2000   1.75162e-43
      31.3000   9.52883e-44
      31.4000   4.76441e-44
      31.5000   1.96182e-44
      31.6000   1.26117e-44
      31.7000   2.80260e-45
      31.8000   2.80260e-45
      31.9000   2.80260e-45
      32.0000       0.00000
      32.1000       0.00000
      32.2000       0.00000
      32.3000       0.00000
      32.4000       0.00000
      32.5000       0.00000
      32.6000       0.00000
      32.7000       0.00000
      32.8000       0.00000
      32.9000       0.00000
      33.0000       0.00000
      33.1000       0.00000
      33.2000       0.00000
      33.3000       0.00000
      33.4000       0.00000
      33.5000       0.00000
      33.6000       0.00000
      33.7000       0.00000
      33.8000       0.00000
      33.9000       0.00000
      34.0000       0.00000
      34.1000       0.00000
      34.2000       0.00000
      34.3000       0.00000
      34.4000       0.00000
      34.5000       0.00000
      34.6000       0.00000
      34.7000       0.00000
      34.8000       0.00000
      34.9000       0.00000
      35.0000       0.00000
      35.1000       0.00000
      35.2000       0.00000
      35.3000       0.00000
      35.4000       0.00000
      35.5000       0.00000
      35.6000       0.00000
      35.7000       0.00000
      35.8000       0.00000
      35.9000       0.00000
      36.0000       0.00000
      36.1000       0.00000
      36.2000       0.00000
      36.3000       0.00000
      36.4000       0.00000
      36.5000       0.00000
      36.6000       0.00000
      36.7000       0.00000
      36.8000       0.00000
      36.9000       0.00000
      37.0000       0.00000
      37.1000       0.00000
      37.2000       0.00000
      37.3000       0.00000
      37.4000       0.00000
      37.5000       0.00000
      37.6000       0.00000
      37.7000       0.00000
      37.8000       0.00000
      37.9000       0.00000
      38.0000       0.00000
      38.1000       0.00000
      38.2000       0.00000
      38.3000       0.00000
      38.4000       0.00000
      38.5000       0.00000
      38.6000       0.00000
      38.7000       0.00000
      38.8000       0.00000
      38.9000       0.00000
      39.0000       0.00000
      39.1000       0.00000
      39.2000       0.00000
      39.3000       0.00000
      39.4000       0.00000
      39.5000       0.00000
      39.6000       0.00000
      39.7000       0.00000
      39.8000       0.00000
      39.9000       0.00000
      40.0000       0.00000
      40.1000       0.00000
      40.2000       0.00000
      40.3000       0.00000
      40.4000       0.00000
      40.5000       0.00000
      40.6000       0.00000
      40.7000       0.00000
      40.8000       0.00000
      40.9000       0.00000
      41.0000       0.00000
      41.1000       0.00000
      41.2000       0.00000
      41.3000       0.00000
      41.4000       0.00000
      41.5000       0.00000
      41.6000       0.00000
      41.7000       0.00000
      41.8000       0.00000
      41.9000       0.00000
      42.0000       0.00000
      42.1000       0.00000
      42.2000       0.00000
      42.3000       0.00000
      42.4000       0.00000
      42.5000       0.00000
      42.6000       0.00000
      42.7000       0.00000
      42.8000       0.00000
      42.9000       0.00000
      43.0000       0.00000
      43.1000       0.00000
      43.2000       0.00000
      43.3000       0.00000
      43.4000       0.00000
      43.5000       0.00000
      43.6000       0.00000
      43.7000       0.00000
      43.8000       0.00000
      43.9000       0.00000
      44.0000       0.00000
      44.1000       0.00000
      44.2000       0.00000
      44.3000       0.00000
      44.4000       0.00000
      44.5000       0.00000
      44.6000       0.00000
      44.7000       0.00000
      44.8000       0.00000
      44.9000       0.00000
      45.0000       0.00000
      45.1000       0.00000
      45.2000       0.00000
      45.3000       0.00000
      45.4000       0.00000
      45.5000       0.00000
      45.6000       0.00000
      45.7000       0.00000
      45.8000       0.00000
      45.9000       0.00000
      46.0000       0.00000
      46.1000       0.00000
      46.2000       0.00000
      46.3000       0.00000
      46.4000       0.00000
      46.5000       0.00000
      46.6000       0.00000
      46.7000       0.00000
      46.8000       0.00000
      46.9000       0.00000
      47.0000       0.00000
      47.1000       0.00000
      47.2000       0.00000
      47.3000       0.00000
      47.4000       0.00000
      47.5000       0.00000
      47.6000       0.00000
      47.7000       0.00000
      47.8000       0.00000
      47.9000       0.00000
      48.0000       0.00000
      48.1000       0.00000
      48.2000       0.00000
      48.3000       0.00000
      48.4000       0.00000
      48.5000       0.00000
      48.6000       0.00000
      48.7000       0.00000
      48.8000       0.00000
      48.9000       0.00000
      49.0000       0.00000
      49.1000       0.00000
      49.2000       0.00000
      49.3000       0.00000
      49.4000       0.00000
      49.5000       0.00000
      49.6000       0.00000
      49.7000       0.00000
      49.8000       0.00000
      49.9000       0.00000
      50.0000       0.00000
      50.1000       0.00000
      50.2000       0.00000
      50.3000       0.00000
      50.4000       0.00000
      50.5000       0.00000
      50.6000       0.00000
      50.7000       0.00000
      50.8000       0.00000
      50.9000       0.00000
      51.0000       0.00000
      51.1000       0.00000
      51.2000       0.00000
      51.3000       0.00000
      51.4000       0.00000
      51.5000       0.00000
      51.6000       0.00000
      51.7000       0.00000
      51.8000       0.00000
      51.9000       0.00000
      52.0000       0.00000
      52.1000       0.00000
      52.2000       0.00000
      52.3000       0.00000
      52.4000       0.00000
      52.5000       0.00000
      52.6000       0.00000
      52.7000       0.00000
      52.8000       0.00000
      52.9000       0.00000
      53.0000       0.00000
      53.1000       0.00000
      53.2000       0.00000
      53.3000       0.00000
      53.4000       0.00000
      53.5000       0.00000
      53.6000       0.00000
      53.7000       0.00000
      53.8000       0.00000
      53.9000       0.00000
      54.0000       0.00000
      54.1000       0.00000
      54.2000       0.00000
      54.3000       0.00000
      54.4000       0.00000
      54.5000       0.00000
      54.6000       0.00000
      54.7000       0.00000
      54.8000       0.00000
      54.9000       0.00000
      55.0000       0.00000
      55.1000       0.00000
      55.2000       0.00000
      55.3000       0.00000
      55.4000       0.00000
      55.5000       0.00000
      55.6000       0.00000
      55.7000       0.00000
      55.8000       0.00000
      55.9000       0.00000
      56.0000       0.00000
      56.1000       0.00000
      56.2000       0.00000
      56.3000       0.00000
      56.4000       0.00000
      56.5000       0.00000
      56.6000       0.00000
      56.7000       0.00000
      56.8000       0.00000
      56.9000       0.00000
      57.0000       0.00000
      57.1000       0.00000
      57.2000       0.00000
      57.3000       0.00000
      57.4000       0.00000
      57.5000       0.00000
      57.6000       0.00000
      57.7000       0.00000
      57.8000       0.00000
      57.9000       0.00000
      58.0000       0.00000
      58.1000       0.00000
      58.2000       0.00000
      58.3000       0.00000
      58.4000       0.00000
      58.5000       0.00000
      58.6000       0.00000
      58.7000       0.00000
      58.8000       0.00000
      58.9000       0.00000
      59.0000       0.00000
      59.1000       0.00000
      59.2000       0.00000
      59.3000       0.00000
      59.4000       0.00000
      59.5000       0.00000
      59.6000       0.00000
      59.7000       0.00000
      59.8000       0.00000
      59.9000       0.00000
      60.0000       0.00000
      60.1000       0.00000
      60.2000       0.00000
      60.3000       0.00000
      60.4000       0.00000
      60.5000       0.00000
      60.6000       0.00000
      60.7000       0.00000
      60.8000       0.00000
      60.9000       0.00000
      61.0000       0.00000
      61.1000       0.00000
      61.2000       0.00000
      61.3000       0.00000
      61.4000       0.00000
      61.5000       0.00000
      61.6000       0.00000
      61.7000       0.00000
      61.8000       0.00000
      61.9000       0.00000
      62.0000       0.00000
      62.1000       0.00000
      62.2000       0.00000
      62.3000       0.00000
      62.4000       0.00000
      62.5000       0.00000
      62.6000       0.00000
      62.7000       0.00000
      62.8000       0.00000
      62.9000       0.00000
      63.0000       0.00000
      63.1000       0.00000
      63.2000       0.00000
      63.3000       0.00000
      63.4000       0.00000
      63.5000       0.00000
      63.6000       0.00000
      63.7000       0.00000
      63.8000       0.00000
      63.9000       0.00000
      64.0000       0.00000
      64.1000       0.00000
      64.2000       0.00000
      64.3000       0.00000
      64.4000       0.00000
      64.5000       0.00000
      64.6000       0.00000
      64.7000       0.00000
      64.8000       0.00000
      64.9000       0.00000
      65.0000       0.00000
      65.1000       0.00000
      65.2000       0.00000
      65.3000       0.00000
      65.4000       0.00000
      65.5000       0.00000
      65.6000       0.00000
      65.7000       0.00000
      65.8000       0.00000
      65.9000       0.00000
      66.0000       0.00000
      66.1000       0.00000
      66.2000       0.00000
      66.3000       0.00000
      66.4000       0.00000
      66.5000       0.00000
      66.6000       0.00000
      66.7000       0.00000
      66.8000       0.00000
      66.9000       0.00000
      67.0000       0.00000
      67.1000       0.00000
      67.2000       0.00000
      67.3000       0.00000
      67.4000       0.00000
      67.5000       0.00000
      67.6000       0.00000
      67.7000       0.00000
      67.8000       0.00000
      67.9000       0.00000
      68.0000       0.00000
      68.1000       0.00000
      68.2000       0.00000
      68.3000       0.00000
      68.4000       0.00000
      68.5000       0.00000
      68.6000       0.00000
      68.7000       0.00000
      68.8000       0.00000
      68.9000       0.00000
      69.0000       0.00000
      69.1000       0.00000
      69.2000       0.00000
      69.3000       0.00000
      69.4000       0.00000
      69.5000       0.00000
      69.6000       0.00000
      69.7000       0.00000
      69.8000       0.00000
      69.9000       0.00000
      70.0000       0.00000
      70.1000       0.00000
      70.2000       0.00000
      70.3000       0.00000
      70.4000       0.00000
      70.5000       0.00000
      70.6000       0.00000
      70.7000       0.00000
      70.8000       0.00000
      70.9000       0.00000
      71.0000       0.00000
      71.1000       0.00000
      71.2000       0.00000
      71.3000       0.00000
      71.4000       0.00000
      71.5000       0.00000
      71.6000       0.00000
      71.7000       0.00000
      71.8000       0.00000
      71.9000       0.00000
      72.0000       0.00000
      72.1000       0.00000
      72.2000       0.00000
      72.3000       0.00000
      72.4000       0.00000
      72.5000       0.00000
      72.6000       0.00000
      72.7000       0.00000
      72.8000       0.00000
      72.9000       0.00000
      73.0000       0.00000
      73.1000       0.00000
      73.2000       0.00000
      73.3000       0.00000
      73.4000       0.00000
      73.5000       0.00000
      73.6000       0.00000
      73.7000       0.00000
      73.8000       0.00000
      73.9000       0.00000
      74.0000       0.00000
      74.1000       0.00000
      74.2000       0.00000
      74.3000       0.00000
      74.4000       0.00000
      74.5000       0.00000
      74.6000       0.00000
      74.7000       0.00000
      74.8000       0.00000
      74.9000       0.00000
      75.0000       0.00000
      75.1000       0.00000
      75.2000       0.00000
      75.3000       0.00000
      75.4000       0.00000
      75.5000       0.00000
      75.6000       0.00000
      75.7000       0.00000
      75.8000       0.00000
      75.9000       0.00000
      76.0000       0.00000
      76.1000       0.00000
      76.2000       0.00000
      76.3000       0.00000
      76.4000       0.00000
      76.5000       0.00000
      76.6000       0.00000
      76.7000       0.00000
      76.8000       0.00000
      76.9000       0.00000
      77.0000       0.00000
      77.1000       0.00000
      77.2000       0.00000
      77.3000       0.00000
      77.4000       0.00000
      77.5000       0.00000
      77.6000       0.00000
      77.7000       0.00000
      77.8000       0.00000
      77.9000       0.00000
      78.0000       0.00000
      78.1000       0.00000
      78.2000       0.00000
      78.3000       0.00000
      78.4000       0.00000
      78.5000       0.00000
      78.6000       0.00000
      78.7000       0.00000
      78.8000       0.00000
      78.9000       0.00000
      79.0000       0.00000
      79.1000       0.00000
      79.2000       0.00000
      79.3000       0.00000
      79.4000       0.00000
      79.5000       0.00000
      79.6000       0.00000
      79.7000       0.00000
      79.8000       0.00000
      79.9000       0.00000
      80.0000       0.00000
      80.1000       0.00000
      80.2000       0.00000
      80.3000       0.00000
      80.4000       0.00000
      80.5000       0.00000
      80.6000       0.00000
      80.7000       0.00000
      80.8000       0.00000
      80.9000       0.00000
      81.0000       0.00000
      81.1000       0.00000
      81.2000       0.00000
      81.3000       0.00000
      81.4000       0.00000
      81.5000       0.00000
      81.6000       0.00000
      81.7000       0.00000
      81.8000       0.00000
      81.9000       0.00000
      82.0000       0.00000
      82.1000       0.00000
      82.2000       0.00000
      82.3000       0.00000
      82.4000       0.00000
      82.5000       0.00000
      82.6000       0.00000
      82.7000       0.00000
      82.8000       0.00000
      82.9000       0.00000
      83.0000       0.00000
      83.1000       0.00000
      83.2000       0.00000
      83.3000       0.00000
      83.4000       0.00000
      83.5000       0.00000
      83.6000       0.00000
      83.7000       0.00000
      83.8000       0.00000
      83.9000       0.00000
      84.0000       0.00000
      84.1000       0.00000
      84.2000       0.00000
      84.3000       0.00000
      84.4000       0.00000
      84.5000       0.00000
      84.6000       0.00000
      84.7000       0.00000
      84.8000       0.00000
      84.9000       0.00000
      85.0000       0.00000
      85.1000       0.00000
      85.2000       0.00000
      85.3000       0.00000
      85.4000       0.00000
      85.5000       0.00000
      85.6000       0.00000
      85.7000       0.00000
      85.8000       0.00000
      85.9000       0.00000
      86.0000       0.00000
      86.1000       0.00000
      86.2000       0.00000
      86.3000       0.00000
      86.4000       0.00000
      86.5000       0.00000
      86.6000       0.00000
      86.7000       0.00000
      86.8000       0.00000
      86.9000       0.00000
      87.0000       0.00000
      87.1000       0.00000
      87.2000       0.00000
      87.3000       0.00000
      87.4000       0.00000
      87.5000       0.00000
      87.6000       0.00000
      87.7000       0.00000
      87.8000       0.00000
      87.9000       0.00000
      88.0000       0.00000
      88.1000       0.00000
      88.2000       0.00000
      88.3000       0.00000
      88.4000       0.00000
      88.5000       0.00000
      88.6000       0.00000
      88.7000       0.00000
      88.8000       0.00000
      88.9000       0.00000
      89.0000       0.00000
      89.1000       0.00000
      89.2000       0.00000
      89.3000       0.00000
      89.4000       0.00000
      89.5000       0.00000
      89.6000       0.00000
      89.7000       0.00000
      89.8000       0.00000
      89.9000       0.00000
      90.0000       0.00000
      90.1000       0.00000
      90.2000       0.00000
      90.3000       0.00000
      90.4000       0.00000
      90.5000       0.00000
      90.6000       0.00000
      90.7000       0.00000
      90.8000       0.00000
      90.9000       0.00000
      91.0000       0.00000
      91.1000       0.00000
      91.2000       0.00000
      91.3000       0.00000
      91.4000       0.00000
      91.5000       0.00000
      91.6000       0.00000
      91.7000       0.00000
      91.8000       0.00000
      91.9000       0.00000
      92.0000       0.00000
      92.1000       0.00000
      92.2000       0.00000
      92.3000       0.00000
      92.4000       0.00000
      92.5000       0.00000
      92.6000       0.00000
      92.7000       0.00000
      92.8000       0.00000
      92.9000       0.00000
      93.0000       0.00000
      93.1000       0.00000
      93.2000       0.00000
      93.3000       0.00000
      93.4000       0.00000
      93.5000       0.00000
      93.6000       0.00000
      93.7000       0.00000
      93.8000       0.00000
      93.9000       0.00000
      94.0000       0.00000
      94.1000       0.00000
      94.2000       0.00000
      94.3000       0.00000
      94.4000       0.00000
      94.5000       0.00000
      94.6000       0.00000
      94.7000       0.00000
      94.8000       0.00000
      94.9000       0.00000
      95.0000       0.00000
      95.1000       0.00000
      95.2000       0.00000
      95.3000       0.00000
      95.4000       0.00000
      95.5000       0.00000
      95.6000       0.00000
      95.7000       0.00000
      95.8000       0.00000
      95.9000       0.00000
      96.0000       0.00000
      96.1000       0.00000
      96.2000       0.00000
      96.3000       0.00000
      96.4000       0.00000
      96.5000       0.00000
      96.6000       0.00000
      96.7000       0.00000
      96.8000       0.00000
      96.9000       0.00000
      97.0000       0.00000
      97.1000       0.00000
      97.2000       0.00000
      97.3000       0.00000
      97.4000       0.00000
      97.5000       0.00000
      97.6000       0.00000
      97.7000       0.00000
      97.8000       0.00000
      97.9000       0.00000
      98.0000       0.00000
      98.1000       0.00000
      98.2000       0.00000
      98.3000       0.00000
      98.4000       0.00000
      98.5000       0.00000
      98.6000       0.00000
      98.7000       0.00000
      98.8000       0.00000
      98.9000       0.00000
      99.0000       0.00000
      99.1000       0.00000
      99.2000       0.00000
      99.3000       0.00000
      99.4000       0.00000
      99.5000       0.00000
      99.6000       0.00000
      99.7000       0.00000
      99.8000       0.00000
      99.9000       0.00000
      100.000       0.00000
      100.100       0.00000
      100.200       0.00000
      100.300       0.00000
      100.400       0.00000
      100.500       0.00000
      100.600       0.00000
      100.700       0.00000
      100.800       0.00000
      100.900       0.00000
      101.000       0.00000
      101.100       0.00000
      101.200       0.00000
      101.300       0.00000
      101.400       0.00000
      101.500       0.00000
      101.600       0.00000
      101.700       0.00000
      101.800       0.00000
      101.900       0.00000
      102.000       0.00000
      102.100       0.00000
      102.200       0.00000
      102.300       0.00000
      102.400       0.00000
      102.500       0.00000
      102.600       0.00000
      102.700       0.00000
      102.800       0.00000
      102.900       0.00000
      103.000       0.00000
      103.100       0.00000
      103.200       0.00000
      103.300       0.00000
      103.400       0.00000
      103.500       0.00000
      103.600       0.00000
      103.700       0.00000
      103.800       0.00000
      103.900       0.00000
      104.000       0.00000
      104.100       0.00000
      104.200       0.00000
      104.300       0.00000
      104.400       0.00000
      104.500       0.00000
      104.600       0.00000
      104.700       0.00000
      104.800       0.00000
      104.900       0.00000
      105.000       0.00000
      105.100       0.00000
      105.200       0.00000
      105.300       0.00000
      105.400       0.00000
      105.500       0.00000
      105.600       0.00000
      105.700       0.00000
      105.800       0.00000
      105.900       0.00000
      106.000       0.00000
      106.100       0.00000
      106.200       0.00000
      106.300       0.00000
      106.400       0.00000
      106.500       0.00000
      106.600       0.00000
      106.700       0.00000
      106.800       0.00000
      106.900       0.00000
      107.000       0.00000
      107.100       0.00000
      107.200       0.00000
      107.300       0.00000
      107.400       0.00000
      107.500       0.00000
      107.600       0.00000
      107.700       0.00000
      107.800       0.00000
      107.900       0.00000
      108.000       0.00000
      108.100       0.00000
      108.200       0.00000
      108.300       0.00000
      108.400       0.00000
      108.500       0.00000
      108.600       0.00000
      108.700       0.00000
      108.800       0.00000
      108.900       0.00000
      109.000       0.00000
      109.100       0.00000
      109.200       0.00000
      109.300       0.00000
      109.400       0.00000
      109.500       0.00000
      109.600       0.00000
      109.700       0.00000
      109.800       0.00000
      109.900       0.00000
      110.000       0.00000
      110.100       0.00000
      110.200       0.00000
      110.300       0.00000
      110.400       0.00000
      110.500       0.00000
      110.600       0.00000
      110.700       0.00000
      110.800       0.00000
      110.900       0.00000
      111.000       0.00000
      111.100       0.00000
      111.200       0.00000
      111.300       0.00000
      111.400       0.00000
      111.500       0.00000
      111.600       0.00000
      111.700       0.00000
      111.800       0.00000
      111.900       0.00000
      112.000       0.00000
      112.100       0.00000
      112.200       0.00000
      112.300       0.00000
      112.400       0.00000
      112.500       0.00000
      112.600       0.00000
      112.700       0.00000
      112.800       0.00000
      112.900       0.00000
      113.000       0.00000
      113.100       0.00000
      113.200       0.00000
      113.300       0.00000
      113.400       0.00000
      113.500       0.00000
      113.600       0.00000
      113.700       0.00000
      113.800       0.00000
      113.900       0.00000
      114.000       0.00000
      114.100       0.00000
      114.200       0.00000
      114.300       0.00000
      114.400       0.00000
      114.500       0.00000
      114.600       0.00000
      114.700       0.00000
      114.800       0.00000
      114.900       0.00000
      115.000       0.00000
      115.100       0.00000
      115.200       0.00000
      115.300       0.00000
      115.400       0.00000
      115.500       0.00000
      115.600       0.00000
      115.700       0.00000
      115.800       0.00000
      115.900       0.00000
      116.000       0.00000
      116.100       0.00000
      116.200       0.00000
      116.300       0.00000
      116.400       0.00000
      116.500       0.00000
      116.600       0.00000
      116.700       0.00000
      116.800       0.00000
      116.900       0.00000
      117.000       0.00000
      117.100       0.00000
      117.200       0.00000
      117.300       0.00000
      117.400       0.00000
      117.500       0.00000
      117.600       0.00000
      117.700       0.00000
      117.800       0.00000
      117.900       0.00000
      118.000       0.00000
      118.100       0.00000
      118.200       0.00000
      118.300       0.00000
      118.400       0.00000
      118.500       0.00000
      118.600       0.00000
      118.700       0.00000
      118.800       0.00000
      118.900       0.00000
      119.000       0.00000
      119.100       0.00000
      119.200       0.00000
      119.300       0.00000
      119.400       0.00000
      119.500       0.00000
      119.600       0.00000
      119.700       0.00000
      119.800       0.00000
      119.900       0.00000
      120.000       0.00000
      120.100       0.00000
      120.200       0.00000
      120.300       0.00000
      120.400       0.00000
      120.500       0.00000
      120.600       0.00000
      120.700       0.00000
      120.800       0.00000
      120.900       0.00000
      121.000       0.00000
      121.100       0.00000
      121.200       0.00000
      121.300       0.00000
      121.400       0.00000
      121.500       0.00000
      121.600       0.00000
      121.700       0.00000
      121.800       0.00000
      121.900       0.00000
      122.000       0.00000
      122.100       0.00000
      122.200       0.00000
      122.300       0.00000
      122.400       0.00000
      122.500       0.00000
      122.600       0.00000
      122.700       0.00000
      122.800       0.00000
      122.900       0.00000
      123.000       0.00000
      123.100       0.00000
      123.200       0.00000
      123.300       0.00000
      123.400       0.00000
      123.500       0.00000
      123.600       0.00000
      123.700       0.00000
      123.800       0.00000
      123.900       0.00000
      124.000       0.00000
      124.100       0.00000
      124.200       0.00000
      124.300       0.00000
      124.400       0.00000
      124.500       0.00000
      124.600       0.00000
      124.700       0.00000
      124.800       0.00000
      124.900       0.00000
      125.000       0.00000
      125.100       0.00000
      125.200       0.00000
      125.300       0.00000
      125.400       0.00000
      125.500       0.00000
      125.600       0.00000
      125.700       0.00000
      125.800       0.00000
      125.900       0.00000
      126.000       0.00000
      126.100       0.00000
      126.200       0.00000
      126.300       0.00000
      126.400       0.00000
      126.500       0.00000
      126.600       0.00000
      126.700       0.00000
      126.800       0.00000
      126.900       0.00000
      127.000       0.00000
      127.100       0.00000
      127.200       0.00000
      127.300       0.00000
      127.400       0.00000
      127.500       0.00000
      127.600       0.00000
      127.700       0.00000
      127.800       0.00000
      127.900       0.00000
      128.000       0.00000
      128.100       0.00000
      128.200       0.00000
      128.300       0.00000
      128.400       0.00000
      128.500       0.00000
      128.600       0.00000
      128.700       0.00000
      128.800       0.00000
      128.900       0.00000
      129.000       0.00000
      129.100       0.00000
      129.200       0.00000
      129.300       0.00000
      129.400       0.00000
      129.500       0.00000
      129.600       0.00000
      129.700       0.00000
      129.800       0.00000
      129.900       0.00000
      130.000       0.00000
      130.100       0.00000
      130.200       0.00000
      130.300       0.00000
      130.400       0.00000
      130.500       0.00000
      130.600       0.00000
      130.700       0.00000
      130.800       0.00000
      130.900       0.00000
      131.000       0.00000
      131.100       0.00000
      131.200       0.00000
      131.300       0.00000
      131.400       0.00000
      131.500       0.00000
      131.600       0.00000
      131.700       0.00000
      131.800       0.00000
      131.900       0.00000
      132.000       0.00000
      132.100       0.00000
      132.200       0.00000
      132.300       0.00000
      132.400       0.00000
      132.500       0.00000
      132.600       0.00000
      132.700       0.00000
      132.800       0.00000
      132.900       0.00000
      133.000       0.00000
      133.100       0.00000
      133.200       0.00000
      133.300       0.00000
      133.400       0.00000
      133.500       0.00000
      133.600       0.00000
      133.700       0.00000
      133.800       0.00000
      133.900       0.00000
      134.000       0.00000
      134.100       0.00000
      134.200       0.00000
      134.300       0.00000
      134.400       0.00000
      134.500       0.00000
      134.600       0.00000
      134.700       0.00000
      134.800       0.00000
      134.900       0.00000
      135.000       0.00000
      135.100       0.00000
      135.200       0.00000
      135.300       0.00000
      135.400       0.00000
      135.500       0.00000
      135.600       0.00000
      135.700       0.00000
      135.800       0.00000
      135.900       0.00000
      136.000       0.00000
      136.100       0.00000
      136.200       0.00000
      136.300       0.00000
      136.400       0.00000
      136.500       0.00000
      136.600       0.00000
      136.700       0.00000
      136.800       0.00000
      136.900       0.00000
      137.000       0.00000
      137.100       0.00000
      137.200       0.00000
      137.300       0.00000
      137.400       0.00000
      137.500       0.00000
      137.600       0.00000
      137.700       0.00000
      137.800       0.00000
      137.900       0.00000
      138.000       0.00000
      138.100       0.00000
      138.200       0.00000
      138.300       0.00000
      138.400       0.00000
      138.500       0.00000
      138.600       0.00000
      138.700       0.00000
      138.800       0.00000
      138.900       0.00000
      139.000       0.00000
      139.100       0.00000
      139.200       0.00000
      139.300       0.00000
      139.400       0.00000
      139.500       0.00000
      139.600       0.00000
      139.700       0.00000
      139.800       0.00000
      139.900       0.00000
      140.000       0.00000
      140.100       0.00000
      140.200       0.00000
      140.300       0.00000
      140.400       0.00000
      140.500       0.00000
      140.600       0.00000
      140.700       0.00000
      140.800       0.00000
      140.900       0.00000
      141.000       0.00000
      141.100       0.00000
      141.200       0.00000
      141.300       0.00000
      141.400       0.00000
      141.500       0.00000
      141.600       0.00000
      141.700       0.00000
      141.800       0.00000
      141.900       0.00000
      142.000       0.00000
      142.100       0.00000
      142.200       0.00000
      142.300       0.00000
      142.400       0.00000
      142.500       0.00000
      142.600       0.00000
      142.700       0.00000
      142.800       0.00000
      142.900       0.00000
      143.000       0.00000
      143.100       0.00000
      143.200       0.00000
      143.300       0.00000
      143.400       0.00000
      143.500       0.00000
      143.600       0.00000
      143.700       0.00000
      143.800       0.00000
      143.900       0.00000
      144.000       0.00000
      144.100       0.00000
      144.200       0.00000
      144.300       0.00000
      144.400       0.00000
      144.500       0.00000
      144.600       0.00000
      144.700       0.00000
      144.800       0.00000
      144.900       0.00000
      145.000       0.00000
      145.100       0.00000
      145.200       0.00000
      145.300       0.00000
      145.400       0.00000
      145.500       0.00000
      145.600       0.00000
      145.700       0.00000
      145.800       0.00000
      145.900       0.00000
      146.000       0.00000
      146.100       0.00000
      146.200       0.00000
      146.300       0.00000
      146.400       0.00000
      146.500       0.00000
      146.600       0.00000
      146.700       0.00000
      146.800       0.00000
      146.900       0.00000
      147.000       0.00000
      147.100       0.00000
      147.200       0.00000
      147.300       0.00000
      147.400       0.00000
      147.500       0.00000
      147.600       0.00000
      147.700       0.00000
      147.800       0.00000
      147.900       0.00000
      148.000       0.00000
      148.100       0.00000
      148.200       0.00000
      148.300       0.00000
      148.400       0.00000
      148.500       0.00000
      148.600       0.00000
      148.700       0.00000
      148.800       0.00000
      148.900       0.00000
      149.000       0.00000
      149.100       0.00000
      149.200       0.00000
      149.300       0.00000
      149.400       0.00000
      149.500       0.00000
      149.600       0.00000
      149.700       0.00000
      149.800       0.00000
      149.900       0.00000
      150.000       0.00000
      150.100       0.00000
      150.200       0.00000
      150.300       0.00000
      150.400       0.00000
      150.500       0.00000
      150.600       0.00000
      150.700       0.00000
      150.800       0.00000
      150.900       0.00000
      151.000       0.00000
      151.100       0.00000
      151.200       0.00000
      151.300       0.00000
      151.400       0.00000
      151.500       0.00000
      151.600       0.00000
      151.700       0.00000
      151.800       0.00000
      151.900       0.00000
      152.000       0.00000
      152.100       0.00000
      152.200       0.00000
      152.300       0.00000
      152.400       0.00000
      152.500       0.00000
      152.600       0.00000
      152.700       0.00000
      152.800       0.00000
      152.900       0.00000
      153.000       0.00000
      153.100       0.00000
      153.200       0.00000
      153.300       0.00000
      153.400       0.00000
      153.500       0.00000
      153.600       0.00000
      153.700       0.00000
      153.800       0.00000
      153.900       0.00000
      154.000       0.00000
      154.100       0.00000
      154.200       0.00000
      154.300       0.00000
      154.400       0.00000
      154.500       0.00000
      154.600       0.00000
      154.700       0.00000
      154.800       0.00000
      154.900       0.00000
      155.000       0.00000
      155.100       0.00000
      155.200       0.00000
      155.300       0.00000
      155.400       0.00000
      155.500       0.00000
      155.600       0.00000
      155.700       0.00000
      155.800       0.00000
      155.900       0.00000
      156.000       0.00000
      156.100       0.00000
      156.200       0.00000
      156.300       0.00000
      156.400       0.00000
      156.500       0.00000
      156.600       0.00000
      156.700       0.00000
      156.800       0.00000
      156.900       0.00000
      157.000       0.00000
      157.100       0.00000
      157.200       0.00000
      157.300       0.00000
      157.400       0.00000
      157.500       0.00000
      157.600       0.00000
      157.700       0.00000
      157.800       0.00000
      157.900       0.00000
      158.000       0.00000
      158.100       0.00000
      158.200       0.00000
      158.300       0.00000
      158.400       0.00000
      158.500       0.00000
      158.600       0.00000
      158.700       0.00000
      158.800       0.00000
      158.900       0.00000
      159.000       0.00000
      159.100       0.00000
      159.200       0.00000
      159.300       0.00000
      159.400       0.00000
      159.500       0.00000
      159.600       0.00000
      159.700       0.00000
      159.800       0.00000
      159.900       0.00000
      160.000       0.00000
      160.100       0.00000
      160.200       0.00000
      160.300       0.00000
      160.400       0.00000
      160.500       0.00000
      160.600       0.00000
      160.700       0.00000
      160.800       0.00000
      160.900       0.00000
      161.000       0.00000
      161.100       0.00000
      161.200       0.00000
      161.300       0.00000
      161.400       0.00000
      161.500       0.00000
      161.600       0.00000
      161.700       0.00000
      161.800       0.00000
      161.900       0.00000
      162.000       0.00000
      162.100       0.00000
      162.200       0.00000
      162.300       0.00000
      162.400       0.00000
      162.500       0.00000
      162.600       0.00000
      162.700       0.00000
      162.800       0.00000
      162.900       0.00000
      163.000       0.00000
      163.100       0.00000
      163.200       0.00000
      163.300       0.00000
      163.400       0.00000
      163.500       0.00000
      163.600       0.00000
      163.700       0.00000
      163.800       0.00000
      163.900       0.00000
      164.000       0.00000
      164.100       0.00000
      164.200       0.00000
      164.300       0.00000
      164.400       0.00000
      164.500       0.00000
      164.600       0.00000
      164.700       0.00000
      164.800       0.00000
      164.900       0.00000
      165.000       0.00000
      165.100       0.00000
      165.200       0.00000
      165.300       0.00000
      165.400       0.00000
      165.500       0.00000
      165.600       0.00000
      165.700       0.00000
      165.800       0.00000
      165.900       0.00000
      166.000       0.00000
      166.100       0.00000
      166.200       0.00000
      166.300       0.00000
      166.400       0.00000
      166.500       0.00000
      166.600       0.00000
      166.700       0.00000
      166.800       0.00000
      166.900       0.00000
      167.000       0.00000
      167.100       0.00000
      167.200       0.00000
      167.300       0.00000
      167.400       0.00000
      167.500       0.00000
      167.600       0.00000
      167.700       0.00000
      167.800       0.00000
      167.900       0.00000
      168.000       0.00000
      168.100       0.00000
      168.200       0.00000
      168.300       0.00000
      168.400       0.00000
      168.500       0.00000
      168.600       0.00000
      168.700       0.00000
      168.800       0.00000
      168.900       0.00000
      169.000       0.00000
      169.100       0.00000
      169.200       0.00000
      169.300       0.00000
      169.400       0.00000
      169.500       0.00000
      169.600       0.00000
      169.700       0.00000
      169.800       0.00000
      169.900       0.00000
      170.000       0.00000
      170.100       0.00000
      170.200       0.00000
      170.300       0.00000
      170.400       0.00000
      170.500       0.00000
      170.600   6.85197e-40
      170.700   8.52424e-25
      170.800   1.14181e-20
      170.900   1.89715e-20
      171.000   1.93961e-20
      171.100   1.98285e-20
      171.200   2.02685e-20
      171.300   2.07169e-20
      171.400   2.11728e-20
      171.500   2.16367e-20
      171.600   2.21089e-20
      171.700   2.25899e-20
      171.800   2.30797e-20
      171.900   2.35781e-20
      172.000   2.40862e-20
      172.100   2.46047e-20
      172.200   2.51330e-20
      172.300   2.56709e-20
      172.400   2.62149e-20
      172.500   2.67687e-20
      172.600   2.73342e-20
      172.700   2.79110e-20
      172.800   2.84992e-20
      172.900   2.91002e-20
      173.000   2.97127e-20
      173.100   3.03375e-20
      173.200   3.09752e-20
      173.300   3.16260e-20
      173.400   3.22907e-20
      173.500   3.29685e-20
      173.600   3.36603e-20
      173.700   3.43659e-20
      173.800   3.50869e-20
      173.900   3.58211e-20
      174.000   3.65704e-20
      174.100   3.73362e-20
      174.200   3.81162e-20
      174.300   3.89109e-20
      174.400   3.97224e-20
      174.500   4.05491e-20
      174.600   4.13931e-20
      174.700   4.22532e-20
      174.800   4.31292e-20
      174.900   4.40225e-20
      175.000   4.49337e-20
      175.100   4.58607e-20
      175.200   4.68084e-20
      175.300   4.77727e-20
      175.400   4.87566e-20
      175.500   4.97586e-20
      175.600   5.07786e-20
      175.700   5.18183e-20
      175.800   5.28788e-20
      175.900   5.39583e-20
      176.000   5.50570e-20
      176.100   5.61768e-20
      176.200   5.73176e-20
      176.300   5.84806e-20
      176.400   5.96642e-20
      176.500   6.08696e-20
      176.600   6.20988e-20
      176.700   6.33499e-20
      176.800   6.46233e-20
      176.900   6.59201e-20
      177.000   6.72421e-20
      177.100   6.85884e-20
      177.200   6.99578e-20
      177.300   7.13519e-20
      177.400   7.27728e-20
      177.500   7.42190e-20
      177.600   7.56905e-20
      177.700   7.71880e-20
      177.800   7.87118e-20
      177.900   8.02642e-20
      178.000   8.18495e-20
      178.100   8.34614e-20
      178.200   8.51027e-20
      178.300   8.67745e-20
      178.400   8.84740e-20
      178.500   9.02032e-20
      178.600   9.19636e-20
      178.700   9.37571e-20
      178.800   9.55798e-20
      178.900   9.74333e-20
      179.000   9.93189e-20
      179.100   1.01239e-19
      179.200   1.03194e-19
      179.300   1.05181e-19
      179.400   1.07203e-19
      179.500   1.09261e-19
      179.600   1.11360e-19
      179.700   1.13492e-19
      179.800   1.15662e-19
      179.900   1.17870e-19
      180.000   1.20121e-19
      180.100   1.22408e-19
      180.200   1.24738e-19
      180.300   1.27107e-19
      180.400   1.29523e-19
      180.500   1.31981e-19
      180.600   1.34480e-19
      180.700   1.37025e-19
      180.800   1.39641e-19
      180.900   1.42350e-19
      181.000   1.45128e-19
      181.100   1.47955e-19
      181.200   1.50837e-19
      181.300   1.53776e-19
      181.400   1.56764e-19
      181.500   1.59808e-19
      181.600   1.62909e-19
      181.700   1.66070e-19
      181.800   1.69285e-19
      181.900   1.72560e-19
      182.000   1.75897e-19
      182.100   1.79292e-19
      182.200   1.82759e-19
      182.300   1.86283e-19
      182.400   1.89870e-19
      182.500   1.93522e-19
      182.600   1.97246e-19
      182.700   2.01032e-19
      182.800   2.04883e-19
      182.900   2.08807e-19
      183.000   2.12800e-19
      183.100   2.16861e-19
      183.200   2.20994e-19
      183.300   2.25202e-19
      183.400   2.29486e-19
      183.500   2.33841e-19
      183.600   2.38273e-19
      183.700   2.42931e-19
      183.800   2.48311e-19
      183.900   2.54197e-19
      184.000   2.60203e-19
      184.100   2.66355e-19
      184.200   2.72642e-19
      184.300   2.79076e-19
      184.400   2.85648e-19
      184.500   2.92361e-19
      184.600   2.99221e-19
      184.700   3.06238e-19
      184.800   3.13406e-19
      184.900   3.20727e-19
      185.000   3.28207e-19
      185.100   3.35855e-19
      185.200   3.43671e-19
      185.300   3.51648e-19
      185.400   3.59798e-19
      185.500   3.68120e-19
      185.600   3.76624e-19
      185.700   3.85321e-19
      185.800   3.94206e-19
      185.900   4.03277e-19
      186.000   4.12559e-19
      186.100   4.22026e-19
      186.200   4.31688e-19
      186.300   4.41553e-19
      186.400   4.51631e-19
      186.500   4.61923e-19
      186.600   4.72421e-19
      186.700   4.83127e-19
      186.800   4.94055e-19
      186.900   5.05215e-19
      187.000   5.16604e-19
      187.100   5.28211e-19
      187.200   5.40065e-19
      187.300   5.52183e-19
      187.400   5.64544e-19
      187.500   5.77150e-19
      187.600   5.90009e-19
      187.700   6.03127e-19
      187.800   6.16521e-19
      187.900   6.30184e-19
      188.000   6.44107e-19
      188.100   6.58306e-19
      188.200   6.72797e-19
      188.300   6.87585e-19
      188.400   7.02672e-19
      188.500   7.18053e-19
      188.600   7.33753e-19
      188.700   7.49800e-19
      188.800   7.66156e-19
      188.900   7.82832e-19
      189.000   7.99843e-19
      189.100   8.17216e-19
      189.200   8.34931e-19
      189.300   8.52988e-19
      189.400   8.71404e-19
      189.500   8.90196e-19
      189.600   9.09388e-19
      189.700   9.28937e-19
      189.800   9.48968e-19
      189.900   9.69442e-19
      190.000   9.90360e-19
      190.100   1.01168e-18
      190.200   1.03343e-18
      190.300   1.05560e-18
      190.400   1.07824e-18
      190.500   1.10134e-18
      190.600   1.12488e-18
      190.700   1.14889e-18
      190.800   1.17338e-18
      190.900   1.19835e-18
      191.000   1.22389e-18
      191.100   1.24993e-18
      191.200   1.27649e-18
      191.300   1.30357e-18
      191.400   1.33120e-18
      191.500   1.35938e-18
      191.600   1.38809e-18
      191.700   1.41737e-18
      191.800   1.44725e-18
      191.900   1.47769e-18
      192.000   1.50870e-18
      192.100   1.54037e-18
      192.200   1.57270e-18
      192.300   1.60564e-18
      192.400   1.63927e-18
      192.500   1.67353e-18
      192.600   1.70843e-18
      192.700   1.74400e-18
      192.800   1.77878e-18
      192.900   1.81043e-18
      193.000   1.84221e-18
      193.100   1.87453e-18
      193.200   1.90747e-18
      193.300   1.94091e-18
      193.400   1.97486e-18
      193.500   2.00938e-18
      193.600   2.04448e-18
      193.700   2.08015e-18
      193.800   2.11637e-18
      193.900   2.15315e-18
      194.000   2.19055e-18
      194.100   2.22865e-18
      194.200   2.26733e-18
      194.300   2.30664e-18
      194.400   2.34658e-18
      194.500   2.38720e-18
      194.600   2.42846e-18
      194.700   2.47033e-18
      194.800   2.51285e-18
      194.900   2.55608e-18
      195.000   2.60000e-18
      195.100   2.64476e-18
      195.200   2.69014e-18
      195.300   2.73622e-18
      195.400   2.78303e-18
      195.500   2.83059e-18
      195.600   2.87888e-18
      195.700   2.92787e-18
      195.800   2.97719e-18
      195.900   3.02419e-18
      196.000   2.96537e-18
      196.100   2.90634e-18
      196.200   2.84845e-18
      196.300   2.79167e-18
      196.400   2.73600e-18
      196.500   2.68138e-18
      196.600   2.62783e-18
      196.700   2.57531e-18
      196.800   2.52384e-18
      196.900   2.47344e-18
      197.000   2.42400e-18
      197.100   2.37550e-18
      197.200   2.32795e-18
      197.300   2.28130e-18
      197.400   2.23553e-18
      197.500   2.19063e-18
      197.600   2.14661e-18
      197.700   2.10353e-18
      197.800   2.06132e-18
      197.900   2.01989e-18
      198.000   1.97927e-18
      198.100   1.93943e-18
      198.200   1.90035e-18
      198.300   1.86203e-18
      198.400   1.82446e-18
      198.500   1.78769e-18
      198.600   1.75167e-18
      198.700   1.71634e-18
      198.800   1.68170e-18
      198.900   1.64775e-18
      199.000   1.61445e-18
      199.100   1.58180e-18
      199.200   1.54981e-18
      199.300   1.51852e-18
      199.400   1.48786e-18
      199.500   1.45781e-18
      199.600   1.42834e-18
      199.700   1.39946e-18
      199.800   1.37115e-18
      199.900   1.34340e-18
      200.000   1.31619e-18
      200.100   1.28965e-18
      200.200   1.26358e-18
      200.300   1.23805e-18
      200.400   1.21302e-18
      200.500   1.18849e-18
      200.600   1.16446e-18
      200.700   1.14090e-18
      200.800   1.11781e-18
      200.900   1.09520e-18
      201.000   1.07305e-18
      201.100   1.05137e-18
      201.200   1.03012e-18
      201.300   1.00929e-18
      201.400   9.88895e-19
      201.500   9.68896e-19
      201.600   9.49300e-19
      201.700   9.30102e-19
      201.800   9.11289e-19
      201.900   8.92861e-19
      202.000   8.74828e-19
      202.100   8.57155e-19
      202.200   8.39840e-19
      202.300   8.22934e-19
      202.400   8.06504e-19
      202.500   7.90436e-19
      202.600   7.74676e-19
      202.700   7.59247e-19
      202.800   7.44128e-19
      202.900   7.29321e-19
      203.000   7.14812e-19
      203.100   7.00602e-19
      203.200   6.86666e-19
      203.300   6.73011e-19
      203.400   6.59627e-19
      203.500   6.46511e-19
      203.600   6.33659e-19
      203.700   6.21067e-19
      203.800   6.08735e-19
      203.900   5.96665e-19
      204.000   5.84832e-19
      204.100   5.73237e-19
      204.200   5.61879e-19
      204.300   5.50748e-19
      204.400   5.39840e-19
      204.500   5.29151e-19
      204.600   5.18675e-19
      204.700   5.08409e-19
      204.800   4.98362e-19
      204.900   4.88520e-19
      205.000   4.78876e-19
      205.100   4.69425e-19
      205.200   4.60162e-19
      205.300   4.51086e-19
      205.400   4.42192e-19
      205.500   4.33475e-19
      205.600   4.24197e-19
      205.700   4.14452e-19
      205.800   4.04835e-19
      205.900   3.95449e-19
      206.000   3.86291e-19
      206.100   3.77341e-19
      206.200   3.68597e-19
      206.300   3.60058e-19
      206.400   3.51717e-19
      206.500   3.43563e-19
      206.600   3.35600e-19
      206.700   3.27821e-19
      206.800   3.20217e-19
      206.900   3.12788e-19
      207.000   3.05533e-19
      207.100   2.98450e-19
      207.200   2.91533e-19
      207.300   2.84772e-19
      207.400   2.78165e-19
      207.500   2.71708e-19
      207.600   2.65400e-19
      207.700   2.59234e-19
      207.800   2.53209e-19
      207.900   2.47320e-19
      208.000   2.41567e-19
      208.100   2.35945e-19
      208.200   2.30450e-19
      208.300   2.25082e-19
      208.400   2.19842e-19
      208.500   2.14722e-19
      208.600   2.09716e-19
      208.700   2.04825e-19
      208.800   2.00046e-19
      208.900   1.94813e-19
      209.000   1.88720e-19
      209.100   1.82576e-19
      209.200   1.76628e-19
      209.300   1.70868e-19
      209.400   1.65295e-19
      209.500   1.59899e-19
      209.600   1.54676e-19
      209.700   1.49624e-19
      209.800   1.44741e-19
      209.900   1.40012e-19
      210.000   1.35436e-19
      210.100   1.31008e-19
      210.200   1.26721e-19
      210.300   1.22572e-19
      210.400   1.18557e-19
      210.500   1.14672e-19
      210.600   1.10912e-19
      210.700   1.07272e-19
      210.800   1.03751e-19
      210.900   1.00343e-19
      211.000   9.70448e-20
      211.100   9.38551e-20
      211.200   9.07670e-20
      211.300   8.77844e-20
      211.400   8.48999e-20
      211.500   8.21074e-20
      211.600   7.94063e-20
      211.700   7.67931e-20
      211.800   7.42630e-20
      211.900   7.18154e-20
      212.000   6.94489e-20
      212.100   6.71585e-20
      212.200   6.49421e-20
      212.300   6.27984e-20
      212.400   6.07238e-20
      212.500   5.87174e-20
      212.600   5.67765e-20
      212.700   5.48989e-20
      212.800   5.30824e-20
      212.900   5.13256e-20
      213.000   4.96266e-20
      213.100   4.79850e-20
      213.200   4.63973e-20
      213.300   4.48611e-20
      213.400   4.33753e-20
      213.500   4.19381e-20
      213.600   4.05478e-20
      213.700   3.92037e-20
      213.800   3.79031e-20
      213.900   3.66459e-20
      214.000   3.54295e-20
      214.100   3.42531e-20
      214.200   3.31159e-20
      214.300   3.20158e-20
      214.400   3.09518e-20
      214.500   2.99230e-20
      214.600   2.89285e-20
      214.700   2.79666e-20
      214.800   2.70365e-20
      214.900   2.61374e-20
      215.000   2.52676e-20
      215.100   2.44271e-20
      215.200   2.36150e-20
      215.300   2.28301e-20
      215.400   2.20710e-20
      215.500   2.13371e-20
      215.600   2.06280e-20
      215.700   1.99419e-20
      215.800   1.92786e-20
      215.900   1.86377e-20
      216.000   1.80178e-20
      216.100   1.74185e-20
      216.200   1.68391e-20
      216.300   1.62791e-20
      216.400   1.57378e-20
      216.500   1.52142e-20
      216.600   1.47082e-20
      216.700   1.42192e-20
      216.800   1.37462e-20
      216.900   1.32891e-20
      217.000   1.28471e-20
      217.100   1.24198e-20
      217.200   1.20068e-20
      217.300   1.16075e-20
      217.400   1.12213e-20
      217.500   1.08482e-20
      217.600   1.04874e-20
      217.700   1.01385e-20
      217.800   9.80123e-21
      217.900   9.47531e-21
      218.000   9.16037e-21
      218.100   8.85580e-21
      218.200   8.56141e-21
      218.300   8.27682e-21
      218.400   8.00169e-21
      218.500   7.73553e-21
      218.600   7.47827e-21
      218.700   7.22949e-21
      218.800   6.98894e-21
      218.900   6.75645e-21
      219.000   6.53157e-21
      219.100   6.31408e-21
      219.200   6.10384e-21
      219.300   5.90052e-21
      219.400   5.70388e-21
      219.500   5.51376e-21
      219.600   5.32993e-21
      219.700   5.15220e-21
      219.800   4.98037e-21
      219.900   4.81418e-21
      220.000   4.65347e-21
      220.100   4.49809e-21
      220.200   4.34783e-21
      220.300   4.20256e-21
      220.400   4.06209e-21
      220.500   3.92630e-21
      220.600   3.79501e-21
      220.700   3.66802e-21
      220.800   3.54521e-21
      220.900   3.42655e-21
      221.000   3.31176e-21
      221.100   3.20076e-21
      221.200   3.09349e-21
      221.300   2.98977e-21
      221.400   2.88948e-21
      221.500   2.79253e-21
      221.600   2.69879e-21
      221.700   2.60816e-21
      221.800   2.52050e-21
      221.900   2.43579e-21
      222.000   2.35392e-21
      222.100   2.27472e-21
      222.200   2.19820e-21
      222.300   2.12419e-21
      222.400   2.05268e-21
      222.500   1.98351e-21
      222.600   1.91668e-21
      222.700   1.85206e-21
      222.800   1.78959e-21
      222.900   1.72921e-21
      223.000   1.67084e-21
      223.100   1.61441e-21
      223.200   1.55988e-21
      223.300   1.50716e-21
      223.400   1.45621e-21
      223.500   1.40694e-21
      223.600   1.35934e-21
      223.700   1.31332e-21
      223.800   1.26884e-21
      223.900   1.22588e-21
      224.000   1.18432e-21
      224.100   1.14416e-21
      224.200   1.10535e-21
      224.300   1.06784e-21
      224.400   1.03158e-21
      224.500   9.96547e-22
      224.600   9.62674e-22
      224.700   9.29959e-22
      224.800   8.98334e-22
      224.900   8.67768e-22
      225.000   8.38232e-22
      225.100   8.09683e-22
      225.200   7.82091e-22
      225.300   7.55449e-22
      225.400   7.29687e-22
      225.500   7.04789e-22
      225.600   6.80732e-22
      225.700   6.57496e-22
      225.800   6.35033e-22
      225.900   6.13331e-22
      226.000   5.92368e-22
      226.100   5.72107e-22
      226.200   5.52530e-22
      226.300   5.33661e-22
      226.400   5.15445e-22
      226.500   4.97829e-22
      226.600   4.80798e-22
      226.700   4.64345e-22
      226.800   4.48436e-22
      226.900   4.33067e-22
      227.000   4.18220e-22
      227.100   4.03873e-22
      227.200   3.90016e-22
      227.300   3.76631e-22
      227.400   3.63700e-22
      227.500   3.51210e-22
      227.600   3.39144e-22
      227.700   3.27489e-22
      227.800   3.16233e-22
      227.900   3.05361e-22
      228.000   2.94861e-22
      228.100   2.84719e-22
      228.200   2.74922e-22
      228.300   2.65461e-22
      228.400   2.56326e-22
      228.500   2.47501e-22
      228.600   2.38980e-22
      228.700   2.30750e-22
      228.800   2.22801e-22
      228.900   2.15129e-22
      229.000   2.07717e-22
      229.100   2.00561e-22
      229.200   1.93650e-22
      229.300   1.86976e-22
      229.400   1.80533e-22
      229.500   1.74311e-22
      229.600   1.68301e-22
      229.700   1.62500e-22
      229.800   1.56897e-22
      229.900   1.51488e-22
      230.000   1.46208e-22
      230.100   1.40708e-22
      230.200   1.35400e-22
      230.300   1.30295e-22
      230.400   1.25381e-22
      230.500   1.20652e-22
      230.600   1.16104e-22
      230.700   1.11726e-22
      230.800   1.07513e-22
      230.900   1.03459e-22
      231.000   9.95566e-23
      231.100   9.58008e-23
      231.200   9.21863e-23
      231.300   8.87083e-23
      231.400   8.53623e-23
      231.500   8.21397e-23
      231.600   7.90381e-23
      231.700   7.60542e-23
      231.800   7.31825e-23
      231.900   7.04185e-23
      232.000   6.77582e-23
      232.100   6.51976e-23
      232.200   6.27338e-23
      232.300   6.03629e-23
      232.400   5.80806e-23
      232.500   5.58836e-23
      232.600   5.37698e-23
      232.700   5.17355e-23
      232.800   4.97777e-23
      232.900   4.78933e-23
      233.000   4.60797e-23
      233.100   4.43349e-23
      233.200   4.26551e-23
      233.300   4.10390e-23
      233.400   3.94837e-23
      233.500   3.79881e-23
      233.600   3.65496e-23
      233.700   3.51645e-23
      233.800   3.36664e-23
      233.900   3.22100e-23
      234.000   3.08154e-23
      234.100   2.94809e-23
      234.200   2.82039e-23
      234.300   2.69815e-23
      234.400   2.58116e-23
      234.500   2.46919e-23
      234.600   2.36201e-23
      234.700   2.25946e-23
      234.800   2.16133e-23
      234.900   2.06740e-23
      235.000   1.97749e-23
      235.100   1.89147e-23
      235.200   1.80915e-23
      235.300   1.73037e-23
      235.400   1.65498e-23
      235.500   1.58284e-23
      235.600   1.51384e-23
      235.700   1.44781e-23
      235.800   1.38475e-23
      235.900   1.32441e-23
      236.000   1.26667e-23
      236.100   1.21141e-23
      236.200   1.15854e-23
      236.300   1.10794e-23
      236.400   1.05954e-23
      236.500   1.01322e-23
      236.600   9.68906e-24
      236.700   9.26505e-24
      236.800   8.85932e-24
      236.900   8.47115e-24
      237.000   8.09978e-24
      237.100   7.74442e-24
      237.200   7.40455e-24
      237.300   7.07936e-24
      237.400   6.76826e-24
      237.500   6.47060e-24
      237.600   6.18600e-24
      237.700   5.91426e-24
      237.800   5.65431e-24
      237.900   5.40561e-24
      238.000   5.16776e-24
      238.100   4.94014e-24
      238.200   4.72242e-24
      238.300   4.51416e-24
      238.400   4.31495e-24
      238.500   4.12435e-24
      238.600   3.94208e-24
      238.700   3.76778e-24
      238.800   3.60103e-24
      238.900   3.44155e-24
      239.000   3.28899e-24
      239.100   3.14310e-24
      239.200   3.00362e-24
      239.300   2.87041e-24
      239.400   2.74320e-24
      239.500   2.62153e-24
      239.600   2.50514e-24
      239.700   2.39390e-24
      239.800   2.28748e-24
      239.900   2.18571e-24
      240.000   2.08840e-24
      240.100   1.99533e-24
      240.200   1.90634e-24
      240.300   1.82125e-24
      240.400   1.73987e-24
      240.500   1.66212e-24
      240.600   1.58777e-24
      240.700   1.51668e-24
      240.800   1.44882e-24
      240.900   1.38405e-24
      241.000   1.32214e-24
      241.100   1.26295e-24
      241.200   1.20637e-24
      241.300   1.15226e-24
      241.400   1.10056e-24
      241.500   1.05114e-24
      241.600   1.00389e-24
      241.700   9.58738e-25
      241.800   9.15572e-25
      241.900   8.74315e-25
      242.000   8.34891e-25
      242.100   7.97222e-25
      242.200   7.61299e-25
      242.300   7.27023e-25
      242.400   6.94256e-25
      242.500   6.62942e-25
      242.600   6.33021e-25
      242.700   6.04423e-25
      242.800   5.77104e-25
      242.900   5.50998e-25
      243.000   5.26055e-25
      243.100   5.02223e-25
      243.200   4.79445e-25
      243.300   4.57689e-25
      243.400   4.36913e-25
      243.500   4.17100e-25
      243.600   3.98213e-25
      243.700   3.80159e-25
      243.800   3.62913e-25
      243.900   3.46444e-25
      244.000   3.30705e-25
      244.100   3.15672e-25
      244.200   3.01314e-25
      244.300   2.87595e-25
      244.400   2.74493e-25
      244.500   2.61980e-25
      244.600   2.50027e-25
      244.700   2.38630e-25
      244.800   2.27775e-25
      244.900   2.17407e-25
      245.000   2.07500e-25
      245.100   1.98039e-25
      245.200   1.89007e-25
      245.300   1.80381e-25
      245.400   1.72139e-25
      245.500   1.64272e-25
      245.600   1.56758e-25
      245.700   1.49581e-25
      245.800   1.42728e-25
      245.900   1.36206e-25
      246.000   1.29988e-25
      246.100   1.24047e-25
      246.200   1.18375e-25
      246.300   1.12957e-25
      246.400   1.07785e-25
      246.500   1.02846e-25
      246.600   9.81292e-26
      246.700   9.36264e-26
      246.800   8.93254e-26
      246.900   8.52198e-26
      247.000   8.13129e-26
      247.100   7.75876e-26
      247.200   7.40310e-26
      247.300   7.06354e-26
      247.400   6.73927e-26
      247.500   6.42964e-26
      247.600   6.13403e-26
      247.700   5.85179e-26
      247.800   5.58233e-26
      247.900   5.32506e-26
      248.000   5.07951e-26
      248.100   4.84638e-26
      248.200   4.62372e-26
      248.300   4.41109e-26
      248.400   4.20810e-26
      248.500   4.01425e-26
      248.600   3.82921e-26
      248.700   3.65258e-26
      248.800   3.48395e-26
      248.900   3.32299e-26
      249.000   3.16935e-26
      249.100   3.02332e-26
      249.200   2.88408e-26
      249.300   2.75108e-26
      249.400   2.62412e-26
      249.500   2.50294e-26
      249.600   2.38724e-26
      249.700   2.27679e-26
      249.800   2.17138e-26
      249.900   2.07075e-26
      250.000   1.97471e-26
      250.100   1.88335e-26
      250.200   1.79627e-26
      250.300   1.71324e-26
      250.400   1.63396e-26
      250.500   1.55832e-26
      250.600   1.48614e-26
      250.700   1.41725e-26
      250.800   1.35152e-26
      250.900   1.28880e-26
      251.000   1.22895e-26
      251.100   1.17184e-26
      251.200   1.11743e-26
      251.300   1.06564e-26
      251.400   1.01622e-26
      251.500   9.69038e-27
      251.600   9.24025e-27
      251.700   8.81104e-27
      251.800   8.40137e-27
      251.900   8.01049e-27
      252.000   7.63751e-27
      252.100   7.28184e-27
      252.200   6.94241e-27
      252.300   6.61911e-27
      252.400   6.31113e-27
      252.500   6.01749e-27
      252.600   5.73724e-27
      252.700   5.46993e-27
      252.800   5.21494e-27
      252.900   4.97168e-27
      253.000   4.73961e-27
      253.100   4.51826e-27
      253.200   4.30712e-27
      253.300   4.10661e-27
      253.400   3.91572e-27
      253.500   3.73385e-27
      253.600   3.56065e-27
      253.700   3.39533e-27
      253.800   3.23764e-27
      253.900   3.08719e-27
      254.000   2.94363e-27
      254.100   2.80663e-27
      254.200   2.67594e-27
      254.300   2.55126e-27
      254.400   2.43230e-27
      254.500   2.31881e-27
      254.600   2.21056e-27
      254.700   2.10731e-27
      254.800   2.00907e-27
      254.900   1.91537e-27
      255.000   1.82600e-27
      255.100   1.74069e-27
      255.200   1.65933e-27
      255.300   1.58174e-27
      255.400   1.50772e-27
      255.500   1.43712e-27
      255.600   1.36979e-27
      255.700   1.30557e-27
      255.800   1.24431e-27
      255.900   1.18587e-27
      256.000   1.13015e-27
      256.100   1.07707e-27
      256.200   1.02652e-27
      256.300   9.78317e-28
      256.400   9.32371e-28
      256.500   8.88516e-28
      256.600   8.46715e-28
      256.700   8.06857e-28
      256.800   7.68841e-28
      256.900   7.32588e-28
      257.000   6.98026e-28
      257.100   6.65070e-28
      257.200   6.33659e-28
      257.300   6.03700e-28
      257.400   5.79138e-28
      257.500   5.56998e-28
      257.600   5.35797e-28
      257.700   5.15403e-28
      257.800   4.95772e-28
      257.900   4.76883e-28
      258.000   4.58703e-28
      258.100   4.41205e-28
      258.200   4.24370e-28
      258.300   4.08174e-28
      258.400   3.92577e-28
      258.500   3.77568e-28
      258.600   3.63132e-28
      258.700   3.49239e-28
      258.800   3.35868e-28
      258.900   3.23011e-28
      259.000   3.10630e-28
      259.100   2.98723e-28
      259.200   2.87273e-28
      259.300   2.76273e-28
      259.400   2.65688e-28
      259.500   2.55499e-28
      259.600   2.45699e-28
      259.700   2.36272e-28
      259.800   2.27200e-28
      259.900   2.18469e-28
      260.000   2.10075e-28
      260.100   2.01999e-28
      260.200   1.94229e-28
      260.300   1.86754e-28
      260.400   1.79566e-28
      260.500   1.72652e-28
      260.600   1.65999e-28
      260.700   1.59599e-28
      260.800   1.53449e-28
      260.900   1.47528e-28
      261.000   1.41838e-28
      261.100   1.36371e-28
      261.200   1.31113e-28
      261.300   1.26054e-28
      261.400   1.21192e-28
      261.500   1.17021e-28
      261.600   1.14637e-28
      261.700   1.12586e-28
      261.800   1.10573e-28
      261.900   1.08594e-28
      262.000   1.06651e-28
      262.100   1.04742e-28
      262.200   1.02869e-28
      262.300   1.01027e-28
      262.400   9.92187e-29
      262.500   9.74432e-29
      262.600   9.56989e-29
      262.700   9.39860e-29
      262.800   9.23035e-29
      262.900   9.06493e-29
      263.000   8.90283e-29
      263.100   8.74345e-29
      263.200   8.58698e-29
      263.300   8.43336e-29
      263.400   8.28242e-29
      263.500   8.13421e-29
      263.600   7.98877e-29
      263.700   7.84583e-29
      263.800   7.70541e-29
      263.900   7.56767e-29
      264.000   7.43234e-29
      264.100   7.29939e-29
      264.200   7.16882e-29
      264.300   7.04069e-29
      264.400   6.91483e-29
      264.500   6.79121e-29
      264.600   6.66977e-29
      264.700   6.55057e-29
      264.800   6.43350e-29
      264.900   6.31861e-29
      265.000   6.20574e-29
      265.100   6.09485e-29
      265.200   5.98601e-29
      265.300   5.87911e-29
      265.400   5.77419e-29
      265.500   5.67113e-29
      265.600   5.56993e-29
      265.700   5.47053e-29
      265.800   5.37306e-29
      265.900   5.27732e-29
      266.000   5.18338e-29
      266.100   5.09116e-29
      266.200   5.00054e-29
      266.300   4.91157e-29
      266.400   4.82420e-29
      266.500   4.73840e-29
      266.600   4.65419e-29
      266.700   4.57143e-29
      266.800   4.49028e-29
      266.900   4.41052e-29
      267.000   4.33222e-29
      267.100   4.25534e-29
      267.200   4.17990e-29
      267.300   4.10578e-29
      267.400   4.03296e-29
      267.500   3.96149e-29
      267.600   3.89130e-29
      267.700   3.82238e-29
      267.800   3.75468e-29
      267.900   3.68824e-29
      268.000   3.62301e-29
      268.100   3.55896e-29
      268.200   3.49606e-29
      268.300   3.43431e-29
      268.400   3.37363e-29
      268.500   3.31407e-29
      268.600   3.25557e-29
      268.700   3.19818e-29
      268.800   3.14177e-29
      268.900   3.08640e-29
      269.000   3.03204e-29
      269.100   2.97863e-29
      269.200   2.92622e-29
      269.300   2.87474e-29
      269.400   2.82418e-29
      269.500   2.77450e-29
      269.600   2.72578e-29
      269.700   2.67788e-29
      269.800   2.63089e-29
      269.900   2.58470e-29
      270.000   2.53940e-29
      270.100   2.49487e-29
      270.200   2.45122e-29
      270.300   2.40830e-29
      270.400   2.36615e-29
      270.500   2.32478e-29
      270.600   2.28412e-29
      270.700   2.24421e-29
      270.800   2.20503e-29
      270.900   2.16652e-29
      271.000   2.12869e-29
      271.100   2.09154e-29
      271.200   2.05504e-29
      271.300   2.01922e-29
      271.400   1.98401e-29
      271.500   1.94947e-29
      271.600   1.91549e-29
      271.700   1.88213e-29
      271.800   1.84936e-29
      271.900   1.81718e-29
      272.000   1.78557e-29
      272.100   1.75451e-29
      272.200   1.72399e-29
      272.300   1.69401e-29
      272.400   1.66456e-29
      272.500   1.63564e-29
      272.600   1.60722e-29
      272.700   1.57930e-29
      272.800   1.55186e-29
      272.900   1.52491e-29
      273.000   1.49844e-29
      273.100   1.47243e-29
      273.200   1.44688e-29
      273.300   1.42178e-29
      273.400   1.39710e-29
      273.500   1.37286e-29
      273.600   1.34905e-29
      273.700   1.32563e-29
      273.800   1.30263e-29
      273.900   1.28005e-29
      274.000   1.25785e-29
      274.100   1.23605e-29
      274.200   1.21461e-29
      274.300   1.19355e-29
      274.400   1.17272e-29
      274.500   1.15194e-29
      274.600   1.13148e-29
      274.700   1.11138e-29
      274.800   1.09164e-29
      274.900   1.07224e-29
      275.000   1.05318e-29
      275.100   1.03446e-29
      275.200   1.01607e-29
      275.300   9.98003e-30
      275.400   9.80267e-30
      275.500   9.62842e-30
      275.600   9.45715e-30
      275.700   9.28892e-30
      275.800   9.12371e-30
      275.900   8.96144e-30
      276.000   8.80203e-30
      276.100   8.64536e-30
      276.200   8.49141e-30
      276.300   8.34023e-30
      276.400   8.19172e-30
      276.500   8.04584e-30
      276.600   7.90254e-30
      276.700   7.76170e-30
      276.800   7.62340e-30
      276.900   7.48746e-30
      277.000   7.35399e-30
      277.100   7.22278e-30
      277.200   7.09395e-30
      277.300   6.96739e-30
      277.400   6.84306e-30
      277.500   6.72080e-30
      277.600   6.60084e-30
      277.700   6.48290e-30
      277.800   6.36697e-30
      277.900   6.25318e-30
      278.000   6.14145e-30
      278.100   6.03164e-30
      278.200   5.92373e-30
      278.300   5.81773e-30
      278.400   5.71364e-30
      278.500   5.61128e-30
      278.600   5.51076e-30
      278.700   5.41206e-30
      278.800   5.31512e-30
      278.900   5.21965e-30
      279.000   5.12585e-30
      279.100   5.03372e-30
      279.200   4.94316e-30
      279.300   4.85428e-30
      279.400   4.76689e-30
      279.500   4.68107e-30
      279.600   4.59679e-30
      279.700   4.51402e-30
      279.800   4.43270e-30
      279.900   4.35280e-30
      280.000   4.27433e-30
      280.100   4.19721e-30
      280.200   4.12150e-30
      280.300   4.04710e-30
      280.400   3.97404e-30
      280.500   3.90234e-30
      280.600   3.83186e-30
      280.700   3.76260e-30
      280.800   3.69461e-30
      280.900   3.62780e-30
      281.000   3.56218e-30
      281.100   3.49772e-30
      281.200   3.43442e-30
      281.300   3.37227e-30
      281.400   3.31123e-30
      281.500   3.25124e-30
      281.600   3.19229e-30
      281.700   3.13444e-30
      281.800   3.07763e-30
      281.900   3.02182e-30
      282.000   2.96701e-30
      282.100   2.91316e-30
      282.200   2.86032e-30
      282.300   2.80838e-30
      282.400   2.75739e-30
      282.500   2.70728e-30
      282.600   2.65809e-30
      282.700   2.60976e-30
      282.800   2.56232e-30
      282.900   2.51576e-30
      283.000   2.47000e-30
      283.100   2.42508e-30
      283.200   2.38100e-30
      283.300   2.33767e-30
      283.400   2.29514e-30
      283.500   2.25340e-30
      283.600   2.21238e-30
      283.700   2.17209e-30
      283.800   2.13254e-30
      283.900   2.09372e-30
      284.000   2.05557e-30
      284.100   2.01810e-30
      284.200   1.98132e-30
      284.300   1.94522e-30
      284.400   1.90976e-30
      284.500   1.87495e-30
      284.600   1.84077e-30
      284.700   1.80721e-30
      284.800   1.77426e-30
      284.900   1.74190e-30
      285.000   1.71011e-30
      285.100   1.67891e-30
      285.200   1.64829e-30
      285.300   1.61821e-30
      285.400   1.58867e-30
      285.500   1.55967e-30
      285.600   1.53123e-30
      285.700   1.50328e-30
      285.800   1.47585e-30
      285.900   1.44891e-30
      286.000   1.42247e-30
      286.100   1.39654e-30
      286.200   1.37106e-30
      286.300   1.34607e-30
      286.400   1.32152e-30
      286.500   1.29741e-30
      286.600   1.27374e-30
      286.700   1.25050e-30
      286.800   1.22770e-30
      286.900   1.20532e-30
      287.000   1.18333e-30
      287.100   1.16175e-30
      287.200   1.14057e-30
      287.300   1.11977e-30
      287.400   1.09935e-30
      287.500   1.07932e-30
      287.600   1.05965e-30
      287.700   1.04034e-30
      287.800   1.02138e-30
      287.900   1.00277e-30
      288.000   9.84510e-31
      288.100   9.66576e-31
      288.200   9.48988e-31
      288.300   9.31724e-31
      288.400   9.14777e-31
      288.500   8.98142e-31
      288.600   8.81801e-31
      288.700   8.65772e-31
      288.800   8.50030e-31
      288.900   8.34590e-31
      289.000   8.19428e-31
      289.100   8.04538e-31
      289.200   7.89923e-31
      289.300   7.75584e-31
      289.400   7.61504e-31
      289.500   7.47682e-31
      289.600   7.34113e-31
      289.700   7.20807e-31
      289.800   7.07730e-31
      289.900   6.94887e-31
      290.000   6.82302e-31
      290.100   6.69930e-31
      290.200   6.57809e-31
      290.300   6.45901e-31
      290.400   6.34213e-31
      290.500   6.22750e-31
      290.600   6.11487e-31
      290.700   6.00430e-31
      290.800   5.89586e-31
      290.900   5.78935e-31
      291.000   5.68473e-31
      291.100   5.58204e-31
      291.200   5.48128e-31
      291.300   5.38234e-31
      291.400   5.28526e-31
      291.500   5.18989e-31
      291.600   5.09628e-31
      291.700   5.00443e-31
      291.800   4.91420e-31
      291.900   4.82574e-31
      292.000   4.73896e-31
      292.100   4.65372e-31
      292.200   4.57004e-31
      292.300   4.48784e-31
      292.400   4.40717e-31
      292.500   4.32794e-31
      292.600   4.25016e-31
      292.700   4.17381e-31
      292.800   4.09885e-31
      292.900   4.02525e-31
      293.000   3.95300e-31
      293.100   3.88206e-31
      293.200   3.81240e-31
      293.300   3.74398e-31
      293.400   3.67690e-31
      293.500   3.61101e-31
      293.600   3.54636e-31
      293.700   3.48284e-31
      293.800   3.42051e-31
      293.900   3.35930e-31
      294.000   3.29917e-31
      294.100   3.24015e-31
      294.200   3.18223e-31
      294.300   3.12535e-31
      294.400   3.06947e-31
      294.500   3.01460e-31
      294.600   2.96070e-31
      294.700   2.90781e-31
      294.800   2.85585e-31
      294.900   2.80483e-31
      295.000   2.75480e-31
      295.100   2.70568e-31
      295.200   2.65743e-31
      295.300   2.61001e-31
      295.400   2.56347e-31
      295.500   2.51779e-31
      295.600   2.47290e-31
      295.700   2.42882e-31
      295.800   2.38553e-31
      295.900   2.34299e-31
      296.000   2.30124e-31
      296.100   2.26021e-31
      296.200   2.21994e-31
      296.300   2.18040e-31
      296.400   2.14164e-31
      296.500   2.10350e-31
      296.600   2.06607e-31
      296.700   2.02931e-31
      296.800   1.99320e-31
      296.900   1.95774e-31
      297.000   1.92290e-31
      297.100   1.88867e-31
      297.200   1.85506e-31
      297.300   1.82205e-31
      297.400   1.78963e-31
      297.500   1.75776e-31
      297.600   1.72651e-31
      297.700   1.69581e-31
      297.800   1.66566e-31
      297.900   1.63606e-31
      298.000   1.60698e-31
      298.100   1.57840e-31
      298.200   1.55033e-31
      298.300   1.52277e-31
      298.400   1.49568e-31
      298.500   1.46907e-31
      298.600   1.44294e-31
      298.700   1.41726e-31
      298.800   1.39202e-31
      298.900   1.36727e-31
      299.000   1.34298e-31
      299.100   1.31910e-31
      299.200   1.29563e-31
      299.300   1.27258e-31
      299.400   1.24994e-31
      299.500   1.22770e-31
      299.600   1.20585e-31
      299.700   1.18437e-31
      299.800   1.16328e-31
      299.900   1.14256e-31
      300.000   1.12221e-31
      300.100   1.10221e-31
      300.192   1.08415e-31
      300.285   1.06615e-31
      300.377   1.04867e-31
      300.470   1.03129e-31
      300.562   1.01437e-31
      300.654   9.97721e-32
      300.747   9.81167e-32
      300.839   9.65066e-32
      300.932   9.49037e-32
      301.025   9.33283e-32
      301.117   9.17963e-32
      301.210   9.02702e-32
      301.303   8.87719e-32
      301.395   8.73138e-32
      301.488   8.58618e-32
      301.581   8.44350e-32
      301.674   8.30315e-32
      301.766   8.16648e-32
      301.859   8.03063e-32
      301.952   7.89707e-32
      302.045   7.76567e-32
      302.138   7.64780e-32
      302.231   7.55726e-32
      302.324   7.46886e-32
      302.417   7.38161e-32
      302.510   7.29519e-32
      302.603   7.20992e-32
      302.696   7.12546e-32
      302.789   7.04196e-32
      302.882   6.95941e-32
      302.976   6.87708e-32
      303.069   6.79644e-32
      303.162   6.71670e-32
      303.255   6.63782e-32
      303.349   6.55906e-32
      303.442   6.48198e-32
      303.535   6.40581e-32
      303.629   6.32967e-32
      303.722   6.25524e-32
      303.816   6.18090e-32
      303.909   6.10809e-32
      304.003   6.03538e-32
      304.096   5.96429e-32
      304.190   5.89322e-32
      304.283   5.82369e-32
      304.377   5.75426e-32
      304.471   5.68555e-32
      304.564   5.61838e-32
      304.658   5.55137e-32
      304.752   5.48500e-32
      304.846   5.41943e-32
      304.939   5.35531e-32
      305.033   5.29122e-32
      305.127   5.22785e-32
      305.221   5.16523e-32
      305.315   5.10341e-32
      305.409   5.04216e-32
      305.503   4.98169e-32
      305.597   4.92197e-32
      305.691   4.86286e-32
      305.785   4.80448e-32
      305.879   4.74672e-32
      305.973   4.68965e-32
      306.067   4.63323e-32
      306.161   4.57748e-32
      306.255   4.52238e-32
      306.350   4.46733e-32
      306.444   4.41347e-32
      306.538   4.36029e-32
      306.633   4.30717e-32
      306.727   4.25520e-32
      306.821   4.20385e-32
      306.916   4.15255e-32
      307.010   4.10340e-32
      307.105   4.05759e-32
      307.199   4.01326e-32
      307.294   3.96892e-32
      307.388   3.92554e-32
      307.483   3.88217e-32
      307.577   3.83971e-32
      307.672   3.79722e-32
      307.767   3.75521e-32
      307.861   3.71406e-32
      307.956   3.67288e-32
      308.051   3.63217e-32
      308.146   3.59194e-32
      308.240   3.55249e-32
      308.335   3.51305e-32
      308.430   3.47402e-32
      308.525   3.43545e-32
      308.620   3.39729e-32
      308.715   3.35953e-32
      308.810   3.32219e-32
      308.905   3.28523e-32
      309.000   3.24864e-32
      309.095   3.21248e-32
      309.190   3.17673e-32
      309.285   3.14136e-32
      309.380   3.10636e-32
      309.476   3.07140e-32
      309.571   3.03715e-32
      309.666   3.00328e-32
      309.761   2.96979e-32
      309.857   2.93632e-32
      309.952   2.90351e-32
      310.047   2.87111e-32
      310.143   2.83871e-32
      310.238   2.80701e-32
      310.334   2.77532e-32
      310.429   2.74430e-32
      310.525   2.71330e-32
      310.620   2.68297e-32
      310.716   2.65266e-32
      310.811   2.62303e-32
      310.907   2.59338e-32
      311.003   2.56406e-32
      311.098   2.53537e-32
      311.194   2.50669e-32
      311.290   2.47838e-32
      311.386   2.45037e-32
      311.481   2.42294e-32
      311.577   2.39553e-32
      311.673   2.36845e-32
      311.769   2.34166e-32
      311.865   2.31516e-32
      311.961   2.28903e-32
      312.057   2.26348e-32
      312.153   2.23833e-32
      312.249   2.21343e-32
      312.345   2.18884e-32
      312.441   2.16450e-32
      312.537   2.14045e-32
      312.633   2.11666e-32
      312.730   2.09288e-32
      312.826   2.06962e-32
      312.922   2.04661e-32
      313.018   2.02387e-32
      313.115   2.00115e-32
      313.211   1.97890e-32
      313.307   1.95692e-32
      313.404   1.93497e-32
      313.500   1.91347e-32
      313.597   1.89201e-32
      313.693   1.87101e-32
      313.790   1.85002e-32
      313.886   1.82949e-32
      313.983   1.80897e-32
      314.079   1.78889e-32
      314.176   1.76884e-32
      314.273   1.74902e-32
      314.369   1.72965e-32
      314.466   1.71029e-32
      314.563   1.69114e-32
      314.660   1.67220e-32
      314.756   1.65368e-32
      314.853   1.63517e-32
      314.950   1.61688e-32
      315.047   1.59881e-32
      315.144   1.58094e-32
      315.241   1.56328e-32
      315.338   1.54582e-32
      315.435   1.52855e-32
      315.532   1.51148e-32
      315.629   1.49461e-32
      315.726   1.47794e-32
      315.823   1.46145e-32
      315.921   1.44499e-32
      316.018   1.42889e-32
      316.115   1.41298e-32
      316.212   1.39724e-32
      316.310   1.38152e-32
      316.407   1.36614e-32
      316.504   1.35094e-32
      316.602   1.33577e-32
      316.699   1.32093e-32
      316.796   1.30625e-32
      316.894   1.29159e-32
      316.991   1.27728e-32
      317.089   1.26315e-32
      317.187   1.24927e-32
      317.284   1.23569e-32
      317.382   1.22212e-32
      317.479   1.20884e-32
      317.577   1.19557e-32
      317.675   1.18246e-32
      317.773   1.16949e-32
      317.870   1.15681e-32
      317.968   1.14414e-32
      318.066   1.13161e-32
      318.164   1.11922e-32
      318.262   1.10698e-32
      318.360   1.09488e-32
      318.458   1.08292e-32
      318.556   1.07110e-32
      318.654   1.05941e-32
      318.752   1.04785e-32
      318.850   1.03642e-32
      318.948   1.02513e-32
      319.046   1.01396e-32
      319.144   1.00291e-32
      319.242   9.91997e-33
      319.341   9.81098e-33
      319.439   9.70431e-33
      319.537   9.59893e-33
      319.635   9.49466e-33
      319.734   9.39051e-33
      319.832   9.28865e-33
      319.930   9.18785e-33
      320.029   9.08721e-33
      320.127   8.98877e-33
      320.226   8.89047e-33
      320.324   8.79419e-33
      320.423   8.69798e-33
      320.522   8.60307e-33
      320.620   8.51009e-33
      320.719   8.41715e-33
      320.818   8.32536e-33
      320.916   8.23550e-33
      321.015   8.14574e-33
      321.114   8.05695e-33
      321.213   7.96921e-33
      321.311   7.88340e-33
      321.410   7.79767e-33
      321.509   7.71280e-33
      321.608   7.62897e-33
      321.707   7.54609e-33
      321.806   7.46414e-33
      321.905   7.38313e-33
      322.004   7.30302e-33
      322.103   7.22382e-33
      322.202   7.14543e-33
      322.301   7.06801e-33
      322.401   6.99072e-33
      322.500   6.91504e-33
      322.599   6.84020e-33
      322.698   6.76615e-33
      322.798   6.69222e-33
      322.897   6.61987e-33
      322.996   6.54834e-33
      323.096   6.47685e-33
      323.195   6.40689e-33
      323.294   6.33766e-33
      323.394   6.26854e-33
      323.493   6.20089e-33
      323.593   6.13340e-33
      323.692   6.06724e-33
      323.792   6.00115e-33
      323.892   5.93579e-33
      323.991   5.87178e-33
      324.091   5.80795e-33
      324.191   5.74479e-33
      324.291   5.68228e-33
      324.390   5.62114e-33
      324.490   5.56005e-33
      324.590   5.49961e-33
      324.690   5.43984e-33
      324.790   5.38074e-33
      324.890   5.32233e-33
      324.990   5.26456e-33
      325.090   5.20741e-33
      325.190   5.15085e-33
      325.290   5.09497e-33
      325.390   5.03965e-33
      325.490   4.98500e-33
      325.590   4.93095e-33
      325.690   4.87739e-33
      325.790   4.82446e-33
      325.891   4.77163e-33
      325.991   4.71988e-33
      326.091   4.66867e-33
      326.192   4.61753e-33
      326.292   4.56748e-33
      326.392   4.51797e-33
      326.493   4.46850e-33
      326.593   4.42004e-33
      326.694   4.37166e-33
      326.794   4.32424e-33
      326.895   4.27688e-33
      326.995   4.23051e-33
      327.096   4.18418e-33
      327.197   4.13835e-33
      327.297   4.09347e-33
      327.398   4.04865e-33
      327.499   4.00432e-33
      327.599   3.96088e-33
      327.700   3.91748e-33
      327.801   3.87454e-33
      327.902   3.83211e-33
      328.003   3.79011e-33
      328.104   3.74857e-33
      328.205   3.70750e-33
      328.306   3.66686e-33
      328.407   3.62666e-33
      328.508   3.58686e-33
      328.609   3.54750e-33
      328.710   3.50854e-33
      328.811   3.47003e-33
      328.912   3.43195e-33
      329.013   3.39425e-33
      329.115   3.35664e-33
      329.216   3.31978e-33
      329.317   3.28326e-33
      329.419   3.24684e-33
      329.520   3.21114e-33
      329.621   3.17577e-33
      329.723   3.14049e-33
      329.824   3.10594e-33
      329.926   3.07142e-33
      330.027   3.03759e-33
      330.129   3.00379e-33
      330.230   2.97070e-33
      330.332   2.93761e-33
      330.434   2.90489e-33
      330.535   2.87285e-33
      330.637   2.84082e-33
      330.739   2.80913e-33
      330.840   2.77809e-33
      330.942   2.74708e-33
      331.044   2.71642e-33
      331.146   2.68605e-33
      331.248   2.65604e-33
      331.350   2.62636e-33
      331.452   2.59701e-33
      331.554   2.56858e-33
      331.656   2.54139e-33
      331.758   2.51448e-33
      331.860   2.48782e-33
      331.962   2.46145e-33
      332.064   2.43535e-33
      332.166   2.40955e-33
      332.268   2.38396e-33
      332.371   2.35841e-33
      332.473   2.33334e-33
      332.575   2.30851e-33
      332.677   2.28395e-33
      332.780   2.25940e-33
      332.882   2.23535e-33
      332.985   2.21131e-33
      333.087   2.18772e-33
      333.190   2.16418e-33
      333.292   2.14079e-33
      333.395   2.11666e-33
      333.497   2.09275e-33
      333.600   2.06888e-33
      333.702   2.04549e-33
      333.805   2.02213e-33
      333.908   1.99901e-33
      334.011   1.97616e-33
      334.113   1.95376e-33
      334.216   1.93140e-33
      334.319   1.90928e-33
      334.422   1.88738e-33
      334.525   1.86574e-33
      334.628   1.84432e-33
      334.731   1.82315e-33
      334.834   1.80222e-33
      334.937   1.78151e-33
      335.040   1.76102e-33
      335.143   1.74076e-33
      335.246   1.72072e-33
      335.349   1.70089e-33
      335.452   1.68128e-33
      335.555   1.66189e-33
      335.659   1.64254e-33
      335.762   1.62359e-33
      335.865   1.60485e-33
      335.969   1.58612e-33
      336.072   1.56776e-33
      336.175   1.54963e-33
      336.279   1.53152e-33
      336.382   1.51380e-33
      336.486   1.49608e-33
      336.589   1.47872e-33
      336.693   1.46142e-33
      336.796   1.44446e-33
      336.900   1.42754e-33
      337.004   1.41078e-33
      337.107   1.39439e-33
      337.211   1.37802e-33
      337.315   1.36186e-33
      337.419   1.34585e-33
      337.523   1.33001e-33
      337.626   1.31452e-33
      337.730   1.29907e-33
      337.834   1.28377e-33
      337.938   1.26866e-33
      338.042   1.25375e-33
      338.146   1.23915e-33
      338.250   1.22474e-33
      338.354   1.21050e-33
      338.458   1.19640e-33
      338.562   1.18247e-33
      338.667   1.16856e-33
      338.771   1.15493e-33
      338.875   1.14147e-33
      338.979   1.12815e-33
      339.084   1.11487e-33
      339.188   1.10185e-33
      339.292   1.08900e-33
      339.397   1.07615e-33
      339.501   1.06358e-33
      339.606   1.05103e-33
      339.710   1.03874e-33
      339.815   1.02649e-33
      339.919   1.01449e-33
      340.024   1.00250e-33
      340.128   9.90772e-34
      340.233   9.79064e-34
      340.338   9.67501e-34
      340.442   9.56166e-34
      340.547   9.44864e-34
      340.652   9.33690e-34
      340.757   9.22640e-34
      340.862   9.11723e-34
      340.966   9.01041e-34
      341.071   8.90361e-34
      341.176   8.79819e-34
      341.281   8.69402e-34
      341.386   8.59119e-34
      341.491   8.48936e-34
      341.596   8.38895e-34
      341.702   8.28867e-34
      341.807   8.19037e-34
      341.912   8.09338e-34
      342.017   7.99759e-34
      342.122   7.90280e-34
      342.228   7.80821e-34
      342.333   7.71571e-34
      342.438   7.62429e-34
      342.544   7.53315e-34
      342.649   7.44380e-34
      342.754   7.35571e-34
      342.860   7.26765e-34
      342.965   7.18149e-34
      343.071   7.09568e-34
      343.176   7.01163e-34
      343.282   6.92773e-34
      343.388   6.84494e-34
      343.493   6.76426e-34
      343.599   6.68731e-34
      343.705   6.61174e-34
      343.810   6.53755e-34
      343.916   6.46356e-34
      344.022   6.39052e-34
      344.128   6.31821e-34
      344.234   6.24672e-34
      344.340   6.17614e-34
      344.446   6.10622e-34
      344.552   6.03718e-34
      344.658   5.96907e-34
      344.764   5.90162e-34
      344.870   5.83497e-34
      344.976   5.76905e-34
      345.082   5.70392e-34
      345.188   5.63959e-34
      345.294   5.57594e-34
      345.401   5.51244e-34
      345.507   5.45028e-34
      345.613   5.38884e-34
      345.719   5.32811e-34
      345.826   5.26754e-34
      345.932   5.20819e-34
      346.039   5.14903e-34
      346.145   5.09102e-34
      346.252   5.03323e-34
      346.358   4.97665e-34
      346.465   4.92014e-34
      346.571   4.86484e-34
      346.678   4.80967e-34
      346.785   4.75513e-34
      346.891   4.70174e-34
      346.998   4.64849e-34
      347.105   4.59592e-34
      347.212   4.54387e-34
      347.319   4.49250e-34
      347.425   4.44210e-34
      347.532   4.39189e-34
      347.639   4.34231e-34
      347.746   4.29324e-34
      347.853   4.24483e-34
      347.960   4.19688e-34
      348.067   4.14961e-34
      348.174   4.10290e-34
      348.281   4.05660e-34
      348.389   4.01056e-34
      348.496   3.96533e-34
      348.603   3.92079e-34
      348.710   3.87666e-34
      348.818   3.83275e-34
      348.925   3.78966e-34
      349.032   3.74715e-34
      349.140   3.70464e-34
      349.247   3.66301e-34
      349.355   3.62157e-34
      349.462   3.58094e-34
      349.570   3.54037e-34
      349.677   3.50071e-34
      349.785   3.46111e-34
      349.892   3.42239e-34
      350.000   3.38376e-34
      350.100   3.34837e-34
      350.193   3.31585e-34
      350.287   3.28328e-34
      350.380   3.25137e-34
      350.473   3.21983e-34
      350.567   3.18822e-34
      350.660   3.15731e-34
      350.754   3.12635e-34
      350.847   3.09611e-34
      350.941   3.06579e-34
      351.034   3.03609e-34
      351.128   3.00642e-34
      351.221   2.97734e-34
      351.315   2.94830e-34
      351.409   2.91947e-34
      351.502   2.89129e-34
      351.596   2.86306e-34
      351.690   2.83514e-34
      351.783   2.80781e-34
      351.877   2.78051e-34
      351.971   2.75339e-34
      352.065   2.72661e-34
      352.159   2.70011e-34
      352.252   2.67413e-34
      352.346   2.64813e-34
      352.440   2.62239e-34
      352.534   2.59696e-34
      352.628   2.57179e-34
      352.722   2.54683e-34
      352.816   2.52213e-34
      352.910   2.49770e-34
      353.004   2.47351e-34
      353.098   2.44955e-34
      353.192   2.42584e-34
      353.287   2.40214e-34
      353.381   2.37892e-34
      353.475   2.35595e-34
      353.569   2.33316e-34
      353.663   2.31062e-34
      353.758   2.28812e-34
      353.852   2.26606e-34
      353.946   2.24422e-34
      354.041   2.22235e-34
      354.135   2.20094e-34
      354.229   2.17974e-34
      354.324   2.15857e-34
      354.418   2.13776e-34
      354.513   2.11698e-34
      354.607   2.09667e-34
      354.702   2.07624e-34
      354.796   2.05609e-34
      354.891   2.03588e-34
      354.985   2.01612e-34
      355.080   1.99632e-34
      355.175   1.97675e-34
      355.269   1.95755e-34
      355.364   1.93836e-34
      355.459   1.91936e-34
      355.553   1.90077e-34
      355.648   1.88215e-34
      355.743   1.86372e-34
      355.838   1.84547e-34
      355.933   1.82743e-34
      356.027   1.80975e-34
      356.122   1.79205e-34
      356.217   1.77453e-34
      356.312   1.75720e-34
      356.407   1.74003e-34
      356.502   1.72304e-34
      356.597   1.70619e-34
      356.692   1.68956e-34
      356.787   1.67308e-34
      356.882   1.65675e-34
      356.977   1.64059e-34
      357.073   1.62444e-34
      357.168   1.60859e-34
      357.263   1.59291e-34
      357.358   1.57739e-34
      357.453   1.56203e-34
      357.549   1.54667e-34
      357.644   1.53160e-34
      357.739   1.51670e-34
      357.835   1.50179e-34
      357.930   1.48718e-34
      358.025   1.47271e-34
      358.121   1.45823e-34
      358.216   1.44404e-34
      358.312   1.42984e-34
      358.407   1.41595e-34
      358.503   1.40204e-34
      358.598   1.38843e-34
      358.694   1.37479e-34
      358.790   1.36129e-34
      358.885   1.34806e-34
      358.981   1.33483e-34
      359.076   1.32185e-34
      359.172   1.30889e-34
      359.268   1.29603e-34
      359.364   1.28331e-34
      359.459   1.27086e-34
      359.555   1.25840e-34
      359.651   1.24604e-34
      359.747   1.23382e-34
      359.843   1.22172e-34
      359.939   1.20972e-34
      360.035   1.19786e-34
      360.131   1.18610e-34
      360.227   1.17446e-34
      360.323   1.16295e-34
      360.419   1.15154e-34
      360.515   1.14025e-34
      360.611   1.12907e-34
      360.707   1.11798e-34
      360.803   1.10702e-34
      360.899   1.09615e-34
      360.995   1.08541e-34
      361.092   1.07465e-34
      361.188   1.06410e-34
      361.284   1.05366e-34
      361.380   1.04333e-34
      361.477   1.03298e-34
      361.573   1.02284e-34
      361.669   1.01280e-34
      361.766   1.00274e-34
      361.862   9.92904e-35
      361.959   9.83058e-35
      362.055   9.73385e-35
      362.152   9.63730e-35
      362.248   9.54254e-35
      362.345   9.44770e-35
      362.441   9.35494e-35
      362.538   9.26207e-35
      362.635   9.17007e-35
      362.731   9.07979e-35
      362.828   8.98943e-35
      362.925   8.90007e-35
      363.021   8.81253e-35
      363.118   8.72487e-35
      363.215   8.63796e-35
      363.312   8.55194e-35
      363.409   8.46685e-35
      363.505   8.38336e-35
      363.602   8.29980e-35
      363.699   8.21719e-35
      363.796   8.13524e-35
      363.893   8.05409e-35
      363.990   7.97374e-35
      364.087   7.89415e-35
      364.184   7.81538e-35
      364.281   7.73734e-35
      364.378   7.66013e-35
      364.475   7.58358e-35
      364.573   7.50692e-35
      364.670   7.43181e-35
      364.767   7.35752e-35
      364.864   7.28392e-35
      364.961   7.21096e-35
      365.059   7.13803e-35
      365.156   7.06653e-35
      365.253   6.99571e-35
      365.351   6.92482e-35
      365.448   6.85534e-35
      365.545   6.78659e-35
      365.643   6.71773e-35
      365.740   6.65022e-35
      365.838   6.58271e-35
      365.935   6.51654e-35
      366.033   6.45038e-35
      366.130   6.38544e-35
      366.228   6.32050e-35
      366.326   6.25622e-35
      366.423   6.19314e-35
      366.521   6.13005e-35
      366.618   6.06818e-35
      366.716   6.00627e-35
      366.814   5.94500e-35
      366.912   5.88435e-35
      367.010   5.82429e-35
      367.107   5.76540e-35
      367.205   5.70644e-35
      367.303   5.64805e-35
      367.401   5.59025e-35
      367.499   5.53301e-35
      367.597   5.47633e-35
      367.695   5.42016e-35
      367.793   5.36459e-35
      367.891   5.30960e-35
      367.989   5.25509e-35
      368.087   5.20112e-35
      368.185   5.14765e-35
      368.283   5.09472e-35
      368.381   5.04229e-35
      368.480   4.98984e-35
      368.578   4.93845e-35
      368.676   4.88757e-35
      368.774   4.83720e-35
      368.873   4.78682e-35
      368.971   4.73742e-35
      369.069   4.68854e-35
      369.168   4.63957e-35
      369.266   4.59156e-35
      369.364   4.54408e-35
      369.463   4.49662e-35
      369.561   4.45006e-35
      369.660   4.40348e-35
      369.758   4.35783e-35
      369.857   4.31220e-35
      369.955   4.26746e-35
      370.054   4.22268e-35
      370.153   4.17834e-35
      370.251   4.13491e-35
      370.350   4.09150e-35
      370.449   4.04852e-35
      370.547   4.00638e-35
      370.646   3.96418e-35
      370.745   3.92247e-35
      370.844   3.88115e-35
      370.943   3.84025e-35
      371.041   3.80018e-35
      371.140   3.76007e-35
      371.239   3.72036e-35
      371.338   3.68110e-35
      371.437   3.64221e-35
      371.536   3.60369e-35
      371.635   3.56556e-35
      371.734   3.52786e-35
      371.833   3.49052e-35
      371.932   3.45354e-35
      372.032   3.41658e-35
      372.131   3.38032e-35
      372.230   3.34449e-35
      372.329   3.30903e-35
      372.428   3.27390e-35
      372.528   3.23880e-35
      372.627   3.20441e-35
      372.726   3.17037e-35
      372.826   3.13635e-35
      372.925   3.10301e-35
      373.024   3.06999e-35
      373.124   3.03696e-35
      373.223   3.00463e-35
      373.323   2.97232e-35
      373.422   2.94064e-35
      373.522   2.90895e-35
      373.621   2.87794e-35
      373.721   2.84692e-35
      373.820   2.81652e-35
      373.920   2.78613e-35
      374.020   2.75605e-35
      374.119   2.72659e-35
      374.219   2.69712e-35
      374.319   2.66799e-35
      374.419   2.63916e-35
      374.518   2.61090e-35
      374.618   2.58265e-35
      374.718   2.55466e-35
      374.818   2.52701e-35
      374.918   2.49964e-35
      375.018   2.47255e-35
      375.118   2.44576e-35
      375.218   2.41923e-35
      375.318   2.39300e-35
      375.418   2.36702e-35
      375.518   2.34135e-35
      375.618   2.31593e-35
      375.718   2.29076e-35
      375.818   2.26587e-35
      375.918   2.24124e-35
      376.019   2.21665e-35
      376.119   2.19255e-35
      376.219   2.16870e-35
      376.319   2.14510e-35
      376.420   2.12152e-35
      376.520   2.09842e-35
      376.620   2.07558e-35
      376.721   2.05275e-35
      376.821   2.03039e-35
      376.922   2.00804e-35
      377.022   1.98614e-35
      377.122   1.96451e-35
      377.223   1.94288e-35
      377.323   1.92169e-35
      377.424   1.90052e-35
      377.525   1.87959e-35
      377.625   1.85908e-35
      377.726   1.83859e-35
      377.827   1.81833e-35
      377.927   1.79847e-35
      378.028   1.77865e-35
      378.129   1.75904e-35
      378.230   1.74385e-35
      378.330   1.73539e-35
      378.431   1.72797e-35
      378.532   1.72058e-35
      378.633   1.71321e-35
      378.734   1.70588e-35
      378.835   1.69858e-35
      378.936   1.69130e-35
      379.037   1.68404e-35
      379.138   1.67679e-35
      379.239   1.66959e-35
      379.340   1.66244e-35
      379.441   1.65530e-35
      379.542   1.64818e-35
      379.643   1.64110e-35
      379.745   1.63396e-35
      379.846   1.62694e-35
      379.947   1.61991e-35
      380.048   1.61294e-35
      380.150   1.60592e-35
      380.251   1.59900e-35
      380.352   1.59211e-35
      380.454   1.58519e-35
      380.555   1.57835e-35
      380.656   1.57152e-35
      380.758   1.56468e-35
      380.859   1.55792e-35
      380.961   1.55113e-35
      381.062   1.54443e-35
      381.164   1.53770e-35
      381.266   1.53099e-35
      381.367   1.52438e-35
      381.469   1.51773e-35
      381.570   1.51118e-35
      381.672   1.50458e-35
      381.774   1.49802e-35
      381.876   1.49148e-35
      381.977   1.48505e-35
      382.079   1.47856e-35
      382.181   1.47211e-35
      382.283   1.46570e-35
      382.385   1.45930e-35
      382.487   1.45295e-35
      382.589   1.44661e-35
      382.691   1.44030e-35
      382.793   1.43402e-35
      382.895   1.42778e-35
      382.997   1.42157e-35
      383.099   1.41537e-35
      383.201   1.40920e-35
      383.303   1.40308e-35
      383.405   1.39696e-35
      383.507   1.39087e-35
      383.610   1.38477e-35
      383.712   1.37874e-35
      383.814   1.37275e-35
      383.916   1.36680e-35
      384.019   1.36080e-35
      384.121   1.35490e-35
      384.223   1.34900e-35
      384.326   1.34360e-35
      384.428   1.33955e-35
      384.531   1.33584e-35
      384.633   1.33219e-35
      384.736   1.32851e-35
      384.838   1.32487e-35
      384.941   1.32121e-35
      385.043   1.31760e-35
      385.146   1.31399e-35
      385.249   1.31036e-35
      385.351   1.30678e-35
      385.454   1.30320e-35
      385.557   1.29961e-35
      385.660   1.29605e-35
      385.762   1.29254e-35
      385.865   1.28899e-35
      385.968   1.28546e-35
      386.071   1.28195e-35
      386.174   1.27844e-35
      386.277   1.27494e-35
      386.380   1.27146e-35
      386.483   1.26798e-35
      386.586   1.26455e-35
      386.689   1.26111e-35
      386.792   1.25767e-35
      386.895   1.25425e-35
      386.998   1.25085e-35
      387.101   1.24745e-35
      387.204   1.24406e-35
      387.308   1.24067e-35
      387.411   1.23732e-35
      387.514   1.23397e-35
      387.617   1.23063e-35
      387.721   1.22728e-35
      387.824   1.22398e-35
      387.927   1.22068e-35
      388.031   1.21737e-35
      388.134   1.21409e-35
      388.238   1.21081e-35
      388.341   1.20756e-35
      388.445   1.20430e-35
      388.548   1.20107e-35
      388.652   1.19785e-35
      388.755   1.19465e-35
      388.859   1.19143e-35
      388.962   1.18825e-35
      389.066   1.18506e-35
      389.170   1.18188e-35
      389.274   1.17872e-35
      389.377   1.17561e-35
      389.481   1.17245e-35
      389.585   1.16932e-35
      389.689   1.16620e-35
      389.793   1.16309e-35
      389.897   1.15999e-35
      390.000   1.15695e-35
      390.104   1.15388e-35
      390.208   1.15081e-35
      390.312   1.14776e-35
      390.416   1.14471e-35
      390.520   1.14166e-35
      390.625   1.13860e-35
      390.729   1.13557e-35
      390.833   1.13256e-35
      390.937   1.12956e-35
      391.041   1.12657e-35
      391.145   1.12357e-35
      391.250   1.12058e-35
      391.354   1.11762e-35
      391.458   1.11466e-35
      391.563   1.11170e-35
      391.667   1.10877e-35
      391.771   1.10586e-35
      391.876   1.10293e-35
      391.980   1.10003e-35
      392.085   1.09712e-35
      392.189   1.09425e-35
      392.294   1.09136e-35
      392.398   1.08851e-35
      392.503   1.08564e-35
      392.607   1.08281e-35
      392.712   1.07997e-35
      392.817   1.07712e-35
      392.921   1.07433e-35
      393.026   1.07151e-35
      393.131   1.06870e-35
      393.236   1.06590e-35
      393.340   1.06315e-35
      393.445   1.06038e-35
      393.550   1.05761e-35
      393.655   1.05485e-35
      393.760   1.05211e-35
      393.865   1.04938e-35
      393.970   1.04664e-35
      394.075   1.04392e-35
      394.180   1.04123e-35
      394.285   1.03854e-35
      394.390   1.03584e-35
      394.495   1.03316e-35
      394.600   1.03049e-35
      394.706   1.02780e-35
      394.811   1.02516e-35
      394.916   1.02250e-35
      395.021   1.01987e-35
      395.126   1.01724e-35
      395.232   1.01460e-35
      395.337   1.01198e-35
      395.443   1.00936e-35
      395.548   1.00676e-35
      395.653   1.00416e-35
      395.759   1.00157e-35
      395.864   9.99011e-36
      395.970   9.96427e-36
      396.075   9.93874e-36
      396.181   9.91305e-36
      396.286   9.88754e-36
      396.392   9.86209e-36
      396.498   9.83670e-36
      396.603   9.81143e-36
      396.709   9.78606e-36
      396.815   9.76065e-36
      396.921   9.73548e-36
      397.026   9.71060e-36
      397.132   9.68565e-36
      397.238   9.66068e-36
      397.344   9.63577e-36
      397.450   9.61101e-36
      397.556   9.58620e-36
      397.662   9.56147e-36
      397.768   9.53684e-36
      397.874   9.51246e-36
      397.980   9.48777e-36
      398.086   9.46346e-36
      398.192   9.43897e-36
      398.298   9.41459e-36
      398.404   9.39053e-36
      398.510   9.36629e-36
      398.617   9.34186e-36
      398.723   9.31778e-36
      398.829   9.29376e-36
      398.935   9.26970e-36
      399.042   9.24572e-36
      399.148   9.22176e-36
      399.255   9.19770e-36
      399.361   9.17393e-36
      399.467   9.15017e-36
      399.574   9.12640e-36
      399.680   9.10269e-36
      399.787   9.07877e-36
      399.893       0.00000
      400.000       0.00000
