Filter Al-thick
observation_date 22-Sept-2023 22:45:45
wavelength effective area 
      1.00000   2.52796e-10
      1.10000   6.99231e-10
      1.20000   1.75056e-09
      1.30000   4.00500e-09
      1.40000   8.63385e-09
      1.50000   1.73695e-08
      1.60000   3.28989e-08
      1.70000   5.92531e-08
      1.80000   1.01463e-07
      1.90000   1.66197e-07
      2.00000   2.60862e-07
      2.10000   3.93888e-07
      2.20000   5.74567e-07
      2.30000   8.08489e-07
      2.40000   1.09910e-06
      2.50000   1.43834e-06
      2.60000   1.85768e-06
      2.70000   2.31637e-06
      2.80000   2.80057e-06
      2.90000   3.30647e-06
      3.00000   3.79656e-06
      3.10000   4.24845e-06
      3.20000   4.64046e-06
      3.30000   4.95012e-06
      3.40000   5.15615e-06
      3.50000   5.24840e-06
      3.60000   5.23826e-06
      3.70000   5.10662e-06
      3.80000   4.88304e-06
      3.90000   4.57773e-06
      4.00000   4.20496e-06
      4.10000   3.78878e-06
      4.20000   3.35197e-06
      4.30000   2.91299e-06
      4.40000   2.48758e-06
      4.50000   2.08728e-06
      4.60000   1.71978e-06
      4.70000   1.39610e-06
      4.80000   1.11483e-06
      4.90000   8.65823e-07
      5.00000   6.79636e-07
      5.10000   5.18289e-07
      5.20000   3.90621e-07
      5.30000   2.87421e-07
      5.40000   2.08097e-07
      5.50000   1.48866e-07
      5.60000   1.01586e-07
      5.70000   7.18532e-08
      5.80000   4.51234e-08
      5.90000   3.65389e-08
      6.00000   2.57034e-08
      6.10000   1.69534e-08
      6.20000   1.07821e-08
      6.30000   6.46276e-09
      6.40000   3.64730e-09
      6.50000   1.94476e-09
      6.60000   9.73412e-10
      6.70000   4.69418e-10
      6.80000   2.19306e-10
      6.90000   1.32072e-10
      7.00000   6.59207e-11
      7.10000   3.13952e-11
      7.20000   1.44800e-11
      7.30000   6.58416e-12
      7.40000   3.04828e-12
      7.50000   1.35195e-12
      7.60000   5.72465e-13
      7.70000   2.49907e-13
      7.80000   1.03039e-13
      7.90000   4.15207e-14
      8.00000     0.0716816
      8.10000     0.0717286
      8.20000     0.0664560
      8.30000     0.0611525
      8.40000     0.0562210
      8.50000     0.0515362
      8.60000     0.0471302
      8.70000     0.0429564
      8.80000     0.0390553
      8.90000     0.0353818
      9.00000     0.0319642
      9.10000     0.0287949
      9.20000     0.0258458
      9.30000     0.0231579
      9.40000     0.0206811
      9.50000     0.0184036
      9.60000     0.0163547
      9.70000     0.0144862
      9.80000     0.0127805
      9.90000     0.0112460
      10.0000    0.00986661
      10.1000    0.00862309
      10.2000    0.00750688
      10.3000    0.00652081
      10.4000    0.00565280
      10.5000    0.00488399
      10.6000    0.00420569
      10.7000    0.00360944
      10.8000    0.00308995
      10.9000    0.00264160
      11.0000    0.00225110
      11.1000    0.00191223
      11.2000    0.00161918
      11.3000    0.00136673
      11.4000    0.00115000
      11.5000   0.000964563
      11.6000   0.000806488
      11.7000   0.000673545
      11.8000   0.000560940
      11.9000   0.000466716
      12.0000   0.000387319
      12.1000   0.000322002
      12.2000   0.000272036
      12.3000   0.000226179
      12.4000   0.000185814
      12.5000   0.000152057
      12.6000   0.000123999
      12.7000   0.000100775
      12.8000   8.16368e-05
      12.9000   6.59328e-05
      13.0000   5.30857e-05
      13.1000   4.26057e-05
      13.2000   3.40840e-05
      13.3000   2.71762e-05
      13.4000   2.15955e-05
      13.5000   1.71110e-05
      13.6000   1.35762e-05
      13.7000   1.07384e-05
      13.8000   8.46603e-06
      13.9000   6.65188e-06
      14.0000   5.20764e-06
      14.1000   4.06130e-06
      14.2000   3.15437e-06
      14.3000   2.43951e-06
      14.4000   1.87834e-06
      14.5000   1.44573e-06
      14.6000   1.11588e-06
      14.7000   8.57223e-07
      14.8000   6.55162e-07
      14.9000   4.97983e-07
      15.0000   3.76314e-07
      15.1000   2.82628e-07
      15.2000   2.14243e-07
      15.3000   1.61828e-07
      15.4000   1.21371e-07
      15.5000   9.03530e-08
      15.6000   6.67448e-08
      15.7000   4.94966e-08
      15.8000   3.69329e-08
      15.9000   2.73121e-08
      16.0000   2.00162e-08
      16.1000   1.45382e-08
      16.2000   1.07263e-08
      16.3000   7.89300e-09
      16.4000   5.73908e-09
      16.5000   4.12391e-09
      16.6000   2.98342e-09
      16.7000   2.17685e-09
      16.8000   1.56397e-09
      16.9000   1.10706e-09
      17.0000   7.91680e-10
      17.1000   5.70504e-10
      17.2000   4.03339e-10
      17.3000   2.80174e-10
      17.4000   2.01023e-10
      17.5000   1.43352e-10
      17.6000   1.00501e-10
      17.7000   7.06741e-11
      17.8000   5.13184e-11
      17.9000   3.64158e-11
      18.0000   2.52577e-11
      18.1000   1.82010e-11
      18.2000   1.27857e-11
      18.3000   8.69618e-12
      18.4000   6.04585e-12
      18.5000   4.14388e-12
      18.6000   2.72237e-12
      18.7000   1.81892e-12
      18.8000   1.21279e-12
      18.9000   7.72873e-13
      19.0000   5.10756e-13
      19.1000   3.36585e-13
      19.2000   2.11283e-13
      19.3000   1.40280e-13
      19.4000   9.14882e-14
      19.5000   5.67518e-14
      19.6000   3.82984e-14
      19.7000   2.46697e-14
      19.8000   1.53057e-14
      19.9000   1.03882e-14
      20.0000   6.55305e-15
      20.1000   4.19540e-15
      20.2000   2.75121e-15
      20.3000   1.67868e-15
      20.4000   1.10970e-15
      20.5000   6.97691e-16
      20.6000   4.25176e-16
      20.7000   2.80260e-16
      20.8000   1.67985e-16
      20.9000   1.08147e-16
      21.0000   6.69707e-17
      21.1000   3.97337e-17
      21.2000   2.58799e-17
      21.3000   1.50442e-17
      21.4000   9.65330e-18
      21.5000   5.78389e-18
      21.6000   3.45435e-18
      21.7000   2.16376e-18
      21.8000   1.20085e-18
      21.9000   7.88081e-19
      22.0000   4.48298e-19
      22.1000   2.78631e-19
      22.2000   1.63199e-19
      22.3000   9.47673e-20
      22.4000   5.72825e-20
      22.5000   2.96963e-20
      22.6000   1.80087e-20
      22.7000   8.42292e-21
      22.8000   6.34607e-21
      22.9000   4.65720e-21
      23.0000   3.61697e-21
      23.1000   2.61701e-21
      23.2000   1.66543e-21
      23.3000   1.04679e-21
      23.4000   5.94598e-22
      23.5000   3.68601e-22
      23.6000   1.97917e-22
      23.7000   1.26819e-22
      23.8000   6.51947e-23
      23.9000   4.25728e-23
      24.0000   2.19248e-23
      24.1000   1.40226e-23
      24.2000   7.21836e-24
      24.3000   4.53480e-24
      24.4000   2.33817e-24
      24.5000   1.44782e-24
      24.6000   7.47852e-25
      24.7000   4.57549e-25
      24.8000   2.36055e-25
      24.9000   1.43691e-25
      25.0000   7.41908e-26
      25.1000   4.49336e-26
      25.2000   2.29785e-26
      25.3000   1.39328e-26
      25.4000   7.05036e-27
      25.5000   4.28643e-27
      25.6000   2.12671e-27
      25.7000   1.30226e-27
      25.8000   6.31072e-28
      25.9000   3.90458e-28
      26.0000   1.83790e-28
      26.1000   1.15284e-28
      26.2000   5.24984e-29
      26.3000   3.34718e-29
      26.4000   1.46891e-29
      26.5000   9.53898e-30
      26.6000   4.41732e-30
      26.7000   2.66345e-30
      26.8000   1.31394e-30
      26.9000   7.27804e-31
      27.0000   3.81565e-31
      27.1000   1.94299e-31
      27.2000   1.07816e-31
      27.3000   5.05942e-32
      27.4000   2.96851e-32
      27.5000   1.29642e-32
      27.6000   7.96500e-33
      27.7000   3.20890e-33
      27.8000   2.05805e-33
      27.9000   9.13555e-34
      28.0000   5.13439e-34
      28.1000   2.59136e-34
      28.2000   1.24676e-34
      28.3000   7.00110e-35
      28.4000   3.01928e-35
      28.5000   1.83137e-35
      28.6000   7.14972e-36
      28.7000   4.66626e-36
      28.8000   2.19684e-36
      28.9000   1.21448e-36
      29.0000   6.57229e-37
      29.1000   3.04350e-37
      29.2000   1.81993e-37
      29.3000   7.35329e-38
      29.4000   4.73941e-38
      29.5000   2.14062e-38
      29.6000   1.17082e-38
      29.7000   6.31213e-39
      29.8000   2.75871e-39
      29.9000   1.67007e-39
      30.0000   6.22088e-40
      30.1000   4.08798e-40
      30.2000   1.96740e-40
      30.3000   9.43662e-41
      30.4000   5.46562e-41
      30.5000   2.18210e-41
      30.6000   1.38953e-41
      30.7000   6.01998e-42
      30.8000   3.10808e-42
      30.9000   1.70258e-42
      31.0000   6.58610e-43
      31.1000   4.11982e-43
      31.2000   1.66755e-43
      31.3000   9.24857e-44
      31.4000   4.48416e-44
      31.5000   1.96182e-44
      31.6000   9.80909e-45
      31.7000   2.80260e-45
      31.8000   2.80260e-45
      31.9000   2.80260e-45
      32.0000       0.00000
      32.1000       0.00000
      32.2000       0.00000
      32.3000       0.00000
      32.4000       0.00000
      32.5000       0.00000
      32.6000       0.00000
      32.7000       0.00000
      32.8000       0.00000
      32.9000       0.00000
      33.0000       0.00000
      33.1000       0.00000
      33.2000       0.00000
      33.3000       0.00000
      33.4000       0.00000
      33.5000       0.00000
      33.6000       0.00000
      33.7000       0.00000
      33.8000       0.00000
      33.9000       0.00000
      34.0000       0.00000
      34.1000       0.00000
      34.2000       0.00000
      34.3000       0.00000
      34.4000       0.00000
      34.5000       0.00000
      34.6000       0.00000
      34.7000       0.00000
      34.8000       0.00000
      34.9000       0.00000
      35.0000       0.00000
      35.1000       0.00000
      35.2000       0.00000
      35.3000       0.00000
      35.4000       0.00000
      35.5000       0.00000
      35.6000       0.00000
      35.7000       0.00000
      35.8000       0.00000
      35.9000       0.00000
      36.0000       0.00000
      36.1000       0.00000
      36.2000       0.00000
      36.3000       0.00000
      36.4000       0.00000
      36.5000       0.00000
      36.6000       0.00000
      36.7000       0.00000
      36.8000       0.00000
      36.9000       0.00000
      37.0000       0.00000
      37.1000       0.00000
      37.2000       0.00000
      37.3000       0.00000
      37.4000       0.00000
      37.5000       0.00000
      37.6000       0.00000
      37.7000       0.00000
      37.8000       0.00000
      37.9000       0.00000
      38.0000       0.00000
      38.1000       0.00000
      38.2000       0.00000
      38.3000       0.00000
      38.4000       0.00000
      38.5000       0.00000
      38.6000       0.00000
      38.7000       0.00000
      38.8000       0.00000
      38.9000       0.00000
      39.0000       0.00000
      39.1000       0.00000
      39.2000       0.00000
      39.3000       0.00000
      39.4000       0.00000
      39.5000       0.00000
      39.6000       0.00000
      39.7000       0.00000
      39.8000       0.00000
      39.9000       0.00000
      40.0000       0.00000
      40.1000       0.00000
      40.2000       0.00000
      40.3000       0.00000
      40.4000       0.00000
      40.5000       0.00000
      40.6000       0.00000
      40.7000       0.00000
      40.8000       0.00000
      40.9000       0.00000
      41.0000       0.00000
      41.1000       0.00000
      41.2000       0.00000
      41.3000       0.00000
      41.4000       0.00000
      41.5000       0.00000
      41.6000       0.00000
      41.7000       0.00000
      41.8000       0.00000
      41.9000       0.00000
      42.0000       0.00000
      42.1000       0.00000
      42.2000       0.00000
      42.3000       0.00000
      42.4000       0.00000
      42.5000       0.00000
      42.6000       0.00000
      42.7000       0.00000
      42.8000       0.00000
      42.9000       0.00000
      43.0000       0.00000
      43.1000       0.00000
      43.2000       0.00000
      43.3000       0.00000
      43.4000       0.00000
      43.5000       0.00000
      43.6000       0.00000
      43.7000       0.00000
      43.8000       0.00000
      43.9000       0.00000
      44.0000       0.00000
      44.1000       0.00000
      44.2000       0.00000
      44.3000       0.00000
      44.4000       0.00000
      44.5000       0.00000
      44.6000       0.00000
      44.7000       0.00000
      44.8000       0.00000
      44.9000       0.00000
      45.0000       0.00000
      45.1000       0.00000
      45.2000       0.00000
      45.3000       0.00000
      45.4000       0.00000
      45.5000       0.00000
      45.6000       0.00000
      45.7000       0.00000
      45.8000       0.00000
      45.9000       0.00000
      46.0000       0.00000
      46.1000       0.00000
      46.2000       0.00000
      46.3000       0.00000
      46.4000       0.00000
      46.5000       0.00000
      46.6000       0.00000
      46.7000       0.00000
      46.8000       0.00000
      46.9000       0.00000
      47.0000       0.00000
      47.1000       0.00000
      47.2000       0.00000
      47.3000       0.00000
      47.4000       0.00000
      47.5000       0.00000
      47.6000       0.00000
      47.7000       0.00000
      47.8000       0.00000
      47.9000       0.00000
      48.0000       0.00000
      48.1000       0.00000
      48.2000       0.00000
      48.3000       0.00000
      48.4000       0.00000
      48.5000       0.00000
      48.6000       0.00000
      48.7000       0.00000
      48.8000       0.00000
      48.9000       0.00000
      49.0000       0.00000
      49.1000       0.00000
      49.2000       0.00000
      49.3000       0.00000
      49.4000       0.00000
      49.5000       0.00000
      49.6000       0.00000
      49.7000       0.00000
      49.8000       0.00000
      49.9000       0.00000
      50.0000       0.00000
      50.1000       0.00000
      50.2000       0.00000
      50.3000       0.00000
      50.4000       0.00000
      50.5000       0.00000
      50.6000       0.00000
      50.7000       0.00000
      50.8000       0.00000
      50.9000       0.00000
      51.0000       0.00000
      51.1000       0.00000
      51.2000       0.00000
      51.3000       0.00000
      51.4000       0.00000
      51.5000       0.00000
      51.6000       0.00000
      51.7000       0.00000
      51.8000       0.00000
      51.9000       0.00000
      52.0000       0.00000
      52.1000       0.00000
      52.2000       0.00000
      52.3000       0.00000
      52.4000       0.00000
      52.5000       0.00000
      52.6000       0.00000
      52.7000       0.00000
      52.8000       0.00000
      52.9000       0.00000
      53.0000       0.00000
      53.1000       0.00000
      53.2000       0.00000
      53.3000       0.00000
      53.4000       0.00000
      53.5000       0.00000
      53.6000       0.00000
      53.7000       0.00000
      53.8000       0.00000
      53.9000       0.00000
      54.0000       0.00000
      54.1000       0.00000
      54.2000       0.00000
      54.3000       0.00000
      54.4000       0.00000
      54.5000       0.00000
      54.6000       0.00000
      54.7000       0.00000
      54.8000       0.00000
      54.9000       0.00000
      55.0000       0.00000
      55.1000       0.00000
      55.2000       0.00000
      55.3000       0.00000
      55.4000       0.00000
      55.5000       0.00000
      55.6000       0.00000
      55.7000       0.00000
      55.8000       0.00000
      55.9000       0.00000
      56.0000       0.00000
      56.1000       0.00000
      56.2000       0.00000
      56.3000       0.00000
      56.4000       0.00000
      56.5000       0.00000
      56.6000       0.00000
      56.7000       0.00000
      56.8000       0.00000
      56.9000       0.00000
      57.0000       0.00000
      57.1000       0.00000
      57.2000       0.00000
      57.3000       0.00000
      57.4000       0.00000
      57.5000       0.00000
      57.6000       0.00000
      57.7000       0.00000
      57.8000       0.00000
      57.9000       0.00000
      58.0000       0.00000
      58.1000       0.00000
      58.2000       0.00000
      58.3000       0.00000
      58.4000       0.00000
      58.5000       0.00000
      58.6000       0.00000
      58.7000       0.00000
      58.8000       0.00000
      58.9000       0.00000
      59.0000       0.00000
      59.1000       0.00000
      59.2000       0.00000
      59.3000       0.00000
      59.4000       0.00000
      59.5000       0.00000
      59.6000       0.00000
      59.7000       0.00000
      59.8000       0.00000
      59.9000       0.00000
      60.0000       0.00000
      60.1000       0.00000
      60.2000       0.00000
      60.3000       0.00000
      60.4000       0.00000
      60.5000       0.00000
      60.6000       0.00000
      60.7000       0.00000
      60.8000       0.00000
      60.9000       0.00000
      61.0000       0.00000
      61.1000       0.00000
      61.2000       0.00000
      61.3000       0.00000
      61.4000       0.00000
      61.5000       0.00000
      61.6000       0.00000
      61.7000       0.00000
      61.8000       0.00000
      61.9000       0.00000
      62.0000       0.00000
      62.1000       0.00000
      62.2000       0.00000
      62.3000       0.00000
      62.4000       0.00000
      62.5000       0.00000
      62.6000       0.00000
      62.7000       0.00000
      62.8000       0.00000
      62.9000       0.00000
      63.0000       0.00000
      63.1000       0.00000
      63.2000       0.00000
      63.3000       0.00000
      63.4000       0.00000
      63.5000       0.00000
      63.6000       0.00000
      63.7000       0.00000
      63.8000       0.00000
      63.9000       0.00000
      64.0000       0.00000
      64.1000       0.00000
      64.2000       0.00000
      64.3000       0.00000
      64.4000       0.00000
      64.5000       0.00000
      64.6000       0.00000
      64.7000       0.00000
      64.8000       0.00000
      64.9000       0.00000
      65.0000       0.00000
      65.1000       0.00000
      65.2000       0.00000
      65.3000       0.00000
      65.4000       0.00000
      65.5000       0.00000
      65.6000       0.00000
      65.7000       0.00000
      65.8000       0.00000
      65.9000       0.00000
      66.0000       0.00000
      66.1000       0.00000
      66.2000       0.00000
      66.3000       0.00000
      66.4000       0.00000
      66.5000       0.00000
      66.6000       0.00000
      66.7000       0.00000
      66.8000       0.00000
      66.9000       0.00000
      67.0000       0.00000
      67.1000       0.00000
      67.2000       0.00000
      67.3000       0.00000
      67.4000       0.00000
      67.5000       0.00000
      67.6000       0.00000
      67.7000       0.00000
      67.8000       0.00000
      67.9000       0.00000
      68.0000       0.00000
      68.1000       0.00000
      68.2000       0.00000
      68.3000       0.00000
      68.4000       0.00000
      68.5000       0.00000
      68.6000       0.00000
      68.7000       0.00000
      68.8000       0.00000
      68.9000       0.00000
      69.0000       0.00000
      69.1000       0.00000
      69.2000       0.00000
      69.3000       0.00000
      69.4000       0.00000
      69.5000       0.00000
      69.6000       0.00000
      69.7000       0.00000
      69.8000       0.00000
      69.9000       0.00000
      70.0000       0.00000
      70.1000       0.00000
      70.2000       0.00000
      70.3000       0.00000
      70.4000       0.00000
      70.5000       0.00000
      70.6000       0.00000
      70.7000       0.00000
      70.8000       0.00000
      70.9000       0.00000
      71.0000       0.00000
      71.1000       0.00000
      71.2000       0.00000
      71.3000       0.00000
      71.4000       0.00000
      71.5000       0.00000
      71.6000       0.00000
      71.7000       0.00000
      71.8000       0.00000
      71.9000       0.00000
      72.0000       0.00000
      72.1000       0.00000
      72.2000       0.00000
      72.3000       0.00000
      72.4000       0.00000
      72.5000       0.00000
      72.6000       0.00000
      72.7000       0.00000
      72.8000       0.00000
      72.9000       0.00000
      73.0000       0.00000
      73.1000       0.00000
      73.2000       0.00000
      73.3000       0.00000
      73.4000       0.00000
      73.5000       0.00000
      73.6000       0.00000
      73.7000       0.00000
      73.8000       0.00000
      73.9000       0.00000
      74.0000       0.00000
      74.1000       0.00000
      74.2000       0.00000
      74.3000       0.00000
      74.4000       0.00000
      74.5000       0.00000
      74.6000       0.00000
      74.7000       0.00000
      74.8000       0.00000
      74.9000       0.00000
      75.0000       0.00000
      75.1000       0.00000
      75.2000       0.00000
      75.3000       0.00000
      75.4000       0.00000
      75.5000       0.00000
      75.6000       0.00000
      75.7000       0.00000
      75.8000       0.00000
      75.9000       0.00000
      76.0000       0.00000
      76.1000       0.00000
      76.2000       0.00000
      76.3000       0.00000
      76.4000       0.00000
      76.5000       0.00000
      76.6000       0.00000
      76.7000       0.00000
      76.8000       0.00000
      76.9000       0.00000
      77.0000       0.00000
      77.1000       0.00000
      77.2000       0.00000
      77.3000       0.00000
      77.4000       0.00000
      77.5000       0.00000
      77.6000       0.00000
      77.7000       0.00000
      77.8000       0.00000
      77.9000       0.00000
      78.0000       0.00000
      78.1000       0.00000
      78.2000       0.00000
      78.3000       0.00000
      78.4000       0.00000
      78.5000       0.00000
      78.6000       0.00000
      78.7000       0.00000
      78.8000       0.00000
      78.9000       0.00000
      79.0000       0.00000
      79.1000       0.00000
      79.2000       0.00000
      79.3000       0.00000
      79.4000       0.00000
      79.5000       0.00000
      79.6000       0.00000
      79.7000       0.00000
      79.8000       0.00000
      79.9000       0.00000
      80.0000       0.00000
      80.1000       0.00000
      80.2000       0.00000
      80.3000       0.00000
      80.4000       0.00000
      80.5000       0.00000
      80.6000       0.00000
      80.7000       0.00000
      80.8000       0.00000
      80.9000       0.00000
      81.0000       0.00000
      81.1000       0.00000
      81.2000       0.00000
      81.3000       0.00000
      81.4000       0.00000
      81.5000       0.00000
      81.6000       0.00000
      81.7000       0.00000
      81.8000       0.00000
      81.9000       0.00000
      82.0000       0.00000
      82.1000       0.00000
      82.2000       0.00000
      82.3000       0.00000
      82.4000       0.00000
      82.5000       0.00000
      82.6000       0.00000
      82.7000       0.00000
      82.8000       0.00000
      82.9000       0.00000
      83.0000       0.00000
      83.1000       0.00000
      83.2000       0.00000
      83.3000       0.00000
      83.4000       0.00000
      83.5000       0.00000
      83.6000       0.00000
      83.7000       0.00000
      83.8000       0.00000
      83.9000       0.00000
      84.0000       0.00000
      84.1000       0.00000
      84.2000       0.00000
      84.3000       0.00000
      84.4000       0.00000
      84.5000       0.00000
      84.6000       0.00000
      84.7000       0.00000
      84.8000       0.00000
      84.9000       0.00000
      85.0000       0.00000
      85.1000       0.00000
      85.2000       0.00000
      85.3000       0.00000
      85.4000       0.00000
      85.5000       0.00000
      85.6000       0.00000
      85.7000       0.00000
      85.8000       0.00000
      85.9000       0.00000
      86.0000       0.00000
      86.1000       0.00000
      86.2000       0.00000
      86.3000       0.00000
      86.4000       0.00000
      86.5000       0.00000
      86.6000       0.00000
      86.7000       0.00000
      86.8000       0.00000
      86.9000       0.00000
      87.0000       0.00000
      87.1000       0.00000
      87.2000       0.00000
      87.3000       0.00000
      87.4000       0.00000
      87.5000       0.00000
      87.6000       0.00000
      87.7000       0.00000
      87.8000       0.00000
      87.9000       0.00000
      88.0000       0.00000
      88.1000       0.00000
      88.2000       0.00000
      88.3000       0.00000
      88.4000       0.00000
      88.5000       0.00000
      88.6000       0.00000
      88.7000       0.00000
      88.8000       0.00000
      88.9000       0.00000
      89.0000       0.00000
      89.1000       0.00000
      89.2000       0.00000
      89.3000       0.00000
      89.4000       0.00000
      89.5000       0.00000
      89.6000       0.00000
      89.7000       0.00000
      89.8000       0.00000
      89.9000       0.00000
      90.0000       0.00000
      90.1000       0.00000
      90.2000       0.00000
      90.3000       0.00000
      90.4000       0.00000
      90.5000       0.00000
      90.6000       0.00000
      90.7000       0.00000
      90.8000       0.00000
      90.9000       0.00000
      91.0000       0.00000
      91.1000       0.00000
      91.2000       0.00000
      91.3000       0.00000
      91.4000       0.00000
      91.5000       0.00000
      91.6000       0.00000
      91.7000       0.00000
      91.8000       0.00000
      91.9000       0.00000
      92.0000       0.00000
      92.1000       0.00000
      92.2000       0.00000
      92.3000       0.00000
      92.4000       0.00000
      92.5000       0.00000
      92.6000       0.00000
      92.7000       0.00000
      92.8000       0.00000
      92.9000       0.00000
      93.0000       0.00000
      93.1000       0.00000
      93.2000       0.00000
      93.3000       0.00000
      93.4000       0.00000
      93.5000       0.00000
      93.6000       0.00000
      93.7000       0.00000
      93.8000       0.00000
      93.9000       0.00000
      94.0000       0.00000
      94.1000       0.00000
      94.2000       0.00000
      94.3000       0.00000
      94.4000       0.00000
      94.5000       0.00000
      94.6000       0.00000
      94.7000       0.00000
      94.8000       0.00000
      94.9000       0.00000
      95.0000       0.00000
      95.1000       0.00000
      95.2000       0.00000
      95.3000       0.00000
      95.4000       0.00000
      95.5000       0.00000
      95.6000       0.00000
      95.7000       0.00000
      95.8000       0.00000
      95.9000       0.00000
      96.0000       0.00000
      96.1000       0.00000
      96.2000       0.00000
      96.3000       0.00000
      96.4000       0.00000
      96.5000       0.00000
      96.6000       0.00000
      96.7000       0.00000
      96.8000       0.00000
      96.9000       0.00000
      97.0000       0.00000
      97.1000       0.00000
      97.2000       0.00000
      97.3000       0.00000
      97.4000       0.00000
      97.5000       0.00000
      97.6000       0.00000
      97.7000       0.00000
      97.8000       0.00000
      97.9000       0.00000
      98.0000       0.00000
      98.1000       0.00000
      98.2000       0.00000
      98.3000       0.00000
      98.4000       0.00000
      98.5000       0.00000
      98.6000       0.00000
      98.7000       0.00000
      98.8000       0.00000
      98.9000       0.00000
      99.0000       0.00000
      99.1000       0.00000
      99.2000       0.00000
      99.3000       0.00000
      99.4000       0.00000
      99.5000       0.00000
      99.6000       0.00000
      99.7000       0.00000
      99.8000       0.00000
      99.9000       0.00000
      100.000       0.00000
      100.100       0.00000
      100.200       0.00000
      100.300       0.00000
      100.400       0.00000
      100.500       0.00000
      100.600       0.00000
      100.700       0.00000
      100.800       0.00000
      100.900       0.00000
      101.000       0.00000
      101.100       0.00000
      101.200       0.00000
      101.300       0.00000
      101.400       0.00000
      101.500       0.00000
      101.600       0.00000
      101.700       0.00000
      101.800       0.00000
      101.900       0.00000
      102.000       0.00000
      102.100       0.00000
      102.200       0.00000
      102.300       0.00000
      102.400       0.00000
      102.500       0.00000
      102.600       0.00000
      102.700       0.00000
      102.800       0.00000
      102.900       0.00000
      103.000       0.00000
      103.100       0.00000
      103.200       0.00000
      103.300       0.00000
      103.400       0.00000
      103.500       0.00000
      103.600       0.00000
      103.700       0.00000
      103.800       0.00000
      103.900       0.00000
      104.000       0.00000
      104.100       0.00000
      104.200       0.00000
      104.300       0.00000
      104.400       0.00000
      104.500       0.00000
      104.600       0.00000
      104.700       0.00000
      104.800       0.00000
      104.900       0.00000
      105.000       0.00000
      105.100       0.00000
      105.200       0.00000
      105.300       0.00000
      105.400       0.00000
      105.500       0.00000
      105.600       0.00000
      105.700       0.00000
      105.800       0.00000
      105.900       0.00000
      106.000       0.00000
      106.100       0.00000
      106.200       0.00000
      106.300       0.00000
      106.400       0.00000
      106.500       0.00000
      106.600       0.00000
      106.700       0.00000
      106.800       0.00000
      106.900       0.00000
      107.000       0.00000
      107.100       0.00000
      107.200       0.00000
      107.300       0.00000
      107.400       0.00000
      107.500       0.00000
      107.600       0.00000
      107.700       0.00000
      107.800       0.00000
      107.900       0.00000
      108.000       0.00000
      108.100       0.00000
      108.200       0.00000
      108.300       0.00000
      108.400       0.00000
      108.500       0.00000
      108.600       0.00000
      108.700       0.00000
      108.800       0.00000
      108.900       0.00000
      109.000       0.00000
      109.100       0.00000
      109.200       0.00000
      109.300       0.00000
      109.400       0.00000
      109.500       0.00000
      109.600       0.00000
      109.700       0.00000
      109.800       0.00000
      109.900       0.00000
      110.000       0.00000
      110.100       0.00000
      110.200       0.00000
      110.300       0.00000
      110.400       0.00000
      110.500       0.00000
      110.600       0.00000
      110.700       0.00000
      110.800       0.00000
      110.900       0.00000
      111.000       0.00000
      111.100       0.00000
      111.200       0.00000
      111.300       0.00000
      111.400       0.00000
      111.500       0.00000
      111.600       0.00000
      111.700       0.00000
      111.800       0.00000
      111.900       0.00000
      112.000       0.00000
      112.100       0.00000
      112.200       0.00000
      112.300       0.00000
      112.400       0.00000
      112.500       0.00000
      112.600       0.00000
      112.700       0.00000
      112.800       0.00000
      112.900       0.00000
      113.000       0.00000
      113.100       0.00000
      113.200       0.00000
      113.300       0.00000
      113.400       0.00000
      113.500       0.00000
      113.600       0.00000
      113.700       0.00000
      113.800       0.00000
      113.900       0.00000
      114.000       0.00000
      114.100       0.00000
      114.200       0.00000
      114.300       0.00000
      114.400       0.00000
      114.500       0.00000
      114.600       0.00000
      114.700       0.00000
      114.800       0.00000
      114.900       0.00000
      115.000       0.00000
      115.100       0.00000
      115.200       0.00000
      115.300       0.00000
      115.400       0.00000
      115.500       0.00000
      115.600       0.00000
      115.700       0.00000
      115.800       0.00000
      115.900       0.00000
      116.000       0.00000
      116.100       0.00000
      116.200       0.00000
      116.300       0.00000
      116.400       0.00000
      116.500       0.00000
      116.600       0.00000
      116.700       0.00000
      116.800       0.00000
      116.900       0.00000
      117.000       0.00000
      117.100       0.00000
      117.200       0.00000
      117.300       0.00000
      117.400       0.00000
      117.500       0.00000
      117.600       0.00000
      117.700       0.00000
      117.800       0.00000
      117.900       0.00000
      118.000       0.00000
      118.100       0.00000
      118.200       0.00000
      118.300       0.00000
      118.400       0.00000
      118.500       0.00000
      118.600       0.00000
      118.700       0.00000
      118.800       0.00000
      118.900       0.00000
      119.000       0.00000
      119.100       0.00000
      119.200       0.00000
      119.300       0.00000
      119.400       0.00000
      119.500       0.00000
      119.600       0.00000
      119.700       0.00000
      119.800       0.00000
      119.900       0.00000
      120.000       0.00000
      120.100       0.00000
      120.200       0.00000
      120.300       0.00000
      120.400       0.00000
      120.500       0.00000
      120.600       0.00000
      120.700       0.00000
      120.800       0.00000
      120.900       0.00000
      121.000       0.00000
      121.100       0.00000
      121.200       0.00000
      121.300       0.00000
      121.400       0.00000
      121.500       0.00000
      121.600       0.00000
      121.700       0.00000
      121.800       0.00000
      121.900       0.00000
      122.000       0.00000
      122.100       0.00000
      122.200       0.00000
      122.300       0.00000
      122.400       0.00000
      122.500       0.00000
      122.600       0.00000
      122.700       0.00000
      122.800       0.00000
      122.900       0.00000
      123.000       0.00000
      123.100       0.00000
      123.200       0.00000
      123.300       0.00000
      123.400       0.00000
      123.500       0.00000
      123.600       0.00000
      123.700       0.00000
      123.800       0.00000
      123.900       0.00000
      124.000       0.00000
      124.100       0.00000
      124.200       0.00000
      124.300       0.00000
      124.400       0.00000
      124.500       0.00000
      124.600       0.00000
      124.700       0.00000
      124.800       0.00000
      124.900       0.00000
      125.000       0.00000
      125.100       0.00000
      125.200       0.00000
      125.300       0.00000
      125.400       0.00000
      125.500       0.00000
      125.600       0.00000
      125.700       0.00000
      125.800       0.00000
      125.900       0.00000
      126.000       0.00000
      126.100       0.00000
      126.200       0.00000
      126.300       0.00000
      126.400       0.00000
      126.500       0.00000
      126.600       0.00000
      126.700       0.00000
      126.800       0.00000
      126.900       0.00000
      127.000       0.00000
      127.100       0.00000
      127.200       0.00000
      127.300       0.00000
      127.400       0.00000
      127.500       0.00000
      127.600       0.00000
      127.700       0.00000
      127.800       0.00000
      127.900       0.00000
      128.000       0.00000
      128.100       0.00000
      128.200       0.00000
      128.300       0.00000
      128.400       0.00000
      128.500       0.00000
      128.600       0.00000
      128.700       0.00000
      128.800       0.00000
      128.900       0.00000
      129.000       0.00000
      129.100       0.00000
      129.200       0.00000
      129.300       0.00000
      129.400       0.00000
      129.500       0.00000
      129.600       0.00000
      129.700       0.00000
      129.800       0.00000
      129.900       0.00000
      130.000       0.00000
      130.100       0.00000
      130.200       0.00000
      130.300       0.00000
      130.400       0.00000
      130.500       0.00000
      130.600       0.00000
      130.700       0.00000
      130.800       0.00000
      130.900       0.00000
      131.000       0.00000
      131.100       0.00000
      131.200       0.00000
      131.300       0.00000
      131.400       0.00000
      131.500       0.00000
      131.600       0.00000
      131.700       0.00000
      131.800       0.00000
      131.900       0.00000
      132.000       0.00000
      132.100       0.00000
      132.200       0.00000
      132.300       0.00000
      132.400       0.00000
      132.500       0.00000
      132.600       0.00000
      132.700       0.00000
      132.800       0.00000
      132.900       0.00000
      133.000       0.00000
      133.100       0.00000
      133.200       0.00000
      133.300       0.00000
      133.400       0.00000
      133.500       0.00000
      133.600       0.00000
      133.700       0.00000
      133.800       0.00000
      133.900       0.00000
      134.000       0.00000
      134.100       0.00000
      134.200       0.00000
      134.300       0.00000
      134.400       0.00000
      134.500       0.00000
      134.600       0.00000
      134.700       0.00000
      134.800       0.00000
      134.900       0.00000
      135.000       0.00000
      135.100       0.00000
      135.200       0.00000
      135.300       0.00000
      135.400       0.00000
      135.500       0.00000
      135.600       0.00000
      135.700       0.00000
      135.800       0.00000
      135.900       0.00000
      136.000       0.00000
      136.100       0.00000
      136.200       0.00000
      136.300       0.00000
      136.400       0.00000
      136.500       0.00000
      136.600       0.00000
      136.700       0.00000
      136.800       0.00000
      136.900       0.00000
      137.000       0.00000
      137.100       0.00000
      137.200       0.00000
      137.300       0.00000
      137.400       0.00000
      137.500       0.00000
      137.600       0.00000
      137.700       0.00000
      137.800       0.00000
      137.900       0.00000
      138.000       0.00000
      138.100       0.00000
      138.200       0.00000
      138.300       0.00000
      138.400       0.00000
      138.500       0.00000
      138.600       0.00000
      138.700       0.00000
      138.800       0.00000
      138.900       0.00000
      139.000       0.00000
      139.100       0.00000
      139.200       0.00000
      139.300       0.00000
      139.400       0.00000
      139.500       0.00000
      139.600       0.00000
      139.700       0.00000
      139.800       0.00000
      139.900       0.00000
      140.000       0.00000
      140.100       0.00000
      140.200       0.00000
      140.300       0.00000
      140.400       0.00000
      140.500       0.00000
      140.600       0.00000
      140.700       0.00000
      140.800       0.00000
      140.900       0.00000
      141.000       0.00000
      141.100       0.00000
      141.200       0.00000
      141.300       0.00000
      141.400       0.00000
      141.500       0.00000
      141.600       0.00000
      141.700       0.00000
      141.800       0.00000
      141.900       0.00000
      142.000       0.00000
      142.100       0.00000
      142.200       0.00000
      142.300       0.00000
      142.400       0.00000
      142.500       0.00000
      142.600       0.00000
      142.700       0.00000
      142.800       0.00000
      142.900       0.00000
      143.000       0.00000
      143.100       0.00000
      143.200       0.00000
      143.300       0.00000
      143.400       0.00000
      143.500       0.00000
      143.600       0.00000
      143.700       0.00000
      143.800       0.00000
      143.900       0.00000
      144.000       0.00000
      144.100       0.00000
      144.200       0.00000
      144.300       0.00000
      144.400       0.00000
      144.500       0.00000
      144.600       0.00000
      144.700       0.00000
      144.800       0.00000
      144.900       0.00000
      145.000       0.00000
      145.100       0.00000
      145.200       0.00000
      145.300       0.00000
      145.400       0.00000
      145.500       0.00000
      145.600       0.00000
      145.700       0.00000
      145.800       0.00000
      145.900       0.00000
      146.000       0.00000
      146.100       0.00000
      146.200       0.00000
      146.300       0.00000
      146.400       0.00000
      146.500       0.00000
      146.600       0.00000
      146.700       0.00000
      146.800       0.00000
      146.900       0.00000
      147.000       0.00000
      147.100       0.00000
      147.200       0.00000
      147.300       0.00000
      147.400       0.00000
      147.500       0.00000
      147.600       0.00000
      147.700       0.00000
      147.800       0.00000
      147.900       0.00000
      148.000       0.00000
      148.100       0.00000
      148.200       0.00000
      148.300       0.00000
      148.400       0.00000
      148.500       0.00000
      148.600       0.00000
      148.700       0.00000
      148.800       0.00000
      148.900       0.00000
      149.000       0.00000
      149.100       0.00000
      149.200       0.00000
      149.300       0.00000
      149.400       0.00000
      149.500       0.00000
      149.600       0.00000
      149.700       0.00000
      149.800       0.00000
      149.900       0.00000
      150.000       0.00000
      150.100       0.00000
      150.200       0.00000
      150.300       0.00000
      150.400       0.00000
      150.500       0.00000
      150.600       0.00000
      150.700       0.00000
      150.800       0.00000
      150.900       0.00000
      151.000       0.00000
      151.100       0.00000
      151.200       0.00000
      151.300       0.00000
      151.400       0.00000
      151.500       0.00000
      151.600       0.00000
      151.700       0.00000
      151.800       0.00000
      151.900       0.00000
      152.000       0.00000
      152.100       0.00000
      152.200       0.00000
      152.300       0.00000
      152.400       0.00000
      152.500       0.00000
      152.600       0.00000
      152.700       0.00000
      152.800       0.00000
      152.900       0.00000
      153.000       0.00000
      153.100       0.00000
      153.200       0.00000
      153.300       0.00000
      153.400       0.00000
      153.500       0.00000
      153.600       0.00000
      153.700       0.00000
      153.800       0.00000
      153.900       0.00000
      154.000       0.00000
      154.100       0.00000
      154.200       0.00000
      154.300       0.00000
      154.400       0.00000
      154.500       0.00000
      154.600       0.00000
      154.700       0.00000
      154.800       0.00000
      154.900       0.00000
      155.000       0.00000
      155.100       0.00000
      155.200       0.00000
      155.300       0.00000
      155.400       0.00000
      155.500       0.00000
      155.600       0.00000
      155.700       0.00000
      155.800       0.00000
      155.900       0.00000
      156.000       0.00000
      156.100       0.00000
      156.200       0.00000
      156.300       0.00000
      156.400       0.00000
      156.500       0.00000
      156.600       0.00000
      156.700       0.00000
      156.800       0.00000
      156.900       0.00000
      157.000       0.00000
      157.100       0.00000
      157.200       0.00000
      157.300       0.00000
      157.400       0.00000
      157.500       0.00000
      157.600       0.00000
      157.700       0.00000
      157.800       0.00000
      157.900       0.00000
      158.000       0.00000
      158.100       0.00000
      158.200       0.00000
      158.300       0.00000
      158.400       0.00000
      158.500       0.00000
      158.600       0.00000
      158.700       0.00000
      158.800       0.00000
      158.900       0.00000
      159.000       0.00000
      159.100       0.00000
      159.200       0.00000
      159.300       0.00000
      159.400       0.00000
      159.500       0.00000
      159.600       0.00000
      159.700       0.00000
      159.800       0.00000
      159.900       0.00000
      160.000       0.00000
      160.100       0.00000
      160.200       0.00000
      160.300       0.00000
      160.400       0.00000
      160.500       0.00000
      160.600       0.00000
      160.700       0.00000
      160.800       0.00000
      160.900       0.00000
      161.000       0.00000
      161.100       0.00000
      161.200       0.00000
      161.300       0.00000
      161.400       0.00000
      161.500       0.00000
      161.600       0.00000
      161.700       0.00000
      161.800       0.00000
      161.900       0.00000
      162.000       0.00000
      162.100       0.00000
      162.200       0.00000
      162.300       0.00000
      162.400       0.00000
      162.500       0.00000
      162.600       0.00000
      162.700       0.00000
      162.800       0.00000
      162.900       0.00000
      163.000       0.00000
      163.100       0.00000
      163.200       0.00000
      163.300       0.00000
      163.400       0.00000
      163.500       0.00000
      163.600       0.00000
      163.700       0.00000
      163.800       0.00000
      163.900       0.00000
      164.000       0.00000
      164.100       0.00000
      164.200       0.00000
      164.300       0.00000
      164.400       0.00000
      164.500       0.00000
      164.600       0.00000
      164.700       0.00000
      164.800       0.00000
      164.900       0.00000
      165.000       0.00000
      165.100       0.00000
      165.200       0.00000
      165.300       0.00000
      165.400       0.00000
      165.500       0.00000
      165.600       0.00000
      165.700       0.00000
      165.800       0.00000
      165.900       0.00000
      166.000       0.00000
      166.100       0.00000
      166.200       0.00000
      166.300       0.00000
      166.400       0.00000
      166.500       0.00000
      166.600       0.00000
      166.700       0.00000
      166.800       0.00000
      166.900       0.00000
      167.000       0.00000
      167.100       0.00000
      167.200       0.00000
      167.300       0.00000
      167.400       0.00000
      167.500       0.00000
      167.600       0.00000
      167.700       0.00000
      167.800       0.00000
      167.900       0.00000
      168.000       0.00000
      168.100       0.00000
      168.200       0.00000
      168.300       0.00000
      168.400       0.00000
      168.500       0.00000
      168.600       0.00000
      168.700       0.00000
      168.800       0.00000
      168.900       0.00000
      169.000       0.00000
      169.100       0.00000
      169.200       0.00000
      169.300       0.00000
      169.400       0.00000
      169.500       0.00000
      169.600       0.00000
      169.700       0.00000
      169.800       0.00000
      169.900       0.00000
      170.000       0.00000
      170.100       0.00000
      170.200       0.00000
      170.300       0.00000
      170.400       0.00000
      170.500       0.00000
      170.600   5.98339e-40
      170.700   7.44246e-25
      170.800   9.96746e-21
      170.900   1.65584e-20
      171.000   1.69263e-20
      171.100   1.73008e-20
      171.200   1.76819e-20
      171.300   1.80701e-20
      171.400   1.84649e-20
      171.500   1.88664e-20
      171.600   1.92750e-20
      171.700   1.96913e-20
      171.800   2.01150e-20
      171.900   2.05462e-20
      172.000   2.09856e-20
      172.100   2.14340e-20
      172.200   2.18908e-20
      172.300   2.23558e-20
      172.400   2.28261e-20
      172.500   2.33046e-20
      172.600   2.37933e-20
      172.700   2.42916e-20
      172.800   2.47997e-20
      172.900   2.53188e-20
      173.000   2.58478e-20
      173.100   2.63873e-20
      173.200   2.69379e-20
      173.300   2.74997e-20
      173.400   2.80735e-20
      173.500   2.86584e-20
      173.600   2.92553e-20
      173.700   2.98642e-20
      173.800   3.04862e-20
      173.900   3.11195e-20
      174.000   3.17657e-20
      174.100   3.24261e-20
      174.200   3.30986e-20
      174.300   3.37837e-20
      174.400   3.44832e-20
      174.500   3.51957e-20
      174.600   3.59230e-20
      174.700   3.66641e-20
      174.800   3.74188e-20
      174.900   3.81882e-20
      175.000   3.89730e-20
      175.100   3.97713e-20
      175.200   4.05872e-20
      175.300   4.14173e-20
      175.400   4.22642e-20
      175.500   4.31266e-20
      175.600   4.40042e-20
      175.700   4.48988e-20
      175.800   4.58110e-20
      175.900   4.67394e-20
      176.000   4.76843e-20
      176.100   4.86472e-20
      176.200   4.96279e-20
      176.300   5.06275e-20
      176.400   5.16448e-20
      176.500   5.26805e-20
      176.600   5.37367e-20
      176.700   5.48113e-20
      176.800   5.59051e-20
      176.900   5.70187e-20
      177.000   5.81537e-20
      177.100   5.93095e-20
      177.200   6.04849e-20
      177.300   6.16813e-20
      177.400   6.29004e-20
      177.500   6.41411e-20
      177.600   6.54032e-20
      177.700   6.66875e-20
      177.800   6.79940e-20
      177.900   6.93249e-20
      178.000   7.06837e-20
      178.100   7.20651e-20
      178.200   7.34714e-20
      178.300   7.49036e-20
      178.400   7.63592e-20
      178.500   7.78401e-20
      178.600   7.93473e-20
      178.700   8.08826e-20
      178.800   8.24427e-20
      178.900   8.40287e-20
      179.000   8.56420e-20
      179.100   8.72842e-20
      179.200   8.89561e-20
      179.300   9.06552e-20
      179.400   9.23837e-20
      179.500   9.41429e-20
      179.600   9.59368e-20
      179.700   9.77583e-20
      179.800   9.96118e-20
      179.900   1.01498e-19
      180.000   1.03420e-19
      180.100   1.05373e-19
      180.200   1.07361e-19
      180.300   1.09383e-19
      180.400   1.11444e-19
      180.500   1.13541e-19
      180.600   1.15672e-19
      180.700   1.17842e-19
      180.800   1.20072e-19
      180.900   1.22381e-19
      181.000   1.24750e-19
      181.100   1.27158e-19
      181.200   1.29614e-19
      181.300   1.32117e-19
      181.400   1.34663e-19
      181.500   1.37254e-19
      181.600   1.39894e-19
      181.700   1.42585e-19
      181.800   1.45321e-19
      181.900   1.48107e-19
      182.000   1.50945e-19
      182.100   1.53832e-19
      182.200   1.56779e-19
      182.300   1.59775e-19
      182.400   1.62823e-19
      182.500   1.65926e-19
      182.600   1.69090e-19
      182.700   1.72305e-19
      182.800   1.75574e-19
      182.900   1.78905e-19
      183.000   1.82293e-19
      183.100   1.85740e-19
      183.200   1.89245e-19
      183.300   1.92814e-19
      183.400   1.96445e-19
      183.500   2.00138e-19
      183.600   2.03894e-19
      183.700   2.07841e-19
      183.800   2.12405e-19
      183.900   2.17399e-19
      184.000   2.22495e-19
      184.100   2.27713e-19
      184.200   2.33044e-19
      184.300   2.38498e-19
      184.400   2.44069e-19
      184.500   2.49757e-19
      184.600   2.55570e-19
      184.700   2.61513e-19
      184.800   2.67583e-19
      184.900   2.73781e-19
      185.000   2.80112e-19
      185.100   2.86584e-19
      185.200   2.93197e-19
      185.300   2.99944e-19
      185.400   3.06835e-19
      185.500   3.13871e-19
      185.600   3.21060e-19
      185.700   3.28409e-19
      185.800   3.35916e-19
      185.900   3.43577e-19
      186.000   3.51416e-19
      186.100   3.59409e-19
      186.200   3.67563e-19
      186.300   3.75888e-19
      186.400   3.84391e-19
      186.500   3.93072e-19
      186.600   4.01924e-19
      186.700   4.10950e-19
      186.800   4.20160e-19
      186.900   4.29564e-19
      187.000   4.39160e-19
      187.100   4.48936e-19
      187.200   4.58917e-19
      187.300   4.69120e-19
      187.400   4.79524e-19
      187.500   4.90131e-19
      187.600   5.00949e-19
      187.700   5.11982e-19
      187.800   5.23246e-19
      187.900   5.34732e-19
      188.000   5.46434e-19
      188.100   5.58365e-19
      188.200   5.70539e-19
      188.300   5.82960e-19
      188.400   5.95629e-19
      188.500   6.08542e-19
      188.600   6.21719e-19
      188.700   6.35186e-19
      188.800   6.48908e-19
      188.900   6.62895e-19
      189.000   6.77161e-19
      189.100   6.91726e-19
      189.200   7.06575e-19
      189.300   7.21708e-19
      189.400   7.37138e-19
      189.500   7.52879e-19
      189.600   7.68952e-19
      189.700   7.85321e-19
      189.800   8.02090e-19
      189.900   8.19226e-19
      190.000   8.36731e-19
      190.100   8.54565e-19
      190.200   8.72757e-19
      190.300   8.91305e-19
      190.400   9.10234e-19
      190.500   9.29538e-19
      190.600   9.49213e-19
      190.700   9.69277e-19
      190.800   9.89733e-19
      190.900   1.01059e-18
      191.000   1.03192e-18
      191.100   1.05366e-18
      191.200   1.07583e-18
      191.300   1.09843e-18
      191.400   1.12148e-18
      191.500   1.14499e-18
      191.600   1.16894e-18
      191.700   1.19336e-18
      191.800   1.21827e-18
      191.900   1.24364e-18
      192.000   1.26948e-18
      192.100   1.29587e-18
      192.200   1.32280e-18
      192.300   1.35024e-18
      192.400   1.37824e-18
      192.500   1.40677e-18
      192.600   1.43582e-18
      192.700   1.46542e-18
      192.800   1.49435e-18
      192.900   1.52064e-18
      193.000   1.54702e-18
      193.100   1.57386e-18
      193.200   1.60120e-18
      193.300   1.62894e-18
      193.400   1.65712e-18
      193.500   1.68575e-18
      193.600   1.71486e-18
      193.700   1.74444e-18
      193.800   1.77447e-18
      193.900   1.80496e-18
      194.000   1.83595e-18
      194.100   1.86753e-18
      194.200   1.89958e-18
      194.300   1.93214e-18
      194.400   1.96522e-18
      194.500   1.99885e-18
      194.600   2.03301e-18
      194.700   2.06767e-18
      194.800   2.10286e-18
      194.900   2.13863e-18
      195.000   2.17496e-18
      195.100   2.21199e-18
      195.200   2.24952e-18
      195.300   2.28762e-18
      195.400   2.32632e-18
      195.500   2.36563e-18
      195.600   2.40554e-18
      195.700   2.44602e-18
      195.800   2.48676e-18
      195.900   2.52555e-18
      196.000   2.47597e-18
      196.100   2.42623e-18
      196.200   2.37746e-18
      196.300   2.32965e-18
      196.400   2.28277e-18
      196.500   2.23679e-18
      196.600   2.19172e-18
      196.700   2.14752e-18
      196.800   2.10422e-18
      196.900   2.06182e-18
      197.000   2.02024e-18
      197.100   1.97947e-18
      197.200   1.93949e-18
      197.300   1.90028e-18
      197.400   1.86182e-18
      197.500   1.82410e-18
      197.600   1.78712e-18
      197.700   1.75095e-18
      197.800   1.71550e-18
      197.900   1.68072e-18
      198.000   1.64663e-18
      198.100   1.61319e-18
      198.200   1.58041e-18
      198.300   1.54827e-18
      198.400   1.51676e-18
      198.500   1.48593e-18
      198.600   1.45572e-18
      198.700   1.42611e-18
      198.800   1.39708e-18
      198.900   1.36864e-18
      199.000   1.34074e-18
      199.100   1.31339e-18
      199.200   1.28660e-18
      199.300   1.26040e-18
      199.400   1.23474e-18
      199.500   1.20959e-18
      199.600   1.18493e-18
      199.700   1.16077e-18
      199.800   1.13709e-18
      199.900   1.11388e-18
      200.000   1.09113e-18
      200.100   1.06893e-18
      200.200   1.04714e-18
      200.300   1.02580e-18
      200.400   1.00489e-18
      200.500   9.84394e-19
      200.600   9.64323e-19
      200.700   9.44652e-19
      200.800   9.25370e-19
      200.900   9.06495e-19
      201.000   8.88007e-19
      201.100   8.69907e-19
      201.200   8.52177e-19
      201.300   8.34801e-19
      201.400   8.17785e-19
      201.500   8.01106e-19
      201.600   7.84766e-19
      201.700   7.68760e-19
      201.800   7.53078e-19
      201.900   7.37718e-19
      202.000   7.22692e-19
      202.100   7.07967e-19
      202.200   6.93543e-19
      202.300   6.79469e-19
      202.400   6.65795e-19
      202.500   6.52426e-19
      202.600   6.39317e-19
      202.700   6.26485e-19
      202.800   6.13913e-19
      202.900   6.01601e-19
      203.000   5.89540e-19
      203.100   5.77728e-19
      203.200   5.66147e-19
      203.300   5.54800e-19
      203.400   5.43681e-19
      203.500   5.32785e-19
      203.600   5.22110e-19
      203.700   5.11653e-19
      203.800   5.01413e-19
      203.900   4.91392e-19
      204.000   4.81570e-19
      204.100   4.71946e-19
      204.200   4.62520e-19
      204.300   4.53284e-19
      204.400   4.44234e-19
      204.500   4.35368e-19
      204.600   4.26679e-19
      204.700   4.18166e-19
      204.800   4.09835e-19
      204.900   4.01676e-19
      205.000   3.93682e-19
      205.100   3.85849e-19
      205.200   3.78173e-19
      205.300   3.70654e-19
      205.400   3.63285e-19
      205.500   3.56064e-19
      205.600   3.48387e-19
      205.700   3.40330e-19
      205.800   3.32380e-19
      205.900   3.24623e-19
      206.000   3.17054e-19
      206.100   3.09659e-19
      206.200   3.02435e-19
      206.300   2.95381e-19
      206.400   2.88492e-19
      206.500   2.81759e-19
      206.600   2.75183e-19
      206.700   2.68762e-19
      206.800   2.62485e-19
      206.900   2.56354e-19
      207.000   2.50367e-19
      207.100   2.44523e-19
      207.200   2.38817e-19
      207.300   2.33240e-19
      207.400   2.27791e-19
      207.500   2.22467e-19
      207.600   2.17266e-19
      207.700   2.12184e-19
      207.800   2.07218e-19
      207.900   2.02365e-19
      208.000   1.97624e-19
      208.100   1.92993e-19
      208.200   1.88467e-19
      208.300   1.84046e-19
      208.400   1.79731e-19
      208.500   1.75515e-19
      208.600   1.71395e-19
      208.700   1.67369e-19
      208.800   1.63436e-19
      208.900   1.59135e-19
      209.000   1.54131e-19
      209.100   1.49088e-19
      209.200   1.44206e-19
      209.300   1.39480e-19
      209.400   1.34907e-19
      209.500   1.30481e-19
      209.600   1.26197e-19
      209.700   1.22054e-19
      209.800   1.18050e-19
      209.900   1.14174e-19
      210.000   1.10423e-19
      210.100   1.06794e-19
      210.200   1.03282e-19
      210.300   9.98830e-20
      210.400   9.65943e-20
      210.500   9.34120e-20
      210.600   9.03332e-20
      210.700   8.73538e-20
      210.800   8.44714e-20
      210.900   8.16822e-20
      211.000   7.89836e-20
      211.100   7.63741e-20
      211.200   7.38480e-20
      211.300   7.14088e-20
      211.400   6.90501e-20
      211.500   6.67671e-20
      211.600   6.45591e-20
      211.700   6.24234e-20
      211.800   6.03560e-20
      211.900   5.83563e-20
      212.000   5.64232e-20
      212.100   5.45526e-20
      212.200   5.27428e-20
      212.300   5.09926e-20
      212.400   4.92992e-20
      212.500   4.76617e-20
      212.600   4.60779e-20
      212.700   4.45461e-20
      212.800   4.30643e-20
      212.900   4.16316e-20
      213.000   4.02462e-20
      213.100   3.89079e-20
      213.200   3.76136e-20
      213.300   3.63617e-20
      213.400   3.51510e-20
      213.500   3.39802e-20
      213.600   3.28477e-20
      213.700   3.17530e-20
      213.800   3.06940e-20
      213.900   2.96705e-20
      214.000   2.86804e-20
      214.100   2.77231e-20
      214.200   2.67978e-20
      214.300   2.59028e-20
      214.400   2.50374e-20
      214.500   2.42008e-20
      214.600   2.33922e-20
      214.700   2.26102e-20
      214.800   2.18543e-20
      214.900   2.11236e-20
      215.000   2.04170e-20
      215.100   1.97342e-20
      215.200   1.90746e-20
      215.300   1.84372e-20
      215.400   1.78209e-20
      215.500   1.72251e-20
      215.600   1.66497e-20
      215.700   1.60929e-20
      215.800   1.55548e-20
      215.900   1.50349e-20
      216.000   1.45322e-20
      216.100   1.40462e-20
      216.200   1.35766e-20
      216.300   1.31226e-20
      216.400   1.26839e-20
      216.500   1.22597e-20
      216.600   1.18498e-20
      216.700   1.14537e-20
      216.800   1.10707e-20
      216.900   1.07005e-20
      217.000   1.03428e-20
      217.100   9.99690e-21
      217.200   9.66269e-21
      217.300   9.33962e-21
      217.400   9.02726e-21
      217.500   8.72552e-21
      217.600   8.43377e-21
      217.700   8.15162e-21
      217.800   7.87904e-21
      217.900   7.61564e-21
      218.000   7.36116e-21
      218.100   7.11511e-21
      218.200   6.87732e-21
      218.300   6.64749e-21
      218.400   6.42534e-21
      218.500   6.21048e-21
      218.600   6.00284e-21
      218.700   5.80208e-21
      218.800   5.60799e-21
      218.900   5.42046e-21
      219.000   5.23908e-21
      219.100   5.06370e-21
      219.200   4.89420e-21
      219.300   4.73031e-21
      219.400   4.57183e-21
      219.500   4.41864e-21
      219.600   4.27054e-21
      219.700   4.12738e-21
      219.800   3.98900e-21
      219.900   3.85520e-21
      220.000   3.72581e-21
      220.100   3.60075e-21
      220.200   3.47984e-21
      220.300   3.36295e-21
      220.400   3.24996e-21
      220.500   3.14075e-21
      220.600   3.03518e-21
      220.700   2.93308e-21
      220.800   2.83436e-21
      220.900   2.73899e-21
      221.000   2.64676e-21
      221.100   2.55758e-21
      221.200   2.47142e-21
      221.300   2.38812e-21
      221.400   2.30759e-21
      221.500   2.22976e-21
      221.600   2.15453e-21
      221.700   2.08179e-21
      221.800   2.01146e-21
      221.900   1.94351e-21
      222.000   1.87784e-21
      222.100   1.81434e-21
      222.200   1.75299e-21
      222.300   1.69366e-21
      222.400   1.63634e-21
      222.500   1.58092e-21
      222.600   1.52738e-21
      222.700   1.47562e-21
      222.800   1.42558e-21
      222.900   1.37724e-21
      223.000   1.33051e-21
      223.100   1.28534e-21
      223.200   1.24170e-21
      223.300   1.19952e-21
      223.400   1.15876e-21
      223.500   1.11935e-21
      223.600   1.08129e-21
      223.700   1.04450e-21
      223.800   1.00893e-21
      223.900   9.74595e-22
      224.000   9.41389e-22
      224.100   9.09305e-22
      224.200   8.78298e-22
      224.300   8.48343e-22
      224.400   8.19390e-22
      224.500   7.91418e-22
      224.600   7.64380e-22
      224.700   7.38270e-22
      224.800   7.13036e-22
      224.900   6.88650e-22
      225.000   6.65091e-22
      225.100   6.42322e-22
      225.200   6.20322e-22
      225.300   5.99082e-22
      225.400   5.78548e-22
      225.500   5.58706e-22
      225.600   5.39538e-22
      225.700   5.21028e-22
      225.800   5.03135e-22
      225.900   4.85854e-22
      226.000   4.69162e-22
      226.100   4.53034e-22
      226.200   4.37452e-22
      226.300   4.22436e-22
      226.400   4.07943e-22
      226.500   3.93929e-22
      226.600   3.80384e-22
      226.700   3.67300e-22
      226.800   3.54652e-22
      226.900   3.42435e-22
      227.000   3.30635e-22
      227.100   3.19234e-22
      227.200   3.08225e-22
      227.300   2.97593e-22
      227.400   2.87323e-22
      227.500   2.77405e-22
      227.600   2.67826e-22
      227.700   2.58575e-22
      227.800   2.49641e-22
      227.900   2.41015e-22
      228.000   2.32685e-22
      228.100   2.24640e-22
      228.200   2.16870e-22
      228.300   2.09369e-22
      228.400   2.02127e-22
      228.500   1.95132e-22
      228.600   1.88379e-22
      228.700   1.81858e-22
      228.800   1.75561e-22
      228.900   1.69484e-22
      229.000   1.63615e-22
      229.100   1.57949e-22
      229.200   1.52478e-22
      229.300   1.47196e-22
      229.400   1.42097e-22
      229.500   1.37174e-22
      229.600   1.32420e-22
      229.700   1.27832e-22
      229.800   1.23402e-22
      229.900   1.19125e-22
      230.000   1.14951e-22
      230.100   1.10605e-22
      230.200   1.06412e-22
      230.300   1.02379e-22
      230.400   9.84985e-23
      230.500   9.47647e-23
      230.600   9.11746e-23
      230.700   8.77189e-23
      230.800   8.43947e-23
      230.900   8.11962e-23
      231.000   7.81178e-23
      231.100   7.51559e-23
      231.200   7.23058e-23
      231.300   6.95639e-23
      231.400   6.69266e-23
      231.500   6.43870e-23
      231.600   6.19432e-23
      231.700   5.95927e-23
      231.800   5.73310e-23
      231.900   5.51545e-23
      232.000   5.30602e-23
      232.100   5.10447e-23
      232.200   4.91057e-23
      232.300   4.72403e-23
      232.400   4.54449e-23
      232.500   4.37170e-23
      232.600   4.20548e-23
      232.700   4.04554e-23
      232.800   3.89165e-23
      232.900   3.74356e-23
      233.000   3.60107e-23
      233.100   3.46399e-23
      233.200   3.33206e-23
      233.300   3.20516e-23
      233.400   3.08306e-23
      233.500   2.96566e-23
      233.600   2.85277e-23
      233.700   2.74409e-23
      233.800   2.62660e-23
      233.900   2.51243e-23
      234.000   2.40311e-23
      234.100   2.29854e-23
      234.200   2.19849e-23
      234.300   2.10274e-23
      234.400   2.01111e-23
      234.500   1.92344e-23
      234.600   1.83954e-23
      234.700   1.75928e-23
      234.800   1.68250e-23
      234.900   1.60902e-23
      235.000   1.53870e-23
      235.100   1.47143e-23
      235.200   1.40708e-23
      235.300   1.34551e-23
      235.400   1.28660e-23
      235.500   1.23024e-23
      235.600   1.17634e-23
      235.700   1.12478e-23
      235.800   1.07555e-23
      235.900   1.02844e-23
      236.000   9.83385e-24
      236.100   9.40271e-24
      236.200   8.99026e-24
      236.300   8.59566e-24
      236.400   8.21831e-24
      236.500   7.85725e-24
      236.600   7.51186e-24
      236.700   7.18149e-24
      236.800   6.86543e-24
      236.900   6.56312e-24
      237.000   6.27395e-24
      237.100   5.99733e-24
      237.200   5.73280e-24
      237.300   5.47977e-24
      237.400   5.23776e-24
      237.500   5.00625e-24
      237.600   4.78495e-24
      237.700   4.57370e-24
      237.800   4.37166e-24
      237.900   4.17841e-24
      238.000   3.99363e-24
      238.100   3.81684e-24
      238.200   3.64778e-24
      238.300   3.48611e-24
      238.400   3.33148e-24
      238.500   3.18359e-24
      238.600   3.04218e-24
      238.700   2.90699e-24
      238.800   2.77769e-24
      238.900   2.65405e-24
      239.000   2.53581e-24
      239.100   2.42277e-24
      239.200   2.31471e-24
      239.300   2.21153e-24
      239.400   2.11303e-24
      239.500   2.01883e-24
      239.600   1.92875e-24
      239.700   1.84267e-24
      239.800   1.76034e-24
      239.900   1.68163e-24
      240.000   1.60639e-24
      240.100   1.53443e-24
      240.200   1.46565e-24
      240.300   1.39991e-24
      240.400   1.33704e-24
      240.500   1.27698e-24
      240.600   1.21958e-24
      240.700   1.16470e-24
      240.800   1.11233e-24
      240.900   1.06235e-24
      241.000   1.01459e-24
      241.100   9.68933e-25
      241.200   9.25305e-25
      241.300   8.83600e-25
      241.400   8.43751e-25
      241.500   8.05669e-25
      241.600   7.69278e-25
      241.700   7.34500e-25
      241.800   7.01265e-25
      241.900   6.69506e-25
      242.000   6.39166e-25
      242.100   6.10183e-25
      242.200   5.82550e-25
      242.300   5.56190e-25
      242.400   5.30997e-25
      242.500   5.06927e-25
      242.600   4.83932e-25
      242.700   4.61961e-25
      242.800   4.40976e-25
      242.900   4.20928e-25
      243.000   4.01778e-25
      243.100   3.83485e-25
      243.200   3.66006e-25
      243.300   3.49315e-25
      243.400   3.33380e-25
      243.500   3.18186e-25
      243.600   3.03706e-25
      243.700   2.89868e-25
      243.800   2.76653e-25
      243.900   2.64036e-25
      244.000   2.51981e-25
      244.100   2.40470e-25
      244.200   2.29478e-25
      244.300   2.18978e-25
      244.400   2.08953e-25
      244.500   1.99381e-25
      244.600   1.90239e-25
      244.700   1.81525e-25
      244.800   1.73226e-25
      244.900   1.65303e-25
      245.000   1.57733e-25
      245.100   1.50506e-25
      245.200   1.43608e-25
      245.300   1.37021e-25
      245.400   1.30730e-25
      245.500   1.24726e-25
      245.600   1.18993e-25
      245.700   1.13519e-25
      245.800   1.08292e-25
      245.900   1.03320e-25
      246.000   9.85798e-26
      246.100   9.40524e-26
      246.200   8.97307e-26
      246.300   8.56037e-26
      246.400   8.16653e-26
      246.500   7.79048e-26
      246.600   7.43147e-26
      246.700   7.08882e-26
      246.800   6.76160e-26
      246.900   6.44932e-26
      247.000   6.15223e-26
      247.100   5.86901e-26
      247.200   5.59867e-26
      247.300   5.34064e-26
      247.400   5.09429e-26
      247.500   4.85911e-26
      247.600   4.63463e-26
      247.700   4.42037e-26
      247.800   4.21585e-26
      247.900   4.02063e-26
      248.000   3.83434e-26
      248.100   3.65753e-26
      248.200   3.48868e-26
      248.300   3.32749e-26
      248.400   3.17363e-26
      248.500   3.02674e-26
      248.600   2.88656e-26
      248.700   2.75279e-26
      248.800   2.62510e-26
      248.900   2.50325e-26
      249.000   2.38696e-26
      249.100   2.27647e-26
      249.200   2.17113e-26
      249.300   2.07054e-26
      249.400   1.97454e-26
      249.500   1.88293e-26
      249.600   1.79548e-26
      249.700   1.71203e-26
      249.800   1.63239e-26
      249.900   1.55639e-26
      250.000   1.48387e-26
      250.100   1.41490e-26
      250.200   1.34918e-26
      250.300   1.28653e-26
      250.400   1.22672e-26
      250.500   1.16967e-26
      250.600   1.11524e-26
      250.700   1.06331e-26
      250.800   1.01377e-26
      250.900   9.66503e-27
      251.000   9.21415e-27
      251.100   8.78400e-27
      251.200   8.37436e-27
      251.300   7.98440e-27
      251.400   7.61243e-27
      251.500   7.25741e-27
      251.600   6.91876e-27
      251.700   6.59593e-27
      251.800   6.28787e-27
      251.900   5.99400e-27
      252.000   5.71366e-27
      252.100   5.44638e-27
      252.200   5.19137e-27
      252.300   4.94853e-27
      252.400   4.71724e-27
      252.500   4.49678e-27
      252.600   4.28642e-27
      252.700   4.08581e-27
      252.800   3.89450e-27
      252.900   3.71203e-27
      253.000   3.53798e-27
      253.100   3.37202e-27
      253.200   3.21375e-27
      253.300   3.06351e-27
      253.400   2.92049e-27
      253.500   2.78428e-27
      253.600   2.65457e-27
      253.700   2.53081e-27
      253.800   2.41277e-27
      253.900   2.30019e-27
      254.000   2.19277e-27
      254.100   2.09029e-27
      254.200   1.99255e-27
      254.300   1.89933e-27
      254.400   1.81039e-27
      254.500   1.72557e-27
      254.600   1.64468e-27
      254.700   1.56754e-27
      254.800   1.49417e-27
      254.900   1.42419e-27
      255.000   1.35746e-27
      255.100   1.29378e-27
      255.200   1.23306e-27
      255.300   1.17517e-27
      255.400   1.11995e-27
      255.500   1.06729e-27
      255.600   1.01708e-27
      255.700   9.69202e-28
      255.800   9.23540e-28
      255.900   8.79991e-28
      256.000   8.38471e-28
      256.100   7.98933e-28
      256.200   7.61287e-28
      256.300   7.25392e-28
      256.400   6.91186e-28
      256.500   6.58544e-28
      256.600   6.27437e-28
      256.700   5.97782e-28
      256.800   5.69503e-28
      256.900   5.42542e-28
      257.000   5.16843e-28
      257.100   4.92343e-28
      257.200   4.68997e-28
      257.300   4.46735e-28
      257.400   4.28475e-28
      257.500   4.12015e-28
      257.600   3.96256e-28
      257.700   3.81100e-28
      257.800   3.66513e-28
      257.900   3.52481e-28
      258.000   3.38978e-28
      258.100   3.25984e-28
      258.200   3.13485e-28
      258.300   3.01463e-28
      258.400   2.89888e-28
      258.500   2.78751e-28
      258.600   2.68041e-28
      258.700   2.57737e-28
      258.800   2.47822e-28
      258.900   2.38289e-28
      259.000   2.29111e-28
      259.100   2.20287e-28
      259.200   2.11802e-28
      259.300   2.03653e-28
      259.400   1.95813e-28
      259.500   1.88267e-28
      259.600   1.81011e-28
      259.700   1.74033e-28
      259.800   1.67318e-28
      259.900   1.60858e-28
      260.000   1.54647e-28
      260.100   1.48674e-28
      260.200   1.42927e-28
      260.300   1.37401e-28
      260.400   1.32086e-28
      260.500   1.26976e-28
      260.600   1.22060e-28
      260.700   1.17331e-28
      260.800   1.12788e-28
      260.900   1.08415e-28
      261.000   1.04214e-28
      261.100   1.00178e-28
      261.200   9.62966e-29
      261.300   9.25635e-29
      261.400   8.89754e-29
      261.500   8.58966e-29
      261.600   8.41305e-29
      261.700   8.26095e-29
      261.800   8.11167e-29
      261.900   7.96497e-29
      262.000   7.82093e-29
      262.100   7.67948e-29
      262.200   7.54065e-29
      262.300   7.40423e-29
      262.400   7.27028e-29
      262.500   7.13879e-29
      262.600   7.00964e-29
      262.700   6.88284e-29
      262.800   6.75831e-29
      262.900   6.63589e-29
      263.000   6.51596e-29
      263.100   6.39806e-29
      263.200   6.28234e-29
      263.300   6.16874e-29
      263.400   6.05715e-29
      263.500   5.94759e-29
      263.600   5.84010e-29
      263.700   5.73448e-29
      263.800   5.63074e-29
      263.900   5.52900e-29
      264.000   5.42905e-29
      264.100   5.33089e-29
      264.200   5.23450e-29
      264.300   5.13992e-29
      264.400   5.04704e-29
      264.500   4.95583e-29
      264.600   4.86625e-29
      264.700   4.77832e-29
      264.800   4.69199e-29
      264.900   4.60729e-29
      265.000   4.52408e-29
      265.100   4.44236e-29
      265.200   4.36215e-29
      265.300   4.28339e-29
      265.400   4.20610e-29
      265.500   4.13020e-29
      265.600   4.05568e-29
      265.700   3.98250e-29
      265.800   3.91075e-29
      265.900   3.84030e-29
      266.000   3.77117e-29
      266.100   3.70332e-29
      266.200   3.63667e-29
      266.300   3.57123e-29
      266.400   3.50699e-29
      266.500   3.44392e-29
      266.600   3.38202e-29
      266.700   3.32120e-29
      266.800   3.26157e-29
      266.900   3.20298e-29
      267.000   3.14546e-29
      267.100   3.08901e-29
      267.200   3.03362e-29
      267.300   2.97921e-29
      267.400   2.92576e-29
      267.500   2.87331e-29
      267.600   2.82182e-29
      267.700   2.77126e-29
      267.800   2.72161e-29
      267.900   2.67288e-29
      268.000   2.62506e-29
      268.100   2.57811e-29
      268.200   2.53201e-29
      268.300   2.48676e-29
      268.400   2.44231e-29
      268.500   2.39868e-29
      268.600   2.35584e-29
      268.700   2.31382e-29
      268.800   2.27252e-29
      268.900   2.23199e-29
      269.000   2.19221e-29
      269.100   2.15313e-29
      269.200   2.11479e-29
      269.300   2.07714e-29
      269.400   2.04016e-29
      269.500   2.00384e-29
      269.600   1.96823e-29
      269.700   1.93322e-29
      269.800   1.89888e-29
      269.900   1.86513e-29
      270.000   1.83205e-29
      270.100   1.79953e-29
      270.200   1.76765e-29
      270.300   1.73632e-29
      270.400   1.70556e-29
      270.500   1.67536e-29
      270.600   1.64570e-29
      270.700   1.61659e-29
      270.800   1.58800e-29
      270.900   1.55992e-29
      271.000   1.53235e-29
      271.100   1.50526e-29
      271.200   1.47866e-29
      271.300   1.45256e-29
      271.400   1.42691e-29
      271.500   1.40175e-29
      271.600   1.37701e-29
      271.700   1.35272e-29
      271.800   1.32886e-29
      271.900   1.30544e-29
      272.000   1.28244e-29
      272.100   1.25985e-29
      272.200   1.23765e-29
      272.300   1.21584e-29
      272.400   1.19443e-29
      272.500   1.17341e-29
      272.600   1.15275e-29
      272.700   1.13246e-29
      272.800   1.11253e-29
      272.900   1.09295e-29
      273.000   1.07373e-29
      273.100   1.05485e-29
      273.200   1.03630e-29
      273.300   1.01808e-29
      273.400   1.00017e-29
      273.500   9.82587e-30
      273.600   9.65314e-30
      273.700   9.48336e-30
      273.800   9.31660e-30
      273.900   9.15292e-30
      274.000   8.99203e-30
      274.100   8.83402e-30
      274.200   8.67873e-30
      274.300   8.52620e-30
      274.400   8.37526e-30
      274.500   8.22472e-30
      274.600   8.07641e-30
      274.700   7.93078e-30
      274.800   7.78777e-30
      274.900   7.64727e-30
      275.000   7.50928e-30
      275.100   7.37381e-30
      275.200   7.24071e-30
      275.300   7.10999e-30
      275.400   6.98170e-30
      275.500   6.85569e-30
      275.600   6.73187e-30
      275.700   6.61028e-30
      275.800   6.49090e-30
      275.900   6.37367e-30
      276.000   6.25854e-30
      276.100   6.14542e-30
      276.200   6.03429e-30
      276.300   5.92518e-30
      276.400   5.81803e-30
      276.500   5.71281e-30
      276.600   5.60947e-30
      276.700   5.50793e-30
      276.800   5.40825e-30
      276.900   5.31030e-30
      277.000   5.21415e-30
      277.100   5.11966e-30
      277.200   5.02690e-30
      277.300   4.93580e-30
      277.400   4.84633e-30
      277.500   4.75837e-30
      277.600   4.67209e-30
      277.700   4.58729e-30
      277.800   4.50395e-30
      277.900   4.42217e-30
      278.000   4.34190e-30
      278.100   4.26303e-30
      278.200   4.18554e-30
      278.300   4.10944e-30
      278.400   4.03473e-30
      278.500   3.96129e-30
      278.600   3.88919e-30
      278.700   3.81841e-30
      278.800   3.74891e-30
      278.900   3.68048e-30
      279.000   3.61326e-30
      279.100   3.54726e-30
      279.200   3.48240e-30
      279.300   3.41876e-30
      279.400   3.35620e-30
      279.500   3.29479e-30
      279.600   3.23450e-30
      279.700   3.17530e-30
      279.800   3.11716e-30
      279.900   3.06004e-30
      280.000   3.00397e-30
      280.100   2.94888e-30
      280.200   2.89481e-30
      280.300   2.84168e-30
      280.400   2.78954e-30
      280.500   2.73837e-30
      280.600   2.68809e-30
      280.700   2.63870e-30
      280.800   2.59022e-30
      280.900   2.54261e-30
      281.000   2.49585e-30
      281.100   2.44994e-30
      281.200   2.40486e-30
      281.300   2.36061e-30
      281.400   2.31717e-30
      281.500   2.27449e-30
      281.600   2.23256e-30
      281.700   2.19142e-30
      281.800   2.15103e-30
      281.900   2.11137e-30
      282.000   2.07243e-30
      282.100   2.03419e-30
      282.200   1.99667e-30
      282.300   1.95980e-30
      282.400   1.92362e-30
      282.500   1.88807e-30
      282.600   1.85319e-30
      282.700   1.81892e-30
      282.800   1.78530e-30
      282.900   1.75231e-30
      283.000   1.71990e-30
      283.100   1.68809e-30
      283.200   1.65688e-30
      283.300   1.62622e-30
      283.400   1.59613e-30
      283.500   1.56661e-30
      283.600   1.53761e-30
      283.700   1.50913e-30
      283.800   1.48118e-30
      283.900   1.45376e-30
      284.000   1.42682e-30
      284.100   1.40037e-30
      284.200   1.37441e-30
      284.300   1.34894e-30
      284.400   1.32393e-30
      284.500   1.29939e-30
      284.600   1.27529e-30
      284.700   1.25165e-30
      284.800   1.22843e-30
      284.900   1.20565e-30
      285.000   1.18326e-30
      285.100   1.16130e-30
      285.200   1.13976e-30
      285.300   1.11860e-30
      285.400   1.09784e-30
      285.500   1.07745e-30
      285.600   1.05747e-30
      285.700   1.03783e-30
      285.800   1.01857e-30
      285.900   9.99657e-31
      286.000   9.81101e-31
      286.100   9.62907e-31
      286.200   9.45035e-31
      286.300   9.27509e-31
      286.400   9.10302e-31
      286.500   8.93409e-31
      286.600   8.76827e-31
      286.700   8.60554e-31
      286.800   8.44593e-31
      286.900   8.28925e-31
      287.000   8.13544e-31
      287.100   7.98448e-31
      287.200   7.83640e-31
      287.300   7.69104e-31
      287.400   7.54837e-31
      287.500   7.40840e-31
      287.600   7.27108e-31
      287.700   7.13624e-31
      287.800   7.00396e-31
      287.900   6.87413e-31
      288.000   6.74677e-31
      288.100   6.62173e-31
      288.200   6.49915e-31
      288.300   6.37886e-31
      288.400   6.26081e-31
      288.500   6.14498e-31
      288.600   6.03123e-31
      288.700   5.91969e-31
      288.800   5.81018e-31
      288.900   5.70280e-31
      289.000   5.59739e-31
      289.100   5.49390e-31
      289.200   5.39237e-31
      289.300   5.29277e-31
      289.400   5.19501e-31
      289.500   5.09907e-31
      289.600   5.00491e-31
      289.700   4.91261e-31
      289.800   4.82193e-31
      289.900   4.73290e-31
      290.000   4.64569e-31
      290.100   4.55997e-31
      290.200   4.47603e-31
      290.300   4.39358e-31
      290.400   4.31268e-31
      290.500   4.23337e-31
      290.600   4.15546e-31
      290.700   4.07901e-31
      290.800   4.00405e-31
      290.900   3.93045e-31
      291.000   3.85818e-31
      291.100   3.78726e-31
      291.200   3.71770e-31
      291.300   3.64942e-31
      291.400   3.58244e-31
      291.500   3.51667e-31
      291.600   3.45213e-31
      291.700   3.38882e-31
      291.800   3.32665e-31
      291.900   3.26571e-31
      292.000   3.20596e-31
      292.100   3.14728e-31
      292.200   3.08970e-31
      292.300   3.03315e-31
      292.400   2.97767e-31
      292.500   2.92320e-31
      292.600   2.86975e-31
      292.700   2.81729e-31
      292.800   2.76581e-31
      292.900   2.71527e-31
      293.000   2.66568e-31
      293.100   2.61701e-31
      293.200   2.56923e-31
      293.300   2.52231e-31
      293.400   2.47632e-31
      293.500   2.43117e-31
      293.600   2.38688e-31
      293.700   2.34338e-31
      293.800   2.30071e-31
      293.900   2.25882e-31
      294.000   2.21768e-31
      294.100   2.17732e-31
      294.200   2.13771e-31
      294.300   2.09884e-31
      294.400   2.06065e-31
      294.500   2.02317e-31
      294.600   1.98637e-31
      294.700   1.95026e-31
      294.800   1.91481e-31
      294.900   1.88000e-31
      295.000   1.84588e-31
      295.100   1.81240e-31
      295.200   1.77951e-31
      295.300   1.74720e-31
      295.400   1.71551e-31
      295.500   1.68440e-31
      295.600   1.65385e-31
      295.700   1.62385e-31
      295.800   1.59441e-31
      295.900   1.56548e-31
      296.000   1.53711e-31
      296.100   1.50922e-31
      296.200   1.48187e-31
      296.300   1.45502e-31
      296.400   1.42870e-31
      296.500   1.40281e-31
      296.600   1.37742e-31
      296.700   1.35249e-31
      296.800   1.32801e-31
      296.900   1.30397e-31
      297.000   1.28036e-31
      297.100   1.25718e-31
      297.200   1.23442e-31
      297.300   1.21208e-31
      297.400   1.19014e-31
      297.500   1.16858e-31
      297.600   1.14745e-31
      297.700   1.12669e-31
      297.800   1.10632e-31
      297.900   1.08632e-31
      298.000   1.06668e-31
      298.100   1.04738e-31
      298.200   1.02844e-31
      298.300   1.00984e-31
      298.400   9.91569e-32
      298.500   9.73626e-32
      298.600   9.56008e-32
      298.700   9.38705e-32
      298.800   9.21706e-32
      298.900   9.05037e-32
      299.000   8.88681e-32
      299.100   8.72614e-32
      299.200   8.56823e-32
      299.300   8.41322e-32
      299.400   8.26099e-32
      299.500   8.11150e-32
      299.600   7.96465e-32
      299.700   7.82042e-32
      299.800   7.67877e-32
      299.900   7.53972e-32
      300.000   7.40313e-32
      300.100   7.26900e-32
      300.192   7.14785e-32
      300.285   7.02723e-32
      300.377   6.91005e-32
      300.470   6.79360e-32
      300.562   6.68026e-32
      300.654   6.56877e-32
      300.747   6.45795e-32
      300.839   6.35020e-32
      300.932   6.24296e-32
      301.025   6.13759e-32
      301.117   6.03515e-32
      301.210   5.93315e-32
      301.303   5.83302e-32
      301.395   5.73561e-32
      301.488   5.63864e-32
      301.581   5.54338e-32
      301.674   5.44970e-32
      301.766   5.35851e-32
      301.859   5.26789e-32
      301.952   5.17883e-32
      302.045   5.09123e-32
      302.138   5.01255e-32
      302.231   4.95182e-32
      302.324   4.89253e-32
      302.417   4.83402e-32
      302.510   4.77609e-32
      302.603   4.71895e-32
      302.696   4.66237e-32
      302.789   4.60645e-32
      302.882   4.55119e-32
      302.976   4.49608e-32
      303.069   4.44213e-32
      303.162   4.38879e-32
      303.255   4.33604e-32
      303.349   4.28339e-32
      303.442   4.23188e-32
      303.535   4.18099e-32
      303.629   4.13014e-32
      303.722   4.08044e-32
      303.816   4.03082e-32
      303.909   3.98224e-32
      304.003   3.93374e-32
      304.096   3.88632e-32
      304.190   3.83895e-32
      304.283   3.79261e-32
      304.377   3.74635e-32
      304.471   3.70058e-32
      304.564   3.65586e-32
      304.658   3.61125e-32
      304.752   3.56708e-32
      304.846   3.52346e-32
      304.939   3.48082e-32
      305.033   3.43821e-32
      305.127   3.39609e-32
      305.221   3.35448e-32
      305.315   3.31341e-32
      305.409   3.27274e-32
      305.503   3.23260e-32
      305.597   3.19296e-32
      305.691   3.15374e-32
      305.785   3.11502e-32
      305.879   3.07672e-32
      305.973   3.03889e-32
      306.067   3.00150e-32
      306.161   2.96457e-32
      306.255   2.92808e-32
      306.350   2.89163e-32
      306.444   2.85598e-32
      306.538   2.82079e-32
      306.633   2.78565e-32
      306.727   2.75128e-32
      306.821   2.71733e-32
      306.916   2.68343e-32
      307.010   2.65094e-32
      307.105   2.62062e-32
      307.199   2.59128e-32
      307.294   2.56193e-32
      307.388   2.53324e-32
      307.483   2.50456e-32
      307.577   2.47649e-32
      307.672   2.44841e-32
      307.767   2.42065e-32
      307.861   2.39347e-32
      307.956   2.36628e-32
      308.051   2.33940e-32
      308.146   2.31285e-32
      308.240   2.28683e-32
      308.335   2.26082e-32
      308.430   2.23508e-32
      308.525   2.20966e-32
      308.620   2.18451e-32
      308.715   2.15963e-32
      308.810   2.13504e-32
      308.905   2.11071e-32
      309.000   2.08663e-32
      309.095   2.06283e-32
      309.190   2.03932e-32
      309.285   2.01605e-32
      309.380   1.99305e-32
      309.476   1.97007e-32
      309.571   1.94756e-32
      309.666   1.92531e-32
      309.761   1.90332e-32
      309.857   1.88134e-32
      309.952   1.85981e-32
      310.047   1.83855e-32
      310.143   1.81731e-32
      310.238   1.79652e-32
      310.334   1.77574e-32
      310.429   1.75542e-32
      310.525   1.73510e-32
      310.620   1.71524e-32
      310.716   1.69539e-32
      310.811   1.67599e-32
      310.907   1.65659e-32
      311.003   1.63741e-32
      311.098   1.61864e-32
      311.194   1.59989e-32
      311.290   1.58138e-32
      311.386   1.56307e-32
      311.481   1.54516e-32
      311.577   1.52725e-32
      311.673   1.50957e-32
      311.769   1.49208e-32
      311.865   1.47478e-32
      311.961   1.45774e-32
      312.057   1.44108e-32
      312.153   1.42469e-32
      312.249   1.40847e-32
      312.345   1.39246e-32
      312.441   1.37661e-32
      312.537   1.36095e-32
      312.633   1.34547e-32
      312.730   1.33000e-32
      312.826   1.31487e-32
      312.922   1.29990e-32
      313.018   1.28512e-32
      313.115   1.27036e-32
      313.211   1.25590e-32
      313.307   1.24162e-32
      313.404   1.22736e-32
      313.500   1.21341e-32
      313.597   1.19948e-32
      313.693   1.18585e-32
      313.790   1.17223e-32
      313.886   1.15892e-32
      313.983   1.14561e-32
      314.079   1.13260e-32
      314.176   1.11960e-32
      314.273   1.10676e-32
      314.369   1.09421e-32
      314.466   1.08167e-32
      314.563   1.06927e-32
      314.660   1.05702e-32
      314.756   1.04503e-32
      314.853   1.03306e-32
      314.950   1.02123e-32
      315.047   1.00954e-32
      315.144   9.97996e-33
      315.241   9.86578e-33
      315.338   9.75297e-33
      315.435   9.64145e-33
      315.532   9.53121e-33
      315.629   9.42229e-33
      315.726   9.31471e-33
      315.823   9.20828e-33
      315.921   9.10210e-33
      316.018   8.99827e-33
      316.115   8.89567e-33
      316.212   8.79421e-33
      316.310   8.69293e-33
      316.407   8.59385e-33
      316.504   8.49594e-33
      316.602   8.39824e-33
      316.699   8.30271e-33
      316.796   8.20816e-33
      316.894   8.11389e-33
      316.991   8.02182e-33
      317.089   7.93101e-33
      317.187   7.84182e-33
      317.284   7.75458e-33
      317.382   7.66744e-33
      317.479   7.58214e-33
      317.577   7.49698e-33
      317.675   7.41283e-33
      317.773   7.32964e-33
      317.870   7.24832e-33
      317.968   7.16706e-33
      318.066   7.08671e-33
      318.164   7.00733e-33
      318.262   6.92887e-33
      318.360   6.85133e-33
      318.458   6.77473e-33
      318.556   6.69907e-33
      318.654   6.62423e-33
      318.752   6.55020e-33
      318.850   6.47710e-33
      318.948   6.40482e-33
      319.046   6.33340e-33
      319.144   6.26277e-33
      319.242   6.19298e-33
      319.341   6.12331e-33
      319.439   6.05515e-33
      319.537   5.98782e-33
      319.635   5.92123e-33
      319.734   5.85472e-33
      319.832   5.78970e-33
      319.930   5.72537e-33
      320.029   5.66114e-33
      320.127   5.59835e-33
      320.226   5.53565e-33
      320.324   5.47426e-33
      320.423   5.41292e-33
      320.522   5.35243e-33
      320.620   5.29319e-33
      320.719   5.23398e-33
      320.818   5.17552e-33
      320.916   5.11830e-33
      321.015   5.06116e-33
      321.114   5.00466e-33
      321.213   4.94883e-33
      321.311   4.89424e-33
      321.410   4.83972e-33
      321.509   4.78576e-33
      321.608   4.73247e-33
      321.707   4.67980e-33
      321.806   4.62773e-33
      321.905   4.57627e-33
      322.004   4.52540e-33
      322.103   4.47512e-33
      322.202   4.42535e-33
      322.301   4.37623e-33
      322.401   4.32719e-33
      322.500   4.27918e-33
      322.599   4.23173e-33
      322.698   4.18478e-33
      322.798   4.13792e-33
      322.897   4.09208e-33
      322.996   4.04676e-33
      323.096   4.00147e-33
      323.195   3.95718e-33
      323.294   3.91335e-33
      323.394   3.86960e-33
      323.493   3.82680e-33
      323.593   3.78410e-33
      323.692   3.74226e-33
      323.792   3.70047e-33
      323.892   3.65916e-33
      323.991   3.61871e-33
      324.091   3.57838e-33
      324.191   3.53848e-33
      324.291   3.49901e-33
      324.390   3.46041e-33
      324.490   3.42185e-33
      324.590   3.38371e-33
      324.690   3.34600e-33
      324.790   3.30873e-33
      324.890   3.27189e-33
      324.990   3.23548e-33
      325.090   3.19946e-33
      325.190   3.16382e-33
      325.290   3.12862e-33
      325.390   3.09378e-33
      325.490   3.05937e-33
      325.590   3.02535e-33
      325.690   2.99165e-33
      325.790   2.95835e-33
      325.891   2.92512e-33
      325.991   2.89258e-33
      326.091   2.86039e-33
      326.192   2.82825e-33
      326.292   2.79680e-33
      326.392   2.76570e-33
      326.493   2.73463e-33
      326.593   2.70421e-33
      326.694   2.67384e-33
      326.794   2.64409e-33
      326.895   2.61438e-33
      326.995   2.58529e-33
      327.096   2.55624e-33
      327.197   2.52751e-33
      327.297   2.49939e-33
      327.398   2.47131e-33
      327.499   2.44354e-33
      327.599   2.41634e-33
      327.700   2.38917e-33
      327.801   2.36229e-33
      327.902   2.33574e-33
      328.003   2.30947e-33
      328.104   2.28350e-33
      328.205   2.25782e-33
      328.306   2.23242e-33
      328.407   2.20730e-33
      328.508   2.18243e-33
      328.609   2.15785e-33
      328.710   2.13353e-33
      328.811   2.10949e-33
      328.912   2.08573e-33
      329.013   2.06221e-33
      329.115   2.03876e-33
      329.216   2.01577e-33
      329.317   1.99301e-33
      329.419   1.97032e-33
      329.520   1.94807e-33
      329.621   1.92605e-33
      329.723   1.90408e-33
      329.824   1.88258e-33
      329.926   1.86109e-33
      330.027   1.84005e-33
      330.129   1.81903e-33
      330.230   1.79845e-33
      330.332   1.77789e-33
      330.434   1.75755e-33
      330.535   1.73765e-33
      330.637   1.71775e-33
      330.739   1.69808e-33
      330.840   1.67881e-33
      330.942   1.65957e-33
      331.044   1.64055e-33
      331.146   1.62172e-33
      331.248   1.60311e-33
      331.350   1.58472e-33
      331.452   1.56653e-33
      331.554   1.54891e-33
      331.656   1.53204e-33
      331.758   1.51536e-33
      331.860   1.49883e-33
      331.962   1.48249e-33
      332.064   1.46632e-33
      332.166   1.45034e-33
      332.268   1.43450e-33
      332.371   1.41868e-33
      332.473   1.40317e-33
      332.575   1.38781e-33
      332.677   1.37262e-33
      332.780   1.35745e-33
      332.882   1.34258e-33
      332.985   1.32772e-33
      333.087   1.31316e-33
      333.190   1.29862e-33
      333.292   1.28419e-33
      333.395   1.26931e-33
      333.497   1.25458e-33
      333.600   1.23988e-33
      333.702   1.22549e-33
      333.805   1.21110e-33
      333.908   1.19688e-33
      334.011   1.18283e-33
      334.113   1.16906e-33
      334.216   1.15531e-33
      334.319   1.14172e-33
      334.422   1.12826e-33
      334.525   1.11497e-33
      334.628   1.10182e-33
      334.731   1.08883e-33
      334.834   1.07598e-33
      334.937   1.06328e-33
      335.040   1.05072e-33
      335.143   1.03830e-33
      335.246   1.02601e-33
      335.349   1.01387e-33
      335.452   1.00186e-33
      335.555   9.89987e-34
      335.659   9.78141e-34
      335.762   9.66544e-34
      335.865   9.55085e-34
      335.969   9.43632e-34
      336.072   9.32407e-34
      336.175   9.21325e-34
      336.279   9.10264e-34
      336.382   8.99437e-34
      336.486   8.88619e-34
      336.589   8.78025e-34
      336.693   8.67470e-34
      336.796   8.57125e-34
      336.900   8.46804e-34
      337.004   8.36593e-34
      337.107   8.26601e-34
      337.211   8.16631e-34
      337.315   8.06788e-34
      337.419   7.97040e-34
      337.523   7.87400e-34
      337.626   7.77973e-34
      337.730   7.68578e-34
      337.834   7.59272e-34
      337.938   7.50090e-34
      338.042   7.41030e-34
      338.146   7.32163e-34
      338.250   7.23413e-34
      338.354   7.14764e-34
      338.458   7.06210e-34
      338.562   6.97758e-34
      338.667   6.89323e-34
      338.771   6.81061e-34
      338.875   6.72900e-34
      338.979   6.64831e-34
      339.084   6.56788e-34
      339.188   6.48904e-34
      339.292   6.41124e-34
      339.397   6.33347e-34
      339.501   6.25746e-34
      339.606   6.18157e-34
      339.710   6.10726e-34
      339.815   6.03319e-34
      339.919   5.96069e-34
      340.024   5.88829e-34
      340.128   5.81748e-34
      340.233   5.74681e-34
      340.338   5.67704e-34
      340.442   5.60866e-34
      340.547   5.54051e-34
      340.652   5.47315e-34
      340.757   5.40656e-34
      340.862   5.34079e-34
      340.966   5.27645e-34
      341.071   5.21215e-34
      341.176   5.14870e-34
      341.281   5.08603e-34
      341.386   5.02417e-34
      341.491   4.96294e-34
      341.596   4.90258e-34
      341.702   4.84232e-34
      341.807   4.78327e-34
      341.912   4.72503e-34
      342.017   4.66752e-34
      342.122   4.61062e-34
      342.228   4.55388e-34
      342.333   4.49840e-34
      342.438   4.44359e-34
      342.544   4.38896e-34
      342.649   4.33542e-34
      342.754   4.28266e-34
      342.860   4.22993e-34
      342.965   4.17835e-34
      343.071   4.12700e-34
      343.176   4.07672e-34
      343.282   4.02655e-34
      343.388   3.97705e-34
      343.493   3.92884e-34
      343.599   3.88287e-34
      343.705   3.83774e-34
      343.810   3.79345e-34
      343.916   3.74930e-34
      344.022   3.70572e-34
      344.128   3.66259e-34
      344.234   3.61997e-34
      344.340   3.57790e-34
      344.446   3.53623e-34
      344.552   3.49511e-34
      344.658   3.45455e-34
      344.764   3.41439e-34
      344.870   3.37472e-34
      344.976   3.33550e-34
      345.082   3.29676e-34
      345.188   3.25851e-34
      345.294   3.22067e-34
      345.401   3.18294e-34
      345.507   3.14600e-34
      345.613   3.10952e-34
      345.719   3.07346e-34
      345.826   3.03751e-34
      345.932   3.00230e-34
      346.039   2.96720e-34
      346.145   2.93280e-34
      346.252   2.89854e-34
      346.358   2.86501e-34
      346.465   2.83153e-34
      346.571   2.79878e-34
      346.678   2.76611e-34
      346.785   2.73383e-34
      346.891   2.70223e-34
      346.998   2.67073e-34
      347.105   2.63964e-34
      347.212   2.60887e-34
      347.319   2.57851e-34
      347.425   2.54873e-34
      347.532   2.51908e-34
      347.639   2.48980e-34
      347.746   2.46083e-34
      347.853   2.43227e-34
      347.960   2.40398e-34
      348.067   2.37610e-34
      348.174   2.34856e-34
      348.281   2.32128e-34
      348.389   2.29415e-34
      348.496   2.26751e-34
      348.603   2.24128e-34
      348.710   2.21530e-34
      348.818   2.18947e-34
      348.925   2.16411e-34
      349.032   2.13911e-34
      349.140   2.11412e-34
      349.247   2.08965e-34
      349.355   2.06530e-34
      349.462   2.04143e-34
      349.570   2.01760e-34
      349.677   1.99432e-34
      349.785   1.97108e-34
      349.892   1.94836e-34
      350.000   1.92570e-34
      350.100   1.90495e-34
      350.193   1.88589e-34
      350.287   1.86681e-34
      350.380   1.84811e-34
      350.473   1.82964e-34
      350.567   1.81113e-34
      350.660   1.79303e-34
      350.754   1.77492e-34
      350.847   1.75722e-34
      350.941   1.73949e-34
      351.034   1.72213e-34
      351.128   1.70478e-34
      351.221   1.68778e-34
      351.315   1.67081e-34
      351.409   1.65398e-34
      351.502   1.63752e-34
      351.596   1.62104e-34
      351.690   1.60475e-34
      351.783   1.58880e-34
      351.877   1.57288e-34
      351.971   1.55707e-34
      352.065   1.54145e-34
      352.159   1.52601e-34
      352.252   1.51087e-34
      352.346   1.49572e-34
      352.440   1.48074e-34
      352.534   1.46593e-34
      352.628   1.45128e-34
      352.722   1.43676e-34
      352.816   1.42239e-34
      352.910   1.40819e-34
      353.004   1.39412e-34
      353.098   1.38020e-34
      353.192   1.36642e-34
      353.287   1.35266e-34
      353.381   1.33917e-34
      353.475   1.32584e-34
      353.569   1.31261e-34
      353.663   1.29954e-34
      353.758   1.28648e-34
      353.852   1.27369e-34
      353.946   1.26103e-34
      354.041   1.24836e-34
      354.135   1.23595e-34
      354.229   1.22367e-34
      354.324   1.21141e-34
      354.418   1.19937e-34
      354.513   1.18734e-34
      354.607   1.17559e-34
      354.702   1.16378e-34
      354.796   1.15212e-34
      354.891   1.14043e-34
      354.985   1.12901e-34
      355.080   1.11756e-34
      355.175   1.10626e-34
      355.269   1.09517e-34
      355.364   1.08408e-34
      355.459   1.07312e-34
      355.553   1.06238e-34
      355.648   1.05164e-34
      355.743   1.04102e-34
      355.838   1.03049e-34
      355.933   1.02009e-34
      356.027   1.00991e-34
      356.122   9.99708e-35
      356.217   9.89617e-35
      356.312   9.79640e-35
      356.407   9.69759e-35
      356.502   9.59984e-35
      356.597   9.50293e-35
      356.692   9.40730e-35
      356.787   9.31253e-35
      356.882   9.21869e-35
      356.977   9.12587e-35
      357.073   9.03312e-35
      357.168   8.94209e-35
      357.263   8.85211e-35
      357.358   8.76307e-35
      357.453   8.67495e-35
      357.549   8.58683e-35
      357.644   8.50048e-35
      357.739   8.41505e-35
      357.835   8.32965e-35
      357.930   8.24597e-35
      358.025   8.16308e-35
      358.121   8.08019e-35
      358.216   7.99902e-35
      358.312   7.91782e-35
      358.407   7.83836e-35
      358.503   7.75882e-35
      358.598   7.68103e-35
      358.694   7.60314e-35
      358.790   7.52603e-35
      358.885   7.45045e-35
      358.981   7.37496e-35
      359.076   7.30092e-35
      359.172   7.22698e-35
      359.268   7.15365e-35
      359.364   7.08109e-35
      359.459   7.01014e-35
      359.555   6.93915e-35
      359.651   6.86878e-35
      359.747   6.79918e-35
      359.843   6.73030e-35
      359.939   6.66206e-35
      360.035   6.59457e-35
      360.131   6.52774e-35
      360.227   6.46158e-35
      360.323   6.39613e-35
      360.419   6.33135e-35
      360.515   6.26722e-35
      360.611   6.20372e-35
      360.707   6.14079e-35
      360.803   6.07859e-35
      360.899   6.01694e-35
      360.995   5.95605e-35
      361.092   5.89507e-35
      361.188   5.83530e-35
      361.284   5.77616e-35
      361.380   5.71763e-35
      361.477   5.65905e-35
      361.573   5.60171e-35
      361.669   5.54490e-35
      361.766   5.48801e-35
      361.862   5.43238e-35
      361.959   5.37674e-35
      362.055   5.32209e-35
      362.152   5.26756e-35
      362.248   5.21405e-35
      362.345   5.16053e-35
      362.441   5.10819e-35
      362.538   5.05580e-35
      362.635   5.00393e-35
      362.731   4.95304e-35
      362.828   4.90212e-35
      362.925   4.85179e-35
      363.021   4.80249e-35
      363.118   4.75314e-35
      363.215   4.70424e-35
      363.312   4.65585e-35
      363.409   4.60799e-35
      363.505   4.56106e-35
      363.602   4.51410e-35
      363.699   4.46769e-35
      363.796   4.42166e-35
      363.893   4.37611e-35
      363.990   4.33101e-35
      364.087   4.28636e-35
      364.184   4.24218e-35
      364.281   4.19843e-35
      364.378   4.15515e-35
      364.475   4.11226e-35
      364.573   4.06933e-35
      364.670   4.02727e-35
      364.767   3.98569e-35
      364.864   3.94451e-35
      364.961   3.90370e-35
      365.059   3.86292e-35
      365.156   3.82296e-35
      365.253   3.78339e-35
      365.351   3.74379e-35
      365.448   3.70499e-35
      365.545   3.66662e-35
      365.643   3.62819e-35
      365.740   3.59053e-35
      365.838   3.55289e-35
      365.935   3.51601e-35
      366.033   3.47914e-35
      366.130   3.44296e-35
      366.228   3.40680e-35
      366.326   3.37102e-35
      366.423   3.33592e-35
      366.521   3.30083e-35
      366.618   3.26642e-35
      366.716   3.23201e-35
      366.814   3.19796e-35
      366.912   3.16427e-35
      367.010   3.13092e-35
      367.107   3.09823e-35
      367.205   3.06551e-35
      367.303   3.03312e-35
      367.401   3.00107e-35
      367.499   2.96934e-35
      367.597   2.93793e-35
      367.695   2.90682e-35
      367.793   2.87604e-35
      367.891   2.84560e-35
      367.989   2.81544e-35
      368.087   2.78558e-35
      368.185   2.75601e-35
      368.283   2.72675e-35
      368.381   2.69778e-35
      368.480   2.66881e-35
      368.578   2.64043e-35
      368.676   2.61235e-35
      368.774   2.58455e-35
      368.873   2.55676e-35
      368.971   2.52952e-35
      369.069   2.50257e-35
      369.168   2.47558e-35
      369.266   2.44914e-35
      369.364   2.42299e-35
      369.463   2.39687e-35
      369.561   2.37125e-35
      369.660   2.34563e-35
      369.758   2.32052e-35
      369.857   2.29544e-35
      369.955   2.27086e-35
      370.054   2.24626e-35
      370.153   2.22191e-35
      370.251   2.19807e-35
      370.350   2.17425e-35
      370.449   2.15068e-35
      370.547   2.12757e-35
      370.646   2.10444e-35
      370.745   2.08158e-35
      370.844   2.05895e-35
      370.943   2.03656e-35
      371.041   2.01462e-35
      371.140   1.99267e-35
      371.239   1.97096e-35
      371.338   1.94949e-35
      371.437   1.92823e-35
      371.536   1.90719e-35
      371.635   1.88636e-35
      371.734   1.86577e-35
      371.833   1.84539e-35
      371.932   1.82521e-35
      372.032   1.80505e-35
      372.131   1.78528e-35
      372.230   1.76575e-35
      372.329   1.74643e-35
      372.428   1.72730e-35
      372.528   1.70818e-35
      372.627   1.68947e-35
      372.726   1.67095e-35
      372.826   1.65244e-35
      372.925   1.63431e-35
      373.024   1.61637e-35
      373.124   1.59842e-35
      373.223   1.58086e-35
      373.323   1.56332e-35
      373.422   1.54612e-35
      373.522   1.52893e-35
      373.621   1.51211e-35
      373.721   1.49529e-35
      373.820   1.47882e-35
      373.920   1.46235e-35
      374.020   1.44606e-35
      374.119   1.43011e-35
      374.219   1.41416e-35
      374.319   1.39840e-35
      374.419   1.38281e-35
      374.518   1.36753e-35
      374.618   1.35226e-35
      374.718   1.33714e-35
      374.818   1.32221e-35
      374.918   1.30743e-35
      375.018   1.29281e-35
      375.118   1.27836e-35
      375.218   1.26405e-35
      375.318   1.24991e-35
      375.418   1.23591e-35
      375.518   1.22208e-35
      375.618   1.20839e-35
      375.718   1.19484e-35
      375.818   1.18144e-35
      375.918   1.16819e-35
      376.019   1.15497e-35
      376.119   1.14201e-35
      376.219   1.12919e-35
      376.319   1.11652e-35
      376.420   1.10386e-35
      376.520   1.09145e-35
      376.620   1.07920e-35
      376.721   1.06695e-35
      376.821   1.05496e-35
      376.922   1.04298e-35
      377.022   1.03124e-35
      377.122   1.01965e-35
      377.223   1.00807e-35
      377.323   9.96728e-36
      377.424   9.85398e-36
      377.525   9.74202e-36
      377.625   9.63231e-36
      377.726   9.52277e-36
      377.827   9.41452e-36
      377.927   9.30845e-36
      378.028   9.20260e-36
      378.129   9.09790e-36
      378.230   9.01617e-36
      378.330   8.96927e-36
      378.431   8.92773e-36
      378.532   8.88644e-36
      378.633   8.84522e-36
      378.734   8.80426e-36
      378.835   8.76344e-36
      378.936   8.72281e-36
      379.037   8.68229e-36
      379.138   8.64184e-36
      379.239   8.60167e-36
      379.340   8.56177e-36
      379.441   8.52200e-36
      379.542   8.48232e-36
      379.643   8.44286e-36
      379.745   8.40316e-36
      379.846   8.36404e-36
      379.947   8.32497e-36
      380.048   8.28617e-36
      380.150   8.24717e-36
      380.251   8.20871e-36
      380.352   8.17043e-36
      380.454   8.13198e-36
      380.555   8.09399e-36
      380.656   8.05613e-36
      380.758   8.01815e-36
      380.859   7.98066e-36
      380.961   7.94301e-36
      381.062   7.90590e-36
      381.164   7.86861e-36
      381.266   7.83145e-36
      381.367   7.79485e-36
      381.469   7.75809e-36
      381.570   7.72185e-36
      381.672   7.68534e-36
      381.774   7.64907e-36
      381.876   7.61294e-36
      381.977   7.57738e-36
      382.079   7.54157e-36
      382.181   7.50595e-36
      382.283   7.47055e-36
      382.385   7.43527e-36
      382.487   7.40021e-36
      382.589   7.36527e-36
      382.691   7.33048e-36
      382.793   7.29590e-36
      382.895   7.26152e-36
      382.997   7.22730e-36
      383.099   7.19321e-36
      383.201   7.15927e-36
      383.303   7.12559e-36
      383.405   7.09195e-36
      383.507   7.05846e-36
      383.610   7.02492e-36
      383.712   6.99183e-36
      383.814   6.95892e-36
      383.916   6.92622e-36
      384.019   6.89330e-36
      384.121   6.86091e-36
      384.223   6.82857e-36
      384.326   6.79875e-36
      384.428   6.77576e-36
      384.531   6.75454e-36
      384.633   6.73363e-36
      384.736   6.71259e-36
      384.838   6.69174e-36
      384.941   6.67083e-36
      385.043   6.65016e-36
      385.146   6.62950e-36
      385.249   6.60878e-36
      385.351   6.58833e-36
      385.454   6.56783e-36
      385.557   6.54737e-36
      385.660   6.52703e-36
      385.762   6.50694e-36
      385.865   6.48672e-36
      385.968   6.46656e-36
      386.071   6.44651e-36
      386.174   6.42649e-36
      386.277   6.40655e-36
      386.380   6.38670e-36
      386.483   6.36690e-36
      386.586   6.34731e-36
      386.689   6.32769e-36
      386.792   6.30814e-36
      386.895   6.28865e-36
      386.998   6.26929e-36
      387.101   6.24994e-36
      387.204   6.23062e-36
      387.308   6.21133e-36
      387.411   6.19227e-36
      387.514   6.17324e-36
      387.617   6.15427e-36
      387.721   6.13521e-36
      387.824   6.11645e-36
      387.927   6.09772e-36
      388.031   6.07888e-36
      388.134   6.06028e-36
      388.238   6.04163e-36
      388.341   6.02318e-36
      388.445   6.00469e-36
      388.548   5.98636e-36
      388.652   5.96806e-36
      388.755   5.94993e-36
      388.859   5.93164e-36
      388.962   5.91363e-36
      389.066   5.89551e-36
      389.170   5.87750e-36
      389.274   5.85959e-36
      389.377   5.84195e-36
      389.481   5.82410e-36
      389.585   5.80635e-36
      389.689   5.78865e-36
      389.793   5.77109e-36
      389.897   5.75354e-36
      390.000   5.73630e-36
      390.104   5.71892e-36
      390.208   5.70157e-36
      390.312   5.68431e-36
      390.416   5.66708e-36
      390.520   5.64986e-36
      390.625   5.63258e-36
      390.729   5.61547e-36
      390.833   5.59846e-36
      390.937   5.58153e-36
      391.041   5.56466e-36
      391.145   5.54777e-36
      391.250   5.53089e-36
      391.354   5.51418e-36
      391.458   5.49752e-36
      391.563   5.48080e-36
      391.667   5.46432e-36
      391.771   5.44791e-36
      391.876   5.43141e-36
      391.980   5.41508e-36
      392.085   5.39868e-36
      392.189   5.38253e-36
      392.294   5.36627e-36
      392.398   5.35023e-36
      392.503   5.33409e-36
      392.607   5.31812e-36
      392.712   5.30217e-36
      392.817   5.28615e-36
      392.921   5.27047e-36
      393.026   5.25460e-36
      393.131   5.23884e-36
      393.236   5.22309e-36
      393.340   5.20764e-36
      393.445   5.19209e-36
      393.550   5.17651e-36
      393.655   5.16106e-36
      393.760   5.14564e-36
      393.865   5.13033e-36
      393.970   5.11500e-36
      394.075   5.09975e-36
      394.180   5.08463e-36
      394.285   5.06953e-36
      394.390   5.05441e-36
      394.495   5.03939e-36
      394.600   5.02445e-36
      394.706   5.00939e-36
      394.811   4.99459e-36
      394.916   4.97971e-36
      395.021   4.96497e-36
      395.126   4.95029e-36
      395.232   4.93550e-36
      395.337   4.92086e-36
      395.443   4.90621e-36
      395.548   4.89168e-36
      395.653   4.87719e-36
      395.759   4.86271e-36
      395.864   4.84839e-36
      395.970   4.83397e-36
      396.075   4.81972e-36
      396.181   4.80538e-36
      396.286   4.79116e-36
      396.392   4.77696e-36
      396.498   4.76281e-36
      396.603   4.74873e-36
      396.709   4.73460e-36
      396.815   4.72046e-36
      396.921   4.70644e-36
      397.026   4.69260e-36
      397.132   4.67871e-36
      397.238   4.66482e-36
      397.344   4.65097e-36
      397.450   4.63721e-36
      397.556   4.62343e-36
      397.662   4.60969e-36
      397.768   4.59601e-36
      397.874   4.58247e-36
      397.980   4.56879e-36
      398.086   4.55529e-36
      398.192   4.54172e-36
      398.298   4.52821e-36
      398.404   4.51487e-36
      398.510   4.50144e-36
      398.617   4.48792e-36
      398.723   4.47459e-36
      398.829   4.46131e-36
      398.935   4.44801e-36
      399.042   4.43474e-36
      399.148   4.42150e-36
      399.255   4.40822e-36
      399.361   4.39509e-36
      399.467   4.38198e-36
      399.574   4.36886e-36
      399.680   4.35579e-36
      399.787   4.34262e-36
      399.893       0.00000
      400.000       0.00000
