Filter Ti-poly
observation_date 22-Sept-2013 22:40:45
wavelength effective area 
      1.00000   2.76777e-10
      1.10000   7.88641e-10
      1.20000   2.04570e-09
      1.30000   4.87937e-09
      1.40000   1.10401e-08
      1.50000   2.34775e-08
      1.60000   4.73592e-08
      1.70000   9.15829e-08
      1.80000   1.69779e-07
      1.90000   3.03746e-07
      2.00000   5.25463e-07
      2.10000   8.82876e-07
      2.20000   1.44765e-06
      2.30000   2.31344e-06
      2.40000   3.60964e-06
      2.50000   5.78554e-06
      2.60000   8.95696e-06
      2.70000   1.33536e-05
      2.80000   1.95279e-05
      2.90000   2.82636e-05
      3.00000   4.02692e-05
      3.10000   5.66376e-05
      3.20000   7.87904e-05
      3.30000   0.000108494
      3.40000   0.000147841
      3.50000   0.000199511
      3.60000   0.000268002
      3.70000   0.000356188
      3.80000   0.000471436
      3.90000   0.000620519
      4.00000   0.000811675
      4.10000    0.00105681
      4.20000    0.00137108
      4.30000    0.00177378
      4.40000    0.00228867
      4.50000    0.00294495
      4.60000    0.00377674
      4.70000    0.00484337
      4.80000    0.00620498
      4.90000    0.00784724
      5.00000     0.0101856
      5.10000     0.0130346
      5.20000     0.0167300
      5.30000     0.0212919
      5.40000     0.0270544
      5.50000     0.0344370
      5.60000     0.0424901
      5.70000     0.0552329
      5.80000     0.0647535
      5.90000     0.0988701
      6.00000      0.132908
      6.10000      0.169871
      6.20000      0.208603
      6.30000      0.245546
      6.40000      0.277246
      6.50000      0.300586
      6.60000      0.311146
      6.70000      0.320855
      6.80000      0.321290
      6.90000      0.421519
      7.00000      0.458407
      7.10000      0.484812
      7.20000      0.505787
      7.30000      0.522892
      7.40000      0.535946
      7.50000      0.546333
      7.60000      0.554162
      7.70000      0.557966
      7.80000      0.556665
      7.90000      0.556026
      8.00000      0.803899
      8.10000      0.879744
      8.20000      0.893733
      8.30000      0.903633
      8.40000      0.910052
      8.50000      0.915022
      8.60000      0.918262
      8.70000      0.920375
      8.80000      0.921061
      8.90000      0.920785
      9.00000      0.919481
      9.10000      0.917200
      9.20000      0.914125
      9.30000      0.910176
      9.40000      0.905497
      9.50000      0.900147
      9.60000      0.894079
      9.70000      0.887398
      9.80000      0.880254
      9.90000      0.872675
      10.0000      0.864722
      10.1000      0.856405
      10.2000      0.847750
      10.3000      0.838703
      10.4000      0.829290
      10.5000      0.819537
      10.6000      0.809484
      10.7000      0.799154
      10.8000      0.788556
      10.9000      0.777724
      11.0000      0.766672
      11.1000      0.755432
      11.2000      0.744011
      11.3000      0.732441
      11.4000      0.720717
      11.5000      0.708842
      11.6000      0.696835
      11.7000      0.684643
      11.8000      0.672348
      11.9000      0.659867
      12.0000      0.646521
      12.1000      0.635530
      12.2000      0.635666
      12.3000      0.629080
      12.4000      0.617845
      12.5000      0.606226
      12.6000      0.594471
      12.7000      0.582678
      12.8000      0.570884
      12.9000      0.559102
      13.0000      0.547373
      13.1000      0.535728
      13.2000      0.524182
      13.3000      0.512750
      13.4000      0.501449
      13.5000      0.490409
      13.6000      0.479606
      13.7000      0.468929
      13.8000      0.458371
      13.9000      0.447955
      14.0000      0.437677
      14.1000      0.427523
      14.2000      0.417495
      14.3000      0.407590
      14.4000      0.397798
      14.5000      0.388132
      14.6000      0.378594
      14.7000      0.369176
      14.8000      0.359881
      14.9000      0.350711
      15.0000      0.341671
      15.1000      0.332765
      15.2000      0.324020
      15.3000      0.315418
      15.4000      0.306954
      15.5000      0.298631
      15.6000      0.290465
      15.7000      0.282454
      15.8000      0.274635
      15.9000      0.266979
      16.0000      0.259483
      16.1000      0.252150
      16.2000      0.245017
      16.3000      0.238035
      16.4000      0.231190
      16.5000      0.224478
      16.6000      0.217913
      16.7000      0.211498
      16.8000      0.205206
      16.9000      0.199035
      17.0000      0.193008
      17.1000      0.187123
      17.2000      0.181351
      17.3000      0.175699
      17.4000      0.170292
      17.5000      0.165095
      17.6000      0.160080
      17.7000      0.155273
      17.8000      0.150766
      17.9000      0.146358
      18.0000      0.142017
      18.1000      0.137788
      18.2000      0.133599
      18.3000      0.129442
      18.4000      0.125310
      18.5000      0.121210
      18.6000      0.117130
      18.7000      0.113055
      18.8000      0.109092
      18.9000      0.105211
      19.0000      0.101446
      19.1000     0.0978031
      19.2000     0.0942487
      19.3000     0.0908359
      19.4000     0.0875368
      19.5000     0.0843227
      19.6000     0.0812710
      19.7000     0.0783036
      19.8000     0.0754123
      19.9000     0.0726638
      20.0000     0.0699739
      20.1000     0.0673645
      20.2000     0.0648430
      20.3000     0.0623720
      20.4000     0.0599973
      20.5000     0.0576807
      20.6000     0.0554169
      20.7000     0.0532461
      20.8000     0.0511158
      20.9000     0.0490582
      21.0000     0.0471568
      21.1000     0.0453755
      21.2000     0.0439533
      21.3000     0.0426343
      21.4000     0.0415390
      21.5000     0.0406959
      21.6000     0.0401068
      21.7000     0.0394885
      21.8000     0.0388599
      21.9000     0.0381498
      22.0000     0.0373901
      22.1000     0.0365081
      22.2000     0.0354085
      22.3000     0.0341213
      22.4000     0.0321456
      22.5000     0.0299604
      22.6000     0.0252369
      22.7000     0.0223076
      22.8000     0.0285323
      22.9000     0.0363702
      23.0000     0.0455981
      23.1000     0.0511999
      23.2000     0.0533645
      23.3000     0.0531935
      23.4000     0.0518505
      23.5000     0.0504761
      23.6000     0.0490989
      23.7000     0.0476367
      23.8000     0.0461754
      23.9000     0.0447522
      24.0000     0.0433378
      24.1000     0.0419444
      24.2000     0.0405678
      24.3000     0.0392369
      24.4000     0.0379239
      24.5000     0.0366487
      24.6000     0.0353968
      24.7000     0.0341883
      24.8000     0.0330032
      24.9000     0.0318569
      25.0000     0.0307356
      25.1000     0.0296545
      25.2000     0.0285967
      25.3000     0.0275767
      25.4000     0.0265795
      25.5000     0.0256218
      25.6000     0.0246847
      25.7000     0.0237875
      25.8000     0.0229072
      25.9000     0.0220672
      26.0000     0.0212400
      26.1000     0.0204535
      26.2000     0.0196759
      26.3000     0.0189418
      26.4000     0.0182119
      26.5000     0.0175264
      26.6000     0.0168444
      26.7000     0.0162022
      26.8000     0.0155683
      26.9000     0.0149653
      27.0000     0.0143740
      27.1000     0.0138050
      27.2000     0.0132511
      27.3000     0.0571355
      27.4000      0.156358
      27.5000      0.228577
      27.6000      0.224858
      27.7000      0.221150
      27.8000      0.217363
      27.9000      0.213594
      28.0000      0.209895
      28.1000      0.206225
      28.2000      0.202613
      28.3000      0.199046
      28.4000      0.195521
      28.5000      0.192060
      28.6000      0.188623
      28.7000      0.185296
      28.8000      0.181984
      28.9000      0.178740
      29.0000      0.175526
      29.1000      0.172356
      29.2000      0.169235
      29.3000      0.166139
      29.4000      0.163114
      29.5000      0.160104
      29.6000      0.157160
      29.7000      0.154244
      29.8000      0.151370
      29.9000      0.148548
      30.0000      0.145742
      30.1000      0.143011
      30.2000      0.140294
      30.3000      0.143039
      30.4000      0.148885
      30.5000      0.152880
      30.6000      0.150110
      30.7000      0.147354
      30.8000      0.144661
      30.9000      0.141996
      31.0000      0.139365
      31.1000      0.136793
      31.2000      0.134235
      31.3000      0.131742
      31.4000      0.129272
      31.5000      0.126839
      31.6000      0.124469
      31.7000      0.122111
      31.8000      0.119809
      31.9000      0.117530
      32.0000      0.115261
      32.1000      0.112999
      32.2000      0.110749
      32.3000      0.108554
      32.4000      0.106391
      32.5000      0.104248
      32.6000      0.102190
      32.7000      0.100145
      32.8000     0.0981415
      32.9000     0.0961774
      33.0000     0.0942237
      33.1000     0.0923827
      33.2000     0.0905674
      33.3000     0.0887752
      33.4000     0.0870315
      33.5000     0.0852983
      33.6000     0.0836060
      33.7000     0.0819450
      33.8000     0.0802925
      33.9000     0.0786943
      34.0000     0.0771107
      34.1000     0.0755547
      34.2000     0.0740429
      34.3000     0.0725385
      34.4000     0.0710630
      34.5000     0.0696226
      34.6000     0.0681893
      34.7000     0.0667881
      34.8000     0.0654055
      34.9000     0.0640298
      35.0000     0.0627044
      35.1000     0.0613900
      35.2000     0.0600910
      35.3000     0.0588705
      35.4000     0.0576561
      35.5000     0.0564601
      35.6000     0.0553001
      35.7000     0.0541460
      35.8000     0.0530159
      35.9000     0.0519145
      36.0000     0.0508185
      36.1000     0.0497513
      36.2000     0.0487064
      36.3000     0.0476667
      36.4000     0.0466588
      36.5000     0.0456679
      36.6000     0.0446821
      36.7000     0.0437306
      36.8000     0.0427924
      36.9000     0.0418590
      37.0000     0.0409610
      37.1000     0.0400735
      37.2000     0.0391904
      37.3000     0.0383432
      37.4000     0.0375045
      37.5000     0.0366701
      37.6000     0.0358706
      37.7000     0.0350785
      37.8000     0.0342906
      37.9000     0.0335363
      38.0000     0.0327895
      38.1000     0.0320466
      38.2000     0.0313348
      38.3000     0.0306311
      38.4000     0.0299311
      38.5000     0.0292594
      38.6000     0.0285971
      38.7000     0.0279383
      38.8000     0.0273044
      38.9000     0.0266818
      39.0000     0.0260624
      39.1000     0.0254639
      39.2000     0.0248793
      39.3000     0.0242977
      39.4000     0.0237326
      39.5000     0.0231841
      39.6000     0.0226386
      39.7000     0.0221048
      39.8000     0.0215911
      39.9000     0.0210801
      40.0000     0.0205759
      40.1000     0.0200959
      40.2000     0.0196185
      40.3000     0.0191435
      40.4000     0.0186938
      40.5000     0.0182475
      40.6000     0.0178035
      40.7000     0.0173784
      40.8000     0.0169617
      40.9000     0.0165472
      41.0000     0.0161450
      41.1000     0.0157563
      41.2000     0.0153696
      41.3000     0.0149892
      41.4000     0.0146277
      41.5000     0.0142681
      41.6000     0.0139105
      41.7000     0.0135717
      41.8000     0.0132371
      41.9000     0.0129044
      42.0000     0.0125837
      42.1000     0.0122732
      42.2000     0.0119643
      42.3000     0.0116602
      42.4000     0.0113721
      42.5000     0.0110855
      42.6000     0.0108004
      42.7000     0.0105298
      42.8000     0.0102640
      42.9000    0.00999967
      43.0000    0.00974260
      43.1000    0.00949669
      43.2000    0.00925211
      43.3000    0.00900882
      43.4000     0.0274855
      43.5000     0.0497364
      43.6000     0.0768428
      43.7000     0.0987557
      43.8000      0.106767
      43.9000      0.107530
      44.0000      0.105619
      44.1000      0.101200
      44.2000     0.0995833
      44.3000     0.0982131
      44.4000     0.0968639
      44.5000     0.0955413
      44.6000     0.0942221
      44.7000     0.0929062
      44.8000     0.0916324
      44.9000     0.0903674
      45.0000     0.0891055
      45.1000     0.0878585
      45.2000     0.0866425
      45.3000     0.0854297
      45.4000     0.0842198
      45.5000     0.0830397
      45.6000     0.0818750
      45.7000     0.0807134
      45.8000     0.0795560
      45.9000     0.0784382
      46.0000     0.0773230
      46.1000     0.0762108
      46.2000     0.0751485
      46.3000     0.0741703
      46.4000     0.0731946
      46.5000     0.0722213
      46.6000     0.0712833
      46.7000     0.0703640
      46.8000     0.0694470
      46.9000     0.0685323
      47.0000     0.0676659
      47.1000     0.0668048
      47.2000     0.0659458
      47.3000     0.0650944
      47.4000     0.0642711
      47.5000     0.0634497
      47.6000     0.0626304
      47.7000     0.0618268
      47.8000     0.0610471
      47.9000     0.0602692
      48.0000     0.0594933
      48.1000     0.0587349
      48.2000     0.0579903
      48.3000     0.0572475
      48.4000     0.0565065
      48.5000     0.0557923
      48.6000     0.0550896
      48.7000     0.0543887
      48.8000     0.0536894
      48.9000     0.0530135
      49.0000     0.0523435
      49.1000     0.0516751
      49.2000     0.0510084
      49.3000     0.0503644
      49.4000     0.0497237
      49.5000     0.0490845
      49.6000     0.0484469
      49.7000     0.0478321
      49.8000     0.0472192
      49.9000     0.0466078
      50.0000     0.0459986
      50.1000     0.0454082
      50.2000     0.0448313
      50.3000     0.0442611
      50.4000     0.0436972
      50.5000     0.0431392
      50.6000     0.0425879
      50.7000     0.0420431
      50.8000     0.0415045
      50.9000     0.0409725
      51.0000     0.0404469
      51.1000     0.0399277
      51.2000     0.0394143
      51.3000     0.0389077
      51.4000     0.0384078
      51.5000     0.0379122
      51.6000     0.0374220
      51.7000     0.0369368
      51.8000     0.0364522
      51.9000     0.0359728
      52.0000     0.0354984
      52.1000     0.0350297
      52.2000     0.0345660
      52.3000     0.0341070
      52.4000     0.0336549
      52.5000     0.0332079
      52.6000     0.0327556
      52.7000     0.0322981
      52.8000     0.0318455
      52.9000     0.0313992
      53.0000     0.0309589
      53.1000     0.0305233
      53.2000     0.0300938
      53.3000     0.0296694
      53.4000     0.0292496
      53.5000     0.0288354
      53.6000     0.0284264
      53.7000     0.0280219
      53.8000     0.0276226
      53.9000     0.0272281
      54.0000     0.0268390
      54.1000     0.0264558
      54.2000     0.0260770
      54.3000     0.0257021
      54.4000     0.0253320
      54.5000     0.0249665
      54.6000     0.0246056
      54.7000     0.0242504
      54.8000     0.0238998
      54.9000     0.0235533
      55.0000     0.0232111
      55.1000     0.0228726
      55.2000     0.0225280
      55.3000     0.0221793
      55.4000     0.0218354
      55.5000     0.0214954
      55.6000     0.0211602
      55.7000     0.0208297
      55.8000     0.0205033
      55.9000     0.0201818
      56.0000     0.0198678
      56.1000     0.0195542
      56.2000     0.0192414
      56.3000     0.0189331
      56.4000     0.0186288
      56.5000     0.0183287
      56.6000     0.0180332
      56.7000     0.0177421
      56.8000     0.0174547
      56.9000     0.0171719
      57.0000     0.0168999
      57.1000     0.0166361
      57.2000     0.0163759
      57.3000     0.0161192
      57.4000     0.0158658
      57.5000     0.0156158
      57.6000     0.0153693
      57.7000     0.0151261
      57.8000     0.0148868
      57.9000     0.0146513
      58.0000     0.0144189
      58.1000     0.0141893
      58.2000     0.0139630
      58.3000     0.0137399
      58.4000     0.0135198
      58.5000     0.0133030
      58.6000     0.0130896
      58.7000     0.0128793
      58.8000     0.0126717
      58.9000     0.0124670
      59.0000     0.0122652
      59.1000     0.0120663
      59.2000     0.0118703
      59.3000     0.0116773
      59.4000     0.0114871
      59.5000     0.0112997
      59.6000     0.0111150
      59.7000     0.0109330
      59.8000     0.0107534
      59.9000     0.0105763
      60.0000     0.0104023
      60.1000     0.0102307
      60.2000     0.0100615
      60.3000    0.00989494
      60.4000    0.00973093
      60.5000    0.00956947
      60.6000    0.00941015
      60.7000    0.00925298
      60.8000    0.00909804
      60.9000    0.00894521
      61.0000    0.00879481
      61.1000    0.00864690
      61.2000    0.00850122
      61.3000    0.00835770
      61.4000    0.00821636
      61.5000    0.00807715
      61.6000    0.00793993
      61.7000    0.00780518
      61.8000    0.00767482
      61.9000    0.00754724
      62.0000    0.00742155
      62.1000    0.00729772
      62.2000    0.00717595
      62.3000    0.00705601
      62.4000    0.00693774
      62.5000    0.00682119
      62.6000    0.00670639
      62.7000    0.00659374
      62.8000    0.00648793
      62.9000    0.00638381
      63.0000    0.00628126
      63.1000    0.00618020
      63.2000    0.00608052
      63.3000    0.00598222
      63.4000    0.00588539
      63.5000    0.00579008
      63.6000    0.00569610
      63.7000    0.00560345
      63.8000    0.00551227
      63.9000    0.00542250
      64.0000    0.00533404
      64.1000    0.00524690
      64.2000    0.00516117
      64.3000    0.00507677
      64.4000    0.00499354
      64.5000    0.00491144
      64.6000    0.00483050
      64.7000    0.00475074
      64.8000    0.00467215
      64.9000    0.00459473
      65.0000    0.00451853
      65.1000    0.00444367
      65.2000    0.00436996
      65.3000    0.00429729
      65.4000    0.00422566
      65.5000    0.00415505
      65.6000    0.00408543
      65.7000    0.00401690
      65.8000    0.00394947
      65.9000    0.00388315
      66.0000    0.00381794
      66.1000    0.00375378
      66.2000    0.00369057
      66.3000    0.00362830
      66.4000    0.00356696
      66.5000    0.00350652
      66.6000    0.00344695
      66.7000    0.00338832
      66.8000    0.00333069
      66.9000    0.00327437
      67.0000    0.00321925
      67.1000    0.00316501
      67.2000    0.00311161
      67.3000    0.00305907
      67.4000    0.00300731
      67.5000    0.00295632
      67.6000    0.00290611
      67.7000    0.00285670
      67.8000    0.00280799
      67.9000    0.00275985
      68.0000    0.00271245
      68.1000    0.00266586
      68.2000    0.00262000
      68.3000    0.00257488
      68.4000    0.00253046
      68.5000    0.00248676
      68.6000    0.00244378
      68.7000    0.00240150
      68.8000    0.00235987
      68.9000    0.00231950
      69.0000    0.00228300
      69.1000    0.00225006
      69.2000    0.00221810
      69.3000    0.00218698
      69.4000    0.00215708
      69.5000    0.00212663
      69.6000    0.00209528
      69.7000    0.00206520
      69.8000    0.00203659
      69.9000    0.00200837
      70.0000    0.00198045
      70.1000    0.00195234
      70.2000    0.00192562
      70.3000    0.00190028
      70.4000    0.00187502
      70.5000    0.00185043
      70.6000    0.00182645
      70.7000    0.00180279
      70.8000    0.00177938
      70.9000    0.00175543
      71.0000    0.00173102
      71.1000    0.00170773
      71.2000    0.00168556
      71.3000    0.00166207
      71.4000    0.00163696
      71.5000    0.00161383
      71.6000    0.00159356
      71.7000    0.00157317
      71.8000    0.00155210
      71.9000    0.00153177
      72.0000    0.00151296
      72.1000    0.00149376
      72.2000    0.00147174
      72.3000    0.00145011
      72.4000    0.00143114
      72.5000    0.00141245
      72.6000    0.00139402
      72.7000    0.00137583
      72.8000    0.00135786
      72.9000    0.00134014
      73.0000    0.00132305
      73.1000    0.00130638
      73.2000    0.00128993
      73.3000    0.00127368
      73.4000    0.00125779
      73.5000    0.00124236
      73.6000    0.00122714
      73.7000    0.00121211
      73.8000    0.00119726
      73.9000    0.00118258
      74.0000    0.00116816
      74.1000    0.00115506
      74.2000    0.00114245
      74.3000    0.00112881
      74.4000    0.00111447
      74.5000    0.00110053
      74.6000    0.00108729
      74.7000    0.00107421
      74.8000    0.00106135
      74.9000    0.00104877
      75.0000    0.00103625
      75.1000    0.00102382
      75.2000    0.00101152
      75.3000   0.000999348
      75.4000   0.000987434
      75.5000   0.000975915
      75.6000   0.000964533
      75.7000   0.000953288
      75.8000   0.000942191
      75.9000   0.000931365
      76.0000   0.000920790
      76.1000   0.000911015
      76.2000   0.000901440
      76.3000   0.000891978
      76.4000   0.000882788
      76.5000   0.000873706
      76.6000   0.000864706
      76.7000   0.000855789
      76.8000   0.000846959
      76.9000   0.000838222
      77.0000   0.000829583
      77.1000   0.000821043
      77.2000   0.000812597
      77.3000   0.000804236
      77.4000   0.000795952
      77.5000   0.000787724
      77.6000   0.000779396
      77.7000   0.000771149
      77.8000   0.000762978
      77.9000   0.000754880
      78.0000   0.000746748
      78.1000   0.000738378
      78.2000   0.000730116
      78.3000   0.000722656
      78.4000   0.000715531
      78.5000   0.000708400
      78.6000   0.000701115
      78.7000   0.000693902
      78.8000   0.000686483
      78.9000   0.000679068
      79.0000   0.000671729
      79.1000   0.000664460
      79.2000   0.000657282
      79.3000   0.000650401
      79.4000   0.000643671
      79.5000   0.000636943
      79.6000   0.000630053
      79.7000   0.000623225
      79.8000   0.000616347
      79.9000   0.000609479
      80.0000   0.000602653
      80.1000   0.000595631
      80.2000   0.000588668
      80.3000   0.000581490
      80.4000   0.000574120
      80.5000   0.000566820
      80.6000   0.000559611
      80.7000   0.000552487
      80.8000   0.000545491
      80.9000   0.000538679
      81.0000   0.000531943
      81.1000   0.000525289
      81.2000   0.000518716
      81.3000   0.000512233
      81.4000   0.000506339
      81.5000   0.000500543
      81.6000   0.000494957
      81.7000   0.000489741
      81.8000   0.000484594
      81.9000   0.000479706
      82.0000   0.000474977
      82.1000   0.000470311
      82.2000   0.000465525
      82.3000   0.000460789
      82.4000   0.000456212
      82.5000   0.000451849
      82.6000   0.000447516
      82.7000   0.000443085
      82.8000   0.000438535
      82.9000   0.000434019
      83.0000   0.000429595
      83.1000   0.000425236
      83.2000   0.000420920
      83.3000   0.000416649
      83.4000   0.000412427
      83.5000   0.000408268
      83.6000   0.000404259
      83.7000   0.000400288
      83.8000   0.000396326
      83.9000   0.000392328
      84.0000   0.000388365
      84.1000   0.000384502
      84.2000   0.000380771
      84.3000   0.000377073
      84.4000   0.000373361
      84.5000   0.000369647
      84.6000   0.000365968
      84.7000   0.000362397
      84.8000   0.000358901
      84.9000   0.000355443
      85.0000   0.000351919
      85.1000   0.000348401
      85.2000   0.000344921
      85.3000   0.000341628
      85.4000   0.000338392
      85.5000   0.000335188
      85.6000   0.000331937
      85.7000   0.000328710
      85.8000   0.000325512
      85.9000   0.000322340
      86.0000   0.000319195
      86.1000   0.000316079
      86.2000   0.000313092
      86.3000   0.000310135
      86.4000   0.000307205
      86.5000   0.000304299
      86.6000   0.000301419
      86.7000   0.000298564
      86.8000   0.000295502
      86.9000   0.000292463
      87.0000   0.000289457
      87.1000   0.000286531
      87.2000   0.000283642
      87.3000   0.000280782
      87.4000   0.000277869
      87.5000   0.000274968
      87.6000   0.000272091
      87.7000   0.000269289
      87.8000   0.000266524
      87.9000   0.000263781
      88.0000   0.000261064
      88.1000   0.000258372
      88.2000   0.000255707
      88.3000   0.000253130
      88.4000   0.000250634
      88.5000   0.000248169
      88.6000   0.000245709
      88.7000   0.000243240
      88.8000   0.000240799
      88.9000   0.000238377
      89.0000   0.000235968
      89.1000   0.000233584
      89.2000   0.000231233
      89.3000   0.000228939
      89.4000   0.000226710
      89.5000   0.000224502
      89.6000   0.000222314
      89.7000   0.000220143
      89.8000   0.000217990
      89.9000   0.000215852
      90.0000   0.000213733
      90.1000   0.000211635
      90.2000   0.000209505
      90.3000   0.000207280
      90.4000   0.000205075
      90.5000   0.000202896
      90.6000   0.000200781
      90.7000   0.000198679
      90.8000   0.000196576
      90.9000   0.000194447
      91.0000   0.000192327
      91.1000   0.000190228
      91.2000   0.000188121
      91.3000   0.000185986
      91.4000   0.000183868
      91.5000   0.000181772
      91.6000   0.000179698
      91.7000   0.000177834
      91.8000   0.000176281
      91.9000   0.000175089
      92.0000   0.000173691
      92.1000   0.000172259
      92.2000   0.000170720
      92.3000   0.000169091
      92.4000   0.000167415
      92.5000   0.000165758
      92.6000   0.000164117
      92.7000   0.000162493
      92.8000   0.000160884
      92.9000   0.000159311
      93.0000   0.000157803
      93.1000   0.000156307
      93.2000   0.000154825
      93.3000   0.000153418
      93.4000   0.000152045
      93.5000   0.000150682
      93.6000   0.000149327
      93.7000   0.000147974
      93.8000   0.000146619
      93.9000   0.000145276
      94.0000   0.000143943
      94.1000   0.000142619
      94.2000   0.000141309
      94.3000   0.000140022
      94.4000   0.000138788
      94.5000   0.000137569
      94.6000   0.000136361
      94.7000   0.000135165
      94.8000   0.000133979
      94.9000   0.000132802
      95.0000   0.000131634
      95.1000   0.000130478
      95.2000   0.000129328
      95.3000   0.000128185
      95.4000   0.000127056
      95.5000   0.000125957
      95.6000   0.000124866
      95.7000   0.000123784
      95.8000   0.000122694
      95.9000   0.000121606
      96.0000   0.000120525
      96.1000   0.000119451
      96.2000   0.000118385
      96.3000   0.000117329
      96.4000   0.000116282
      96.5000   0.000115244
      96.6000   0.000114219
      96.7000   0.000113205
      96.8000   0.000112196
      96.9000   0.000111194
      97.0000   0.000110200
      97.1000   0.000109219
      97.2000   0.000108245
      97.3000   0.000107263
      97.4000   0.000106277
      97.5000   0.000105302
      97.6000   0.000104337
      97.7000   0.000103386
      97.8000   0.000102448
      97.9000   0.000101519
      98.0000   0.000100596
      98.1000   9.96788e-05
      98.2000   9.87696e-05
      98.3000   9.79426e-05
      98.4000   9.71580e-05
      98.5000   9.64034e-05
      98.6000   9.56545e-05
      98.7000   9.49107e-05
      98.8000   9.41716e-05
      98.9000   9.34375e-05
      99.0000   9.27115e-05
      99.1000   9.19912e-05
      99.2000   9.12709e-05
      99.3000   9.05284e-05
      99.4000   8.97926e-05
      99.5000   8.90627e-05
      99.6000   8.83448e-05
      99.7000   8.76737e-05
      99.8000   8.70260e-05
      99.9000   8.65479e-05
      100.000   8.63269e-05
      100.100   8.60764e-05
      100.200   8.58253e-05
      100.300   8.55740e-05
      100.400   8.53229e-05
      100.500   8.50835e-05
      100.600   8.48428e-05
      100.700   8.46018e-05
      100.800   8.43603e-05
      100.900   8.41187e-05
      101.000   8.38775e-05
      101.100   8.36371e-05
      101.200   8.33977e-05
      101.300   8.31595e-05
      101.400   8.29222e-05
      101.500   8.26574e-05
      101.600   8.23570e-05
      101.700   8.20656e-05
      101.800   8.17774e-05
      101.900   8.14895e-05
      102.000   8.12034e-05
      102.100   8.09303e-05
      102.200   8.06637e-05
      102.300   8.03971e-05
      102.400   8.01309e-05
      102.500   7.98646e-05
      102.600   7.95979e-05
      102.700   7.93308e-05
      102.800   7.90635e-05
      102.900   7.87961e-05
      103.000   7.85287e-05
      103.100   7.82619e-05
      103.200   7.79958e-05
      103.300   7.77304e-05
      103.400   7.74657e-05
      103.500   7.72016e-05
      103.600   7.69380e-05
      103.700   7.66736e-05
      103.800   7.63913e-05
      103.900   7.60878e-05
      104.000   7.57837e-05
      104.100   7.54809e-05
      104.200   7.51877e-05
      104.300   7.49503e-05
      104.400   7.47153e-05
      104.500   7.44809e-05
      104.600   7.42462e-05
      104.700   7.39941e-05
      104.800   7.37350e-05
      104.900   7.34759e-05
      105.000   7.32172e-05
      105.100   7.29713e-05
      105.200   7.27564e-05
      105.300   7.25424e-05
      105.400   7.23285e-05
      105.500   7.21149e-05
      105.600   7.19087e-05
      105.700   7.17041e-05
      105.800   7.14992e-05
      105.900   7.12946e-05
      106.000   7.11004e-05
      106.100   7.09281e-05
      106.200   7.07572e-05
      106.300   7.05858e-05
      106.400   7.04140e-05
      106.500   7.02420e-05
      106.600   7.00700e-05
      106.700   6.98980e-05
      106.800   6.97259e-05
      106.900   6.95541e-05
      107.000   6.93824e-05
      107.100   6.92107e-05
      107.200   6.90392e-05
      107.300   6.88681e-05
      107.400   6.86959e-05
      107.500   6.85232e-05
      107.600   6.83512e-05
      107.700   6.81796e-05
      107.800   6.80090e-05
      107.900   6.78341e-05
      108.000   6.76594e-05
      108.100   6.74843e-05
      108.200   6.73085e-05
      108.300   6.71312e-05
      108.400   6.69478e-05
      108.500   6.67638e-05
      108.600   6.65791e-05
      108.700   6.63934e-05
      108.800   6.61908e-05
      108.900   6.59642e-05
      109.000   6.57373e-05
      109.100   6.55104e-05
      109.200   6.52837e-05
      109.300   6.50574e-05
      109.400   6.48315e-05
      109.500   6.46062e-05
      109.600   6.43817e-05
      109.700   6.41578e-05
      109.800   6.39351e-05
      109.900   6.37135e-05
      110.000   6.34930e-05
      110.100   6.32734e-05
      110.200   6.30545e-05
      110.300   6.28464e-05
      110.400   6.26394e-05
      110.500   6.24327e-05
      110.600   6.22257e-05
      110.700   6.20185e-05
      110.800   6.18109e-05
      110.900   6.16030e-05
      111.000   6.13946e-05
      111.100   6.11860e-05
      111.200   6.09782e-05
      111.300   6.07913e-05
      111.400   6.06045e-05
      111.500   6.04173e-05
      111.600   6.02300e-05
      111.700   6.00434e-05
      111.800   5.98701e-05
      111.900   5.96974e-05
      112.000   5.95249e-05
      112.100   5.93526e-05
      112.200   5.91807e-05
      112.300   5.89960e-05
      112.400   5.88114e-05
      112.500   5.86277e-05
      112.600   5.84448e-05
      112.700   5.82647e-05
      112.800   5.80980e-05
      112.900   5.78998e-05
      113.000   5.77127e-05
      113.100   5.75305e-05
      113.200   5.73420e-05
      113.300   5.71604e-05
      113.400   5.69060e-05
      113.500   5.66336e-05
      113.600   5.64246e-05
      113.700   5.61964e-05
      113.800   5.59255e-05
      113.900   5.57170e-05
      114.000   5.55083e-05
      114.100   5.52552e-05
      114.200   5.50247e-05
      114.300   5.48300e-05
      114.400   5.46261e-05
      114.500   5.44127e-05
      114.600   5.42460e-05
      114.700   5.40446e-05
      114.800   5.38670e-05
      114.900   5.37444e-05
      115.000   5.35824e-05
      115.100   5.33972e-05
      115.200   5.32098e-05
      115.300   5.30722e-05
      115.400   5.28872e-05
      115.500   5.27256e-05
      115.600   5.25440e-05
      115.700   5.23326e-05
      115.800   5.21613e-05
      115.900   5.19688e-05
      116.000   5.18110e-05
      116.100   5.17067e-05
      116.200   5.15978e-05
      116.300   5.14790e-05
      116.400   5.13426e-05
      116.500   5.12443e-05
      116.600   5.11337e-05
      116.700   5.10325e-05
      116.800   5.09197e-05
      116.900   5.07595e-05
      117.000   5.06524e-05
      117.100   5.06977e-05
      117.200   5.08505e-05
      117.300   5.08979e-05
      117.400   5.09383e-05
      117.500   5.09803e-05
      117.600   5.09600e-05
      117.700   5.09154e-05
      117.800   5.08380e-05
      117.900   5.07439e-05
      118.000   5.06183e-05
      118.100   5.04627e-05
      118.200   5.03308e-05
      118.300   5.02091e-05
      118.400   4.99684e-05
      118.500   4.97375e-05
      118.600   4.95613e-05
      118.700   4.93657e-05
      118.800   4.91436e-05
      118.900   4.89399e-05
      119.000   4.86717e-05
      119.100   4.83307e-05
      119.200   4.80547e-05
      119.300   4.78329e-05
      119.400   4.76412e-05
      119.500   4.74631e-05
      119.600   4.72423e-05
      119.700   4.69717e-05
      119.800   4.66020e-05
      119.900   4.61013e-05
      120.000   4.56436e-05
      120.100   4.52207e-05
      120.200   4.49616e-05
      120.300   4.47967e-05
      120.400   4.46307e-05
      120.500   4.43321e-05
      120.600   4.39327e-05
      120.700   4.35014e-05
      120.800   4.30922e-05
      120.900   4.28576e-05
      121.000   4.28953e-05
      121.100   4.28842e-05
      121.200   4.27362e-05
      121.300   4.24909e-05
      121.400   4.21713e-05
      121.500   4.17959e-05
      121.600   4.12030e-05
      121.700   4.06981e-05
      121.800   4.01169e-05
      121.900   3.95268e-05
      122.000   3.88856e-05
      122.100   3.82852e-05
      122.200   3.76931e-05
      122.300   3.72874e-05
      122.400   3.70834e-05
      122.500   3.69225e-05
      122.600   3.67358e-05
      122.700   3.65473e-05
      122.800   3.63133e-05
      122.900   3.61058e-05
      123.000   3.61347e-05
      123.100   3.65748e-05
      123.200   3.70437e-05
      123.300   3.77262e-05
      123.400   3.85866e-05
      123.500   3.97017e-05
      123.600   4.06761e-05
      123.700   4.12264e-05
      123.800   4.16567e-05
      123.900   4.22109e-05
      124.000   4.29659e-05
      124.100   4.43727e-05
      124.200   4.71708e-05
      124.300   5.13321e-05
      124.400   5.53658e-05
      124.500   5.66235e-05
      124.600   5.65904e-05
      124.700   5.64081e-05
      124.800   5.62410e-05
      124.900   5.60729e-05
      125.000   5.59029e-05
      125.100   5.57184e-05
      125.200   5.55323e-05
      125.300   5.53461e-05
      125.400   5.51602e-05
      125.500   5.49745e-05
      125.600   5.47888e-05
      125.700   5.46035e-05
      125.800   5.44184e-05
      125.900   5.42339e-05
      126.000   5.40500e-05
      126.100   5.38666e-05
      126.200   5.36838e-05
      126.300   5.35015e-05
      126.400   5.33199e-05
      126.500   5.31387e-05
      126.600   5.29582e-05
      126.700   5.27781e-05
      126.800   5.25985e-05
      126.900   5.24191e-05
      127.000   5.22385e-05
      127.100   5.20529e-05
      127.200   5.18650e-05
      127.300   5.16766e-05
      127.400   5.14883e-05
      127.500   5.13001e-05
      127.600   5.11120e-05
      127.700   5.09239e-05
      127.800   5.07359e-05
      127.900   5.05480e-05
      128.000   5.03602e-05
      128.100   5.01725e-05
      128.200   4.99849e-05
      128.300   4.97974e-05
      128.400   4.96102e-05
      128.500   4.94231e-05
      128.600   4.92360e-05
      128.700   4.90494e-05
      128.800   4.88630e-05
      128.900   4.86769e-05
      129.000   4.84913e-05
      129.100   4.83051e-05
      129.200   4.81164e-05
      129.300   4.79282e-05
      129.400   4.77407e-05
      129.500   4.75539e-05
      129.600   4.73678e-05
      129.700   4.71824e-05
      129.800   4.69977e-05
      129.900   4.68136e-05
      130.000   4.66302e-05
      130.100   4.64476e-05
      130.200   4.62653e-05
      130.300   4.60837e-05
      130.400   4.59027e-05
      130.500   4.57220e-05
      130.600   4.55416e-05
      130.700   4.53617e-05
      130.800   4.51823e-05
      130.900   4.50033e-05
      131.000   4.48244e-05
      131.100   4.46460e-05
      131.200   4.44676e-05
      131.300   4.42887e-05
      131.400   4.41101e-05
      131.500   4.39318e-05
      131.600   4.37539e-05
      131.700   4.35763e-05
      131.800   4.33990e-05
      131.900   4.32221e-05
      132.000   4.30455e-05
      132.100   4.28691e-05
      132.200   4.26932e-05
      132.300   4.25176e-05
      132.400   4.23424e-05
      132.500   4.21677e-05
      132.600   4.19934e-05
      132.700   4.18196e-05
      132.800   4.16463e-05
      132.900   4.14736e-05
      133.000   4.13013e-05
      133.100   4.11296e-05
      133.200   4.09584e-05
      133.300   4.07875e-05
      133.400   4.06168e-05
      133.500   4.04464e-05
      133.600   4.02764e-05
      133.700   4.01070e-05
      133.800   3.99381e-05
      133.900   3.97696e-05
      134.000   3.96016e-05
      134.100   3.94341e-05
      134.200   3.92670e-05
      134.300   3.91004e-05
      134.400   3.89343e-05
      134.500   3.87688e-05
      134.600   3.86038e-05
      134.700   3.84392e-05
      134.800   3.82752e-05
      134.900   3.81118e-05
      135.000   3.79488e-05
      135.100   3.77863e-05
      135.200   3.76244e-05
      135.300   3.74630e-05
      135.400   3.73021e-05
      135.500   3.71413e-05
      135.600   3.69805e-05
      135.700   3.68201e-05
      135.800   3.66602e-05
      135.900   3.65008e-05
      136.000   3.63419e-05
      136.100   3.61834e-05
      136.200   3.60255e-05
      136.300   3.58680e-05
      136.400   3.57110e-05
      136.500   3.55546e-05
      136.600   3.53985e-05
      136.700   3.52429e-05
      136.800   3.50878e-05
      136.900   3.49331e-05
      137.000   3.47788e-05
      137.100   3.46249e-05
      137.200   3.44713e-05
      137.300   3.43181e-05
      137.400   3.41653e-05
      137.500   3.40129e-05
      137.600   3.38671e-05
      137.700   3.37369e-05
      137.800   3.36188e-05
      137.900   3.35007e-05
      138.000   3.33828e-05
      138.100   3.32651e-05
      138.200   3.31477e-05
      138.300   3.30305e-05
      138.400   3.29136e-05
      138.500   3.27970e-05
      138.600   3.26806e-05
      138.700   3.25646e-05
      138.800   3.24489e-05
      138.900   3.23334e-05
      139.000   3.22184e-05
      139.100   3.21036e-05
      139.200   3.19893e-05
      139.300   3.18752e-05
      139.400   3.17615e-05
      139.500   3.16481e-05
      139.600   3.15351e-05
      139.700   3.14223e-05
      139.800   3.13100e-05
      139.900   3.11978e-05
      140.000   3.10857e-05
      140.100   3.09739e-05
      140.200   3.08623e-05
      140.300   3.07511e-05
      140.400   3.06402e-05
      140.500   3.05294e-05
      140.600   3.04188e-05
      140.700   3.03085e-05
      140.800   3.01984e-05
      140.900   3.00883e-05
      141.000   2.99782e-05
      141.100   2.98684e-05
      141.200   2.97587e-05
      141.300   2.96490e-05
      141.400   2.95394e-05
      141.500   2.94300e-05
      141.600   2.93206e-05
      141.700   2.92113e-05
      141.800   2.91022e-05
      141.900   2.89933e-05
      142.000   2.88845e-05
      142.100   2.87875e-05
      142.200   2.87236e-05
      142.300   2.86883e-05
      142.400   2.86527e-05
      142.500   2.86167e-05
      142.600   2.85806e-05
      142.700   2.85442e-05
      142.800   2.85077e-05
      142.900   2.84710e-05
      143.000   2.84341e-05
      143.100   2.83970e-05
      143.200   2.83597e-05
      143.300   2.83222e-05
      143.400   2.82847e-05
      143.500   2.82471e-05
      143.600   2.82094e-05
      143.700   2.81716e-05
      143.800   2.81337e-05
      143.900   2.80957e-05
      144.000   2.80576e-05
      144.100   2.80194e-05
      144.200   2.79810e-05
      144.300   2.79426e-05
      144.400   2.79071e-05
      144.500   2.79132e-05
      144.600   2.79323e-05
      144.700   2.79525e-05
      144.800   2.79721e-05
      144.900   2.79913e-05
      145.000   2.80100e-05
      145.100   2.80282e-05
      145.200   2.80457e-05
      145.300   2.80627e-05
      145.400   2.80791e-05
      145.500   2.80949e-05
      145.600   2.81101e-05
      145.700   2.81246e-05
      145.800   2.81387e-05
      145.900   2.81521e-05
      146.000   2.81648e-05
      146.100   2.81770e-05
      146.200   2.81887e-05
      146.300   2.81998e-05
      146.400   2.82102e-05
      146.500   2.82201e-05
      146.600   2.82294e-05
      146.700   2.82383e-05
      146.800   2.82449e-05
      146.900   2.82485e-05
      147.000   2.82516e-05
      147.100   2.82541e-05
      147.200   2.82563e-05
      147.300   2.82581e-05
      147.400   2.82594e-05
      147.500   2.82605e-05
      147.600   2.82611e-05
      147.700   2.82614e-05
      147.800   2.82613e-05
      147.900   2.82609e-05
      148.000   2.82601e-05
      148.100   2.82590e-05
      148.200   2.82577e-05
      148.300   2.82561e-05
      148.400   2.82542e-05
      148.500   2.82520e-05
      148.600   2.82494e-05
      148.700   2.82465e-05
      148.800   2.82431e-05
      148.900   2.82395e-05
      149.000   2.82355e-05
      149.100   2.82310e-05
      149.200   2.82259e-05
      149.300   2.82204e-05
      149.400   2.82144e-05
      149.500   2.82079e-05
      149.600   2.82009e-05
      149.700   2.81934e-05
      149.800   2.81854e-05
      149.900   2.81770e-05
      150.000   2.81681e-05
      150.100   2.81587e-05
      150.200   2.81486e-05
      150.300   2.81381e-05
      150.400   2.81271e-05
      150.500   2.81157e-05
      150.600   2.81037e-05
      150.700   2.80912e-05
      150.800   2.80782e-05
      150.900   2.80646e-05
      151.000   2.80505e-05
      151.100   2.80360e-05
      151.200   2.80210e-05
      151.300   2.80055e-05
      151.400   2.79896e-05
      151.500   2.79732e-05
      151.600   2.79567e-05
      151.700   2.79401e-05
      151.800   2.79233e-05
      151.900   2.79059e-05
      152.000   2.78881e-05
      152.100   2.78700e-05
      152.200   2.78516e-05
      152.300   2.78327e-05
      152.400   2.78135e-05
      152.500   2.77940e-05
      152.600   2.77741e-05
      152.700   2.77539e-05
      152.800   2.77333e-05
      152.900   2.77124e-05
      153.000   2.76912e-05
      153.100   2.76696e-05
      153.200   2.76476e-05
      153.300   2.76254e-05
      153.400   2.76028e-05
      153.500   2.75797e-05
      153.600   2.75563e-05
      153.700   2.75327e-05
      153.800   2.75086e-05
      153.900   2.74841e-05
      154.000   2.74490e-05
      154.100   2.74017e-05
      154.200   2.73524e-05
      154.300   2.73028e-05
      154.400   2.72528e-05
      154.500   2.72025e-05
      154.600   2.71519e-05
      154.700   2.71009e-05
      154.800   2.70496e-05
      154.900   2.69979e-05
      155.000   2.69459e-05
      155.100   2.68936e-05
      155.200   2.68409e-05
      155.300   2.67878e-05
      155.400   2.67345e-05
      155.500   2.66808e-05
      155.600   2.66267e-05
      155.700   2.65723e-05
      155.800   2.65176e-05
      155.900   2.64626e-05
      156.000   2.64072e-05
      156.100   2.63515e-05
      156.200   2.62955e-05
      156.300   2.62392e-05
      156.400   2.61826e-05
      156.500   2.61222e-05
      156.600   2.60527e-05
      156.700   2.59824e-05
      156.800   2.59119e-05
      156.900   2.58412e-05
      157.000   2.57703e-05
      157.100   2.56992e-05
      157.200   2.56279e-05
      157.300   2.55564e-05
      157.400   2.54847e-05
      157.500   2.54128e-05
      157.600   2.53407e-05
      157.700   2.52684e-05
      157.800   2.51959e-05
      157.900   2.51231e-05
      158.000   2.50502e-05
      158.100   2.49771e-05
      158.200   2.49038e-05
      158.300   2.48303e-05
      158.400   2.47566e-05
      158.500   2.46828e-05
      158.600   2.46087e-05
      158.700   2.45344e-05
      158.800   2.44601e-05
      158.900   2.43854e-05
      159.000   2.43107e-05
      159.100   2.42356e-05
      159.200   2.41604e-05
      159.300   2.40850e-05
      159.400   2.40094e-05
      159.500   2.39338e-05
      159.600   2.38581e-05
      159.700   2.37822e-05
      159.800   2.37062e-05
      159.900   2.36302e-05
      160.000   2.35540e-05
      160.100   2.34777e-05
      160.200   2.34013e-05
      160.300   2.33249e-05
      160.400   2.32484e-05
      160.500   2.31718e-05
      160.600   2.30952e-05
      160.700   2.30186e-05
      160.800   2.29419e-05
      160.900   2.28651e-05
      161.000   2.27883e-05
      161.100   2.27115e-05
      161.200   2.26347e-05
      161.300   2.25578e-05
      161.400   2.24809e-05
      161.500   2.24040e-05
      161.600   2.23270e-05
      161.700   2.22497e-05
      161.800   2.21725e-05
      161.900   2.20952e-05
      162.000   2.20178e-05
      162.100   2.19404e-05
      162.200   2.18630e-05
      162.300   2.17855e-05
      162.400   2.17080e-05
      162.500   2.16304e-05
      162.600   2.15528e-05
      162.700   2.14751e-05
      162.800   2.13973e-05
      162.900   2.13194e-05
      163.000   2.12415e-05
      163.100   2.11635e-05
      163.200   2.10854e-05
      163.300   2.10073e-05
      163.400   2.09290e-05
      163.500   2.08507e-05
      163.600   2.07724e-05
      163.700   2.06940e-05
      163.800   2.06156e-05
      163.900   2.05371e-05
      164.000   2.04586e-05
      164.100   2.03801e-05
      164.200   2.03015e-05
      164.300   2.02242e-05
      164.400   2.01469e-05
      164.500   2.00696e-05
      164.600   1.99924e-05
      164.700   1.99151e-05
      164.800   1.98379e-05
      164.900   1.97608e-05
      165.000   1.96837e-05
      165.100   1.96067e-05
      165.200   1.95297e-05
      165.300   1.94529e-05
      165.400   1.93762e-05
      165.500   1.92996e-05
      165.600   1.92231e-05
      165.700   1.91467e-05
      165.800   1.90704e-05
      165.900   1.89943e-05
      166.000   1.89183e-05
      166.100   1.88425e-05
      166.200   1.87668e-05
      166.300   1.86913e-05
      166.400   1.86159e-05
      166.500   1.85406e-05
      166.600   1.84656e-05
      166.700   1.83907e-05
      166.800   1.83143e-05
      166.900   1.82309e-05
      167.000   1.81410e-05
      167.100   1.80511e-05
      167.200   1.79615e-05
      167.300   1.78721e-05
      167.400   1.77830e-05
      167.500   1.76941e-05
      167.600   1.76054e-05
      167.700   1.75170e-05
      167.800   1.74287e-05
      167.900   1.73407e-05
      168.000   1.72529e-05
      168.100   1.71653e-05
      168.200   1.70779e-05
      168.300   1.69906e-05
      168.400   1.69036e-05
      168.500   1.68167e-05
      168.600   1.67300e-05
      168.700   1.66435e-05
      168.800   1.65572e-05
      168.900   1.64711e-05
      169.000   1.63851e-05
      169.100   1.62993e-05
      169.200   1.62138e-05
      169.300   1.61284e-05
      169.400   1.60432e-05
      169.500   1.59538e-05
      169.600   1.58453e-05
      169.700   1.57180e-05
      169.800   1.55900e-05
      169.900   1.54626e-05
      170.000   1.53359e-05
      170.100   1.52098e-05
      170.200   1.50843e-05
      170.300   1.98470e-05
      170.400   4.30293e-05
      170.500   8.21767e-05
      170.600   0.000121921
      170.700   0.000154339
      170.800   0.000170174
      170.900   0.000171883
      171.000   0.000170079
      171.100   0.000168283
      171.200   0.000166494
      171.300   0.000164711
      171.400   0.000162938
      171.500   0.000161173
      171.600   0.000159417
      171.700   0.000157672
      171.800   0.000155939
      171.900   0.000154220
      172.000   0.000152516
      172.100   0.000150827
      172.200   0.000149157
      172.300   0.000147499
      172.400   0.000145830
      172.500   0.000144174
      172.600   0.000142538
      172.700   0.000140921
      172.800   0.000139324
      172.900   0.000137746
      173.000   0.000136187
      173.100   0.000134648
      173.200   0.000133127
      173.300   0.000131625
      173.400   0.000130141
      173.500   0.000128675
      173.600   0.000127227
      173.700   0.000125797
      173.800   0.000124383
      173.900   0.000122987
      174.000   0.000121606
      174.100   0.000120242
      174.200   0.000118893
      174.300   0.000117559
      174.400   0.000116241
      174.500   0.000114937
      174.600   0.000113646
      174.700   0.000112370
      174.800   0.000111107
      174.900   0.000109857
      175.000   0.000108619
      175.100   0.000107394
      175.200   0.000106186
      175.300   0.000104989
      175.400   0.000103804
      175.500   0.000102631
      175.600   0.000101470
      175.700   0.000100321
      175.800   9.91836e-05
      175.900   9.80577e-05
      176.000   9.69433e-05
      176.100   9.58408e-05
      176.200   9.47493e-05
      176.300   9.36689e-05
      176.400   9.26003e-05
      176.500   9.15425e-05
      176.600   9.04955e-05
      176.700   8.94596e-05
      176.800   8.84345e-05
      176.900   8.74204e-05
      177.000   8.64167e-05
      177.100   8.54233e-05
      177.200   8.44407e-05
      177.300   8.34684e-05
      177.400   8.25058e-05
      177.500   8.15531e-05
      177.600   8.06104e-05
      177.700   7.96776e-05
      177.800   7.87544e-05
      177.900   7.78398e-05
      178.000   7.69398e-05
      178.100   7.60495e-05
      178.200   7.51679e-05
      178.300   7.42953e-05
      178.400   7.34320e-05
      178.500   7.25773e-05
      178.600   7.17313e-05
      178.700   7.08936e-05
      178.800   7.00648e-05
      178.900   6.92447e-05
      179.000   6.84329e-05
      179.100   6.76294e-05
      179.200   6.68344e-05
      179.300   6.60479e-05
      179.400   6.52697e-05
      179.500   6.45002e-05
      179.600   6.37387e-05
      179.700   6.29861e-05
      179.800   6.22415e-05
      179.900   6.15053e-05
      180.000   6.07771e-05
      180.100   6.00575e-05
      180.200   5.93462e-05
      180.300   5.86432e-05
      180.400   5.79481e-05
      180.500   5.72615e-05
      180.600   5.65828e-05
      180.700   5.59123e-05
      180.800   5.52352e-05
      180.900   5.45496e-05
      181.000   5.38680e-05
      181.100   5.31951e-05
      181.200   5.25305e-05
      181.300   5.18742e-05
      181.400   5.12263e-05
      181.500   5.05864e-05
      181.600   4.99545e-05
      181.700   4.93303e-05
      181.800   4.87140e-05
      181.900   4.81053e-05
      182.000   4.75043e-05
      182.100   4.69105e-05
      182.200   4.63243e-05
      182.300   4.57451e-05
      182.400   4.51732e-05
      182.500   4.46081e-05
      182.600   4.40497e-05
      182.700   4.34981e-05
      182.800   4.29533e-05
      182.900   4.24147e-05
      183.000   4.18828e-05
      183.100   4.13573e-05
      183.200   4.08380e-05
      183.300   4.03247e-05
      183.400   3.98176e-05
      183.500   3.93166e-05
      183.600   3.88215e-05
      183.700   3.83057e-05
      183.800   3.76918e-05
      183.900   3.70677e-05
      184.000   3.64534e-05
      184.100   3.58485e-05
      184.200   3.52532e-05
      184.300   3.46667e-05
      184.400   3.40895e-05
      184.500   3.35212e-05
      184.600   3.29616e-05
      184.700   3.24105e-05
      184.800   3.18680e-05
      184.900   3.13338e-05
      185.000   3.08079e-05
      185.100   3.02899e-05
      185.200   2.97799e-05
      185.300   2.92781e-05
      185.400   2.87838e-05
      185.500   2.82973e-05
      185.600   2.78182e-05
      185.700   2.73462e-05
      185.800   2.68821e-05
      185.900   2.64253e-05
      186.000   2.59753e-05
      186.100   2.55322e-05
      186.200   2.50961e-05
      186.300   2.46665e-05
      186.400   2.42436e-05
      186.500   2.38270e-05
      186.600   2.34169e-05
      186.700   2.30130e-05
      186.800   2.26152e-05
      186.900   2.22234e-05
      187.000   2.18376e-05
      187.100   2.14578e-05
      187.200   2.10838e-05
      187.300   2.07158e-05
      187.400   2.03536e-05
      187.500   1.99970e-05
      187.600   1.96460e-05
      187.700   1.93004e-05
      187.800   1.89602e-05
      187.900   1.86252e-05
      188.000   1.82958e-05
      188.100   1.79714e-05
      188.200   1.76522e-05
      188.300   1.73379e-05
      188.400   1.70287e-05
      188.500   1.67246e-05
      188.600   1.64255e-05
      188.700   1.61314e-05
      188.800   1.58423e-05
      188.900   1.55579e-05
      189.000   1.52782e-05
      189.100   1.50030e-05
      189.200   1.47325e-05
      189.300   1.44665e-05
      189.400   1.42050e-05
      189.500   1.39479e-05
      189.600   1.36949e-05
      189.700   1.34447e-05
      189.800   1.31895e-05
      189.900   1.29392e-05
      190.000   1.26933e-05
      190.100   1.24518e-05
      190.200   1.22146e-05
      190.300   1.19817e-05
      190.400   1.17528e-05
      190.500   1.15280e-05
      190.600   1.13074e-05
      190.700   1.10906e-05
      190.800   1.08777e-05
      190.900   1.06687e-05
      191.000   1.04636e-05
      191.100   1.02623e-05
      191.200   1.00647e-05
      191.300   9.87055e-06
      191.400   9.67995e-06
      191.500   9.49272e-06
      191.600   9.30890e-06
      191.700   9.12840e-06
      191.800   8.95105e-06
      191.900   8.77698e-06
      192.000   8.60612e-06
      192.100   8.43851e-06
      192.200   8.27406e-06
      192.300   8.11255e-06
      192.400   7.95391e-06
      192.500   7.79816e-06
      192.600   7.64527e-06
      192.700   7.49244e-06
      192.800   7.32810e-06
      192.900   7.14151e-06
      193.000   6.95931e-06
      193.100   6.78150e-06
      193.200   6.60799e-06
      193.300   6.43855e-06
      193.400   6.27315e-06
      193.500   6.11157e-06
      193.600   5.95370e-06
      193.700   5.79952e-06
      193.800   5.64905e-06
      193.900   5.50216e-06
      194.000   5.35868e-06
      194.100   5.21877e-06
      194.200   5.08245e-06
      194.300   4.94935e-06
      194.400   4.81940e-06
      194.500   4.69253e-06
      194.600   4.56867e-06
      194.700   4.44783e-06
      194.800   4.32992e-06
      194.900   4.21480e-06
      195.000   4.10249e-06
      195.100   3.99312e-06
      195.200   3.88645e-06
      195.300   3.78238e-06
      195.400   3.68080e-06
      195.500   3.58167e-06
      195.600   3.48493e-06
      195.700   3.39058e-06
      195.800   3.29852e-06
      195.900   3.20871e-06
      196.000   3.12070e-06
      196.100   3.03487e-06
      196.200   2.95117e-06
      196.300   2.86955e-06
      196.400   2.78994e-06
      196.500   2.71228e-06
      196.600   2.63660e-06
      196.700   2.56280e-06
      196.800   2.49095e-06
      196.900   2.42102e-06
      197.000   2.35287e-06
      197.100   2.28644e-06
      197.200   2.22170e-06
      197.300   2.15858e-06
      197.400   2.09703e-06
      197.500   2.03709e-06
      197.600   1.97869e-06
      197.700   1.92197e-06
      197.800   1.86674e-06
      197.900   1.81290e-06
      198.000   1.76047e-06
      198.100   1.70942e-06
      198.200   1.65967e-06
      198.300   1.61121e-06
      198.400   1.56406e-06
      198.500   1.51827e-06
      198.600   1.47374e-06
      198.700   1.43039e-06
      198.800   1.38817e-06
      198.900   1.34710e-06
      199.000   1.30798e-06
      199.100   1.27248e-06
      199.200   1.24146e-06
      199.300   1.21121e-06
      199.400   1.18166e-06
      199.500   1.15278e-06
      199.600   1.12454e-06
      199.700   1.09693e-06
      199.800   1.06995e-06
      199.900   1.04357e-06
      200.000   1.01780e-06
      200.100   9.92709e-07
      200.200   9.68162e-07
      200.300   9.44186e-07
      200.400   9.20763e-07
      200.500   8.97882e-07
      200.600   8.75527e-07
      200.700   8.53695e-07
      200.800   8.32359e-07
      200.900   8.11523e-07
      201.000   7.91202e-07
      201.100   7.71360e-07
      201.200   7.51981e-07
      201.300   7.33062e-07
      201.400   7.14594e-07
      201.500   6.96545e-07
      201.600   6.78929e-07
      201.700   6.61731e-07
      201.800   6.44931e-07
      201.900   6.28547e-07
      202.000   6.12578e-07
      202.100   5.96973e-07
      202.200   5.81746e-07
      202.300   5.67180e-07
      202.400   5.53379e-07
      202.500   5.39961e-07
      202.600   5.26841e-07
      202.700   5.14020e-07
      202.800   5.01502e-07
      202.900   4.89281e-07
      203.000   4.77347e-07
      203.100   4.65688e-07
      203.200   4.54294e-07
      203.300   4.43159e-07
      203.400   4.32282e-07
      203.500   4.21662e-07
      203.600   4.11285e-07
      203.700   4.01149e-07
      203.800   3.91265e-07
      203.900   3.81615e-07
      204.000   3.72190e-07
      204.100   3.62988e-07
      204.200   3.54004e-07
      204.300   3.45226e-07
      204.400   3.36659e-07
      204.500   3.28293e-07
      204.600   3.20122e-07
      204.700   3.12147e-07
      204.800   3.04370e-07
      204.900   2.96780e-07
      205.000   2.89370e-07
      205.100   2.82140e-07
      205.200   2.75076e-07
      205.300   2.68185e-07
      205.400   2.61458e-07
      205.500   2.54888e-07
      205.600   2.48502e-07
      205.700   2.42293e-07
      205.800   2.36229e-07
      205.900   2.30316e-07
      206.000   2.24551e-07
      206.100   2.18918e-07
      206.200   2.13417e-07
      206.300   2.08050e-07
      206.400   2.02811e-07
      206.500   1.97692e-07
      206.600   1.92698e-07
      206.700   1.87821e-07
      206.800   1.83058e-07
      206.900   1.78409e-07
      207.000   1.73873e-07
      207.100   1.69447e-07
      207.200   1.65130e-07
      207.300   1.60915e-07
      207.400   1.56800e-07
      207.500   1.52782e-07
      207.600   1.48862e-07
      207.700   1.45033e-07
      207.800   1.41296e-07
      207.900   1.37650e-07
      208.000   1.34091e-07
      208.100   1.30616e-07
      208.200   1.27228e-07
      208.300   1.23919e-07
      208.400   1.20694e-07
      208.500   1.17549e-07
      208.600   1.14479e-07
      208.700   1.11482e-07
      208.800   1.08554e-07
      208.900   1.05516e-07
      209.000   1.02318e-07
      209.100   9.92105e-08
      209.200   9.61903e-08
      209.300   9.32543e-08
      209.400   9.04032e-08
      209.500   8.76321e-08
      209.600   8.49390e-08
      209.700   8.23249e-08
      209.800   7.97902e-08
      209.900   7.73257e-08
      210.000   7.49329e-08
      210.100   7.26095e-08
      210.200   7.03525e-08
      210.300   6.81615e-08
      210.400   6.60340e-08
      210.500   6.39680e-08
      210.600   6.19625e-08
      210.700   6.00163e-08
      210.800   5.81267e-08
      210.900   5.62926e-08
      211.000   5.45125e-08
      211.100   5.27858e-08
      211.200   5.11098e-08
      211.300   4.94859e-08
      211.400   4.79116e-08
      211.500   4.63831e-08
      211.600   4.49006e-08
      211.700   4.34631e-08
      211.800   4.20677e-08
      211.900   4.07144e-08
      212.000   3.94029e-08
      212.100   3.81306e-08
      212.200   3.68609e-08
      212.300   3.50935e-08
      212.400   3.30836e-08
      212.500   3.11798e-08
      212.600   2.93784e-08
      212.700   2.76728e-08
      212.800   2.60590e-08
      212.900   2.45333e-08
      213.000   2.30911e-08
      213.100   2.17298e-08
      213.200   2.04427e-08
      213.300   1.92272e-08
      213.400   1.80783e-08
      213.500   1.69932e-08
      213.600   1.59688e-08
      213.700   1.50022e-08
      213.800   1.40895e-08
      213.900   1.32292e-08
      214.000   1.24177e-08
      214.100   1.16523e-08
      214.200   1.09314e-08
      214.300   1.02519e-08
      214.400   9.61160e-09
      214.500   9.00873e-09
      214.600   8.44149e-09
      214.700   7.90748e-09
      214.800   7.40500e-09
      214.900   6.93273e-09
      215.000   6.48828e-09
      215.100   6.07082e-09
      215.200   5.67913e-09
      215.300   5.31147e-09
      215.400   4.96585e-09
      215.500   4.64138e-09
      215.600   4.33708e-09
      215.700   4.05128e-09
      215.800   3.78318e-09
      215.900   3.53191e-09
      216.000   3.29620e-09
      216.100   3.07525e-09
      216.200   2.86831e-09
      216.300   2.67451e-09
      216.400   2.49301e-09
      216.500   2.32304e-09
      216.600   2.16405e-09
      216.700   2.01533e-09
      216.800   1.87619e-09
      216.900   1.74616e-09
      217.000   1.62463e-09
      217.100   1.51100e-09
      217.200   1.40496e-09
      217.300   1.30592e-09
      217.400   1.21342e-09
      217.500   1.12718e-09
      217.600   1.04667e-09
      217.700   9.71590e-10
      217.800   9.01594e-10
      217.900   8.36440e-10
      218.000   7.75768e-10
      218.100   7.19265e-10
      218.200   6.66665e-10
      218.300   6.17727e-10
      218.400   5.72173e-10
      218.500   5.29778e-10
      218.600   4.90389e-10
      218.700   4.53749e-10
      218.800   4.19702e-10
      218.900   3.88096e-10
      219.000   3.58724e-10
      219.100   3.31725e-10
      219.200   3.08872e-10
      219.300   2.90862e-10
      219.400   2.73842e-10
      219.500   2.57777e-10
      219.600   2.42608e-10
      219.700   2.28285e-10
      219.800   2.14774e-10
      219.900   2.02021e-10
      220.000   1.89985e-10
      220.100   1.78631e-10
      220.200   1.67926e-10
      220.300   1.57835e-10
      220.400   1.48316e-10
      220.500   1.39347e-10
      220.600   1.30898e-10
      220.700   1.22934e-10
      220.800   1.15428e-10
      220.900   1.08366e-10
      221.000   1.01713e-10
      221.100   9.54469e-11
      221.200   8.95533e-11
      221.300   8.40054e-11
      221.400   7.87844e-11
      221.500   7.38750e-11
      221.600   6.92566e-11
      221.700   6.49126e-11
      221.800   6.08287e-11
      221.900   5.69920e-11
      222.000   5.33863e-11
      222.100   4.99965e-11
      222.200   4.68150e-11
      222.300   4.38259e-11
      222.400   4.10186e-11
      222.500   3.83827e-11
      222.600   3.59107e-11
      222.700   3.35897e-11
      222.800   3.14121e-11
      222.900   2.93712e-11
      223.000   2.74560e-11
      223.100   2.56601e-11
      223.200   2.39766e-11
      223.300   2.23996e-11
      223.400   2.09216e-11
      223.500   1.95362e-11
      223.600   1.82397e-11
      223.700   1.70251e-11
      223.800   1.58876e-11
      223.900   1.48242e-11
      224.000   1.38279e-11
      224.100   1.28958e-11
      224.200   1.20240e-11
      224.300   1.12091e-11
      224.400   1.04467e-11
      224.500   9.73407e-12
      224.600   9.06784e-12
      224.700   8.44598e-12
      224.800   7.86477e-12
      224.900   7.32166e-12
      225.000   6.81479e-12
      225.100   6.34142e-12
      225.200   5.89957e-12
      225.300   5.48761e-12
      225.400   5.10300e-12
      225.500   4.74421e-12
      225.600   4.40968e-12
      225.700   4.09796e-12
      225.800   3.80725e-12
      225.900   3.53638e-12
      226.000   3.28416e-12
      226.100   3.04909e-12
      226.200   2.83016e-12
      226.300   2.62666e-12
      226.400   2.43734e-12
      226.500   2.26100e-12
      226.600   2.09689e-12
      226.700   1.94434e-12
      226.800   1.80236e-12
      226.900   1.67030e-12
      227.000   1.54765e-12
      227.100   1.43362e-12
      227.200   1.32767e-12
      227.300   1.22928e-12
      227.400   1.13791e-12
      227.500   1.05307e-12
      227.600   9.74331e-13
      227.700   9.01260e-13
      227.800   8.33485e-13
      227.900   7.70628e-13
      228.000   7.12333e-13
      228.100   6.58291e-13
      228.200   6.08195e-13
      228.300   5.61783e-13
      228.400   5.18799e-13
      228.500   4.78974e-13
      228.600   4.42110e-13
      228.700   4.07981e-13
      228.800   3.76390e-13
      228.900   3.47177e-13
      229.000   3.20140e-13
      229.100   2.95140e-13
      229.200   2.72029e-13
      229.300   2.50668e-13
      229.400   2.30927e-13
      229.500   2.12688e-13
      229.600   1.95842e-13
      229.700   1.80287e-13
      229.800   1.65924e-13
      229.900   1.52719e-13
      230.000   1.40937e-13
      230.100   1.30797e-13
      230.200   1.21364e-13
      230.300   1.12595e-13
      230.400   1.04437e-13
      230.500   9.68570e-14
      230.600   8.98196e-14
      230.700   8.32756e-14
      230.800   7.71950e-14
      230.900   7.15462e-14
      231.000   6.62955e-14
      231.100   6.14195e-14
      231.200   5.68903e-14
      231.300   5.26860e-14
      231.400   4.87846e-14
      231.500   4.51608e-14
      231.600   4.17976e-14
      231.700   3.86783e-14
      231.800   3.57849e-14
      231.900   3.31013e-14
      232.000   3.06126e-14
      232.100   2.83050e-14
      232.200   2.61665e-14
      232.300   2.41846e-14
      232.400   2.23480e-14
      232.500   2.06462e-14
      232.600   1.90706e-14
      232.700   1.76116e-14
      232.800   1.62607e-14
      232.900   1.50103e-14
      233.000   1.38530e-14
      233.100   1.27826e-14
      233.200   1.17919e-14
      233.300   1.08760e-14
      233.400   1.00291e-14
      233.500   9.24764e-15
      233.600   8.52618e-15
      233.700   7.85914e-15
      233.800   7.23702e-15
      233.900   6.66213e-15
      234.000   6.13120e-15
      234.100   5.64155e-15
      234.200   5.18986e-15
      234.300   4.77323e-15
      234.400   4.38906e-15
      234.500   4.03493e-15
      234.600   3.70846e-15
      234.700   3.40770e-15
      234.800   3.13068e-15
      234.900   2.87543e-15
      235.000   2.64035e-15
      235.100   2.42399e-15
      235.200   2.22482e-15
      235.300   2.04152e-15
      235.400   1.87290e-15
      235.500   1.71778e-15
      235.600   1.57516e-15
      235.700   1.44413e-15
      235.800   1.32409e-15
      235.900   1.21374e-15
      236.000   1.11233e-15
      236.100   1.01913e-15
      236.200   9.33527e-16
      236.300   8.54890e-16
      236.400   7.82703e-16
      236.500   7.16425e-16
      236.600   6.55604e-16
      236.700   5.99797e-16
      236.800   5.48594e-16
      236.900   5.01643e-16
      237.000   4.58594e-16
      237.100   4.19121e-16
      237.200   3.82963e-16
      237.300   3.49822e-16
      237.400   3.19608e-16
      237.500   2.93216e-16
      237.600   2.71187e-16
      237.700   2.50830e-16
      237.800   2.31957e-16
      237.900   2.14464e-16
      238.000   1.98260e-16
      238.100   1.83239e-16
      238.200   1.69326e-16
      238.300   1.56439e-16
      238.400   1.44505e-16
      238.500   1.33455e-16
      238.600   1.23227e-16
      238.700   1.13763e-16
      238.800   1.05003e-16
      238.900   9.68983e-17
      239.000   8.94012e-17
      239.100   8.24685e-17
      239.200   7.60598e-17
      239.300   7.01508e-17
      239.400   6.47018e-17
      239.500   5.96632e-17
      239.600   5.50057e-17
      239.700   5.07032e-17
      239.800   4.67264e-17
      239.900   4.30530e-17
      240.000   3.96606e-17
      240.100   3.65270e-17
      240.200   3.36340e-17
      240.300   3.09642e-17
      240.400   2.84994e-17
      240.500   2.62265e-17
      240.600   2.41294e-17
      240.700   2.21956e-17
      240.800   2.04174e-17
      240.900   1.87823e-17
      241.000   1.72747e-17
      241.100   1.58847e-17
      241.200   1.46035e-17
      241.300   1.34851e-17
      241.400   1.25644e-17
      241.500   1.17638e-17
      241.600   1.10129e-17
      241.700   1.03085e-17
      241.800   9.64800e-18
      241.900   9.02865e-18
      242.000   8.44808e-18
      242.100   7.90387e-18
      242.200   7.39532e-18
      242.300   6.91969e-18
      242.400   6.47377e-18
      242.500   6.05584e-18
      242.600   5.66421e-18
      242.700   5.29716e-18
      242.800   4.95336e-18
      242.900   4.63127e-18
      243.000   4.32959e-18
      243.100   4.04707e-18
      243.200   3.78239e-18
      243.300   3.53464e-18
      243.400   3.30277e-18
      243.500   3.08627e-18
      243.600   2.88425e-18
      243.700   2.69502e-18
      243.800   2.51787e-18
      243.900   2.35215e-18
      244.000   2.19698e-18
      244.100   2.05180e-18
      244.200   1.91598e-18
      244.300   1.78888e-18
      244.400   1.67003e-18
      244.500   1.55885e-18
      244.600   1.45488e-18
      244.700   1.35789e-18
      244.800   1.26755e-18
      244.900   1.18309e-18
      245.000   1.10408e-18
      245.100   1.03022e-18
      245.200   9.61196e-19
      245.300   8.96675e-19
      245.400   8.36350e-19
      245.500   7.80007e-19
      245.600   7.27353e-19
      245.700   6.78149e-19
      245.800   6.32176e-19
      245.900   5.89460e-19
      246.000   5.49638e-19
      246.100   5.12427e-19
      246.200   4.77674e-19
      246.300   4.45211e-19
      246.400   4.14906e-19
      246.500   3.86605e-19
      246.600   3.60183e-19
      246.700   3.35525e-19
      246.800   3.12501e-19
      246.900   2.91017e-19
      247.000   2.71068e-19
      247.100   2.52495e-19
      247.200   2.35162e-19
      247.300   2.18990e-19
      247.400   2.03898e-19
      247.500   1.89818e-19
      247.600   1.76685e-19
      247.700   1.64436e-19
      247.800   1.53014e-19
      247.900   1.42362e-19
      248.000   1.32435e-19
      248.100   1.23255e-19
      248.200   1.14691e-19
      248.300   1.06707e-19
      248.400   9.92635e-20
      248.500   9.23226e-20
      248.600   8.58545e-20
      248.700   7.98289e-20
      248.800   7.42139e-20
      248.900   6.89839e-20
      249.000   6.41122e-20
      249.100   5.96046e-20
      249.200   5.59121e-20
      249.300   5.29645e-20
      249.400   5.02918e-20
      249.500   4.77512e-20
      249.600   4.53351e-20
      249.700   4.30386e-20
      249.800   4.08559e-20
      249.900   3.87805e-20
      250.000   3.68091e-20
      250.100   3.49417e-20
      250.200   3.31694e-20
      250.300   3.14864e-20
      250.400   2.98869e-20
      250.500   2.83674e-20
      250.600   2.69236e-20
      250.700   2.55517e-20
      250.800   2.42484e-20
      250.900   2.30102e-20
      251.000   2.18342e-20
      251.100   2.07169e-20
      251.200   1.96574e-20
      251.300   1.86537e-20
      251.400   1.77000e-20
      251.500   1.67940e-20
      251.600   1.59336e-20
      251.700   1.51166e-20
      251.800   1.43407e-20
      251.900   1.36038e-20
      252.000   1.29038e-20
      252.100   1.22396e-20
      252.200   1.16086e-20
      252.300   1.10104e-20
      252.400   1.04436e-20
      252.500   9.90569e-21
      252.600   9.39479e-21
      252.700   8.90985e-21
      252.800   8.44949e-21
      252.900   8.01239e-21
      253.000   7.59752e-21
      253.100   7.20380e-21
      253.200   6.86240e-21
      253.300   6.67342e-21
      253.400   6.52046e-21
      253.500   6.37116e-21
      253.600   6.22534e-21
      253.700   6.08280e-21
      253.800   5.94354e-21
      253.900   5.80741e-21
      254.000   5.67436e-21
      254.100   5.54431e-21
      254.200   5.41720e-21
      254.300   5.29297e-21
      254.400   5.17154e-21
      254.500   5.05290e-21
      254.600   4.93688e-21
      254.700   4.82355e-21
      254.800   4.71293e-21
      254.900   4.60476e-21
      255.000   4.49906e-21
      255.100   4.39569e-21
      255.200   4.29471e-21
      255.300   4.19598e-21
      255.400   4.09949e-21
      255.500   4.00521e-21
      255.600   3.91303e-21
      255.700   3.82293e-21
      255.800   3.73487e-21
      255.900   3.64879e-21
      256.000   3.56464e-21
      256.100   3.48248e-21
      256.200   3.40218e-21
      256.300   3.32370e-21
      256.400   3.24705e-21
      256.500   3.17208e-21
      256.600   3.09881e-21
      256.700   3.02720e-21
      256.800   2.95722e-21
      256.900   2.88880e-21
      257.000   2.82194e-21
      257.100   2.75659e-21
      257.200   2.69274e-21
      257.300   2.63032e-21
      257.400   2.56985e-21
      257.500   2.51092e-21
      257.600   2.45339e-21
      257.700   2.39715e-21
      257.800   2.34217e-21
      257.900   2.28844e-21
      258.000   2.23591e-21
      258.100   2.18455e-21
      258.200   2.13436e-21
      258.300   2.08530e-21
      258.400   2.03733e-21
      258.500   1.99043e-21
      258.600   1.94461e-21
      258.700   1.89981e-21
      258.800   1.85601e-21
      258.900   1.81323e-21
      259.000   1.77140e-21
      259.100   1.73051e-21
      259.200   1.69056e-21
      259.300   1.65155e-21
      259.400   1.61342e-21
      259.500   1.57614e-21
      259.600   1.53973e-21
      259.700   1.50413e-21
      259.800   1.46934e-21
      259.900   1.43532e-21
      260.000   1.40209e-21
      260.100   1.36962e-21
      260.200   1.33789e-21
      260.300   1.30688e-21
      260.400   1.27658e-21
      260.500   1.24697e-21
      260.600   1.21803e-21
      260.700   1.18975e-21
      260.800   1.16214e-21
      260.900   1.13514e-21
      261.000   1.10877e-21
      261.100   1.08303e-21
      261.200   1.05786e-21
      261.300   1.03327e-21
      261.400   1.00925e-21
      261.500   9.85808e-22
      261.600   9.62984e-22
      261.700   9.40688e-22
      261.800   9.18910e-22
      261.900   8.97619e-22
      262.000   8.76819e-22
      262.100   8.56493e-22
      262.200   8.36643e-22
      262.300   8.17242e-22
      262.400   7.98291e-22
      262.500   7.79770e-22
      262.600   7.61673e-22
      262.700   7.43997e-22
      262.800   7.26726e-22
      262.900   7.09841e-22
      263.000   6.93367e-22
      263.100   6.77266e-22
      263.200   6.61546e-22
      263.300   6.46183e-22
      263.400   6.31175e-22
      263.500   6.16517e-22
      263.600   6.02199e-22
      263.700   5.88207e-22
      263.800   5.74538e-22
      263.900   5.61197e-22
      264.000   5.48155e-22
      264.100   5.35413e-22
      264.200   5.22962e-22
      264.300   5.10809e-22
      264.400   4.98936e-22
      264.500   4.87333e-22
      264.600   4.76001e-22
      264.700   4.64934e-22
      264.800   4.54117e-22
      264.900   4.43559e-22
      265.000   4.33243e-22
      265.100   4.23163e-22
      265.200   4.13319e-22
      265.300   4.03703e-22
      265.400   3.94317e-22
      265.500   3.85142e-22
      265.600   3.76184e-22
      265.700   3.68474e-22
      265.800   3.65346e-22
      265.900   3.62389e-22
      266.000   3.59455e-22
      266.100   3.56547e-22
      266.200   3.53663e-22
      266.300   3.50802e-22
      266.400   3.47966e-22
      266.500   3.45154e-22
      266.600   3.42364e-22
      266.700   3.39592e-22
      266.800   3.36851e-22
      266.900   3.34131e-22
      267.000   3.31434e-22
      267.100   3.28760e-22
      267.200   3.26109e-22
      267.300   3.23479e-22
      267.400   3.20869e-22
      267.500   3.18283e-22
      267.600   3.15719e-22
      267.700   3.13177e-22
      267.800   3.10653e-22
      267.900   3.08153e-22
      268.000   3.05676e-22
      268.100   3.03220e-22
      268.200   3.00784e-22
      268.300   2.98370e-22
      268.400   2.95973e-22
      268.500   2.93596e-22
      268.600   2.91239e-22
      268.700   2.88907e-22
      268.800   2.86592e-22
      268.900   2.84296e-22
      269.000   2.82022e-22
      269.100   2.79762e-22
      269.200   2.77526e-22
      269.300   2.75308e-22
      269.400   2.73109e-22
      269.500   2.70927e-22
      269.600   2.68767e-22
      269.700   2.66619e-22
      269.800   2.64494e-22
      269.900   2.62386e-22
      270.000   2.60297e-22
      270.100   2.58234e-22
      270.200   2.56191e-22
      270.300   2.54167e-22
      270.400   2.52156e-22
      270.500   2.50164e-22
      270.600   2.48185e-22
      270.700   2.46228e-22
      270.800   2.44283e-22
      270.900   2.42356e-22
      271.000   2.40446e-22
      271.100   2.38549e-22
      271.200   2.36669e-22
      271.300   2.34804e-22
      271.400   2.32955e-22
      271.500   2.31122e-22
      271.600   2.29303e-22
      271.700   2.27497e-22
      271.800   2.25708e-22
      271.900   2.23932e-22
      272.000   2.22171e-22
      272.100   2.20425e-22
      272.200   2.18691e-22
      272.300   2.16970e-22
      272.400   2.15264e-22
      272.500   2.13572e-22
      272.600   2.11894e-22
      272.700   2.10228e-22
      272.800   2.08574e-22
      272.900   2.06936e-22
      273.000   2.05309e-22
      273.100   2.03694e-22
      273.200   2.02094e-22
      273.300   2.00506e-22
      273.400   1.98928e-22
      273.500   1.97362e-22
      273.600   1.95810e-22
      273.700   1.94269e-22
      273.800   1.92738e-22
      273.900   1.91221e-22
      274.000   1.89716e-22
      274.100   1.88222e-22
      274.200   1.86738e-22
      274.300   1.85265e-22
      274.400   1.83761e-22
      274.500   1.82166e-22
      274.600   1.80564e-22
      274.700   1.78975e-22
      274.800   1.77400e-22
      274.900   1.75838e-22
      275.000   1.74288e-22
      275.100   1.72751e-22
      275.200   1.71226e-22
      275.300   1.69713e-22
      275.400   1.68214e-22
      275.500   1.66726e-22
      275.600   1.65250e-22
      275.700   1.63787e-22
      275.800   1.62335e-22
      275.900   1.60896e-22
      276.000   1.59469e-22
      276.100   1.58052e-22
      276.200   1.56646e-22
      276.300   1.55252e-22
      276.400   1.53870e-22
      276.500   1.52499e-22
      276.600   1.51140e-22
      276.700   1.49790e-22
      276.800   1.48452e-22
      276.900   1.47123e-22
      277.000   1.45806e-22
      277.100   1.44500e-22
      277.200   1.43204e-22
      277.300   1.41919e-22
      277.400   1.40644e-22
      277.500   1.39378e-22
      277.600   1.38124e-22
      277.700   1.36878e-22
      277.800   1.35641e-22
      277.900   1.34418e-22
      278.000   1.33204e-22
      278.100   1.31998e-22
      278.200   1.30803e-22
      278.300   1.29618e-22
      278.400   1.28442e-22
      278.500   1.27274e-22
      278.600   1.26116e-22
      278.700   1.24969e-22
      278.800   1.23881e-22
      278.900   1.23035e-22
      279.000   1.22200e-22
      279.100   1.21369e-22
      279.200   1.20540e-22
      279.300   1.19718e-22
      279.400   1.18899e-22
      279.500   1.18084e-22
      279.600   1.17274e-22
      279.700   1.16468e-22
      279.800   1.15666e-22
      279.900   1.14870e-22
      280.000   1.14077e-22
      280.100   1.13287e-22
      280.200   1.12502e-22
      280.300   1.11722e-22
      280.400   1.10946e-22
      280.500   1.10174e-22
      280.600   1.09407e-22
      280.700   1.08643e-22
      280.800   1.07884e-22
      280.900   1.07128e-22
      281.000   1.06377e-22
      281.100   1.05630e-22
      281.200   1.04887e-22
      281.300   1.04148e-22
      281.400   1.03414e-22
      281.500   1.02684e-22
      281.600   1.01957e-22
      281.700   1.01234e-22
      281.800   1.00517e-22
      281.900   9.98026e-23
      282.000   9.90921e-23
      282.100   9.83862e-23
      282.200   9.76851e-23
      282.300   9.69865e-23
      282.400   9.62922e-23
      282.500   9.56016e-23
      282.600   9.49163e-23
      282.700   9.42347e-23
      282.800   9.35560e-23
      282.900   9.28831e-23
      283.000   9.22135e-23
      283.100   9.15466e-23
      283.200   9.08852e-23
      283.300   9.04115e-23
      283.400   9.09418e-23
      283.500   9.15953e-23
      283.600   9.22508e-23
      283.700   9.29102e-23
      283.800   9.35716e-23
      283.900   9.42351e-23
      284.000   9.49015e-23
      284.100   9.55701e-23
      284.200   9.62427e-23
      284.300   9.69187e-23
      284.400   9.75960e-23
      284.500   9.82763e-23
      284.600   9.89605e-23
      284.700   9.96464e-23
      284.800   1.00335e-22
      284.900   1.01028e-22
      285.000   1.01722e-22
      285.100   1.02420e-22
      285.200   1.03119e-22
      285.300   1.03823e-22
      285.400   1.04530e-22
      285.500   1.05238e-22
      285.600   1.05951e-22
      285.700   1.06665e-22
      285.800   1.07384e-22
      285.900   1.08105e-22
      286.000   1.08827e-22
      286.100   1.09555e-22
      286.200   1.10286e-22
      286.300   1.11020e-22
      286.400   1.11755e-22
      286.500   1.12494e-22
      286.600   1.13236e-22
      286.700   1.13981e-22
      286.800   1.14730e-22
      286.900   1.15482e-22
      287.000   1.16237e-22
      287.100   1.16995e-22
      287.200   1.17756e-22
      287.300   1.18519e-22
      287.400   1.19286e-22
      287.500   1.20057e-22
      287.600   1.20831e-22
      287.700   1.21609e-22
      287.800   1.22390e-22
      287.900   1.23175e-22
      288.000   1.23964e-22
      288.100   1.24758e-22
      288.200   1.25553e-22
      288.300   1.26353e-22
      288.400   1.27159e-22
      288.500   1.27966e-22
      288.600   1.28777e-22
      288.700   1.29593e-22
      288.800   1.30411e-22
      288.900   1.31232e-22
      289.000   1.32058e-22
      289.100   1.32886e-22
      289.200   1.33717e-22
      289.300   1.34553e-22
      289.400   1.35394e-22
      289.500   1.36238e-22
      289.600   1.37084e-22
      289.700   1.37936e-22
      289.800   1.38791e-22
      289.900   1.39648e-22
      290.000   1.40512e-22
      290.100   1.41376e-22
      290.200   1.42247e-22
      290.300   1.43122e-22
      290.400   1.43999e-22
      290.500   1.44881e-22
      290.600   1.45765e-22
      290.700   1.46654e-22
      290.800   1.47548e-22
      290.900   1.48445e-22
      291.000   1.49347e-22
      291.100   1.50252e-22
      291.200   1.51160e-22
      291.300   1.52074e-22
      291.400   1.52990e-22
      291.500   1.53910e-22
      291.600   1.54836e-22
      291.700   1.55763e-22
      291.800   1.56696e-22
      291.900   1.57633e-22
      292.000   1.58575e-22
      292.100   1.59522e-22
      292.200   1.60470e-22
      292.300   1.61423e-22
      292.400   1.62380e-22
      292.500   1.63342e-22
      292.600   1.64304e-22
      292.700   1.65267e-22
      292.800   1.66234e-22
      292.900   1.67204e-22
      293.000   1.68178e-22
      293.100   1.69158e-22
      293.200   1.70140e-22
      293.300   1.71125e-22
      293.400   1.72117e-22
      293.500   1.73111e-22
      293.600   1.74109e-22
      293.700   1.75113e-22
      293.800   1.76120e-22
      293.900   1.77130e-22
      294.000   1.78143e-22
      294.100   1.79161e-22
      294.200   1.80183e-22
      294.300   1.81209e-22
      294.400   1.82239e-22
      294.500   1.83271e-22
      294.600   1.84306e-22
      294.700   1.85348e-22
      294.800   1.86393e-22
      294.900   1.87439e-22
      295.000   1.88492e-22
      295.100   1.89549e-22
      295.200   1.90608e-22
      295.300   1.91671e-22
      295.400   1.92737e-22
      295.500   1.93807e-22
      295.600   1.94880e-22
      295.700   1.95956e-22
      295.800   1.97036e-22
      295.900   1.98120e-22
      296.000   1.99209e-22
      296.100   2.00298e-22
      296.200   2.01393e-22
      296.300   2.02489e-22
      296.400   2.03591e-22
      296.500   2.04694e-22
      296.600   2.05802e-22
      296.700   2.06912e-22
      296.800   2.08025e-22
      296.900   2.09142e-22
      297.000   2.10263e-22
      297.100   2.11386e-22
      297.200   2.12639e-22
      297.300   2.14855e-22
      297.400   2.19443e-22
      297.500   2.24121e-22
      297.600   2.28892e-22
      297.700   2.33764e-22
      297.800   2.38727e-22
      297.900   2.43785e-22
      298.000   2.48936e-22
      298.100   2.54186e-22
      298.200   2.59534e-22
      298.300   2.64983e-22
      298.400   2.70537e-22
      298.500   2.76194e-22
      298.600   2.81960e-22
      298.700   2.87828e-22
      298.800   2.93808e-22
      298.900   2.99906e-22
      299.000   3.06121e-22
      299.100   3.12451e-22
      299.200   3.18899e-22
      299.300   3.25460e-22
      299.400   3.32146e-22
      299.500   3.38953e-22
      299.600   3.45880e-22
      299.700   3.52932e-22
      299.800   3.60119e-22
      299.900   3.67433e-22
      300.000   3.74873e-22
      300.100   3.82462e-22
      300.192   3.89562e-22
      300.285   3.96858e-22
      300.377   4.04194e-22
      300.470   4.11736e-22
      300.562   4.19312e-22
      300.654   4.27014e-22
      300.747   4.34938e-22
      300.839   4.42896e-22
      300.932   4.51072e-22
      301.025   4.59391e-22
      301.117   4.67747e-22
      301.210   4.76326e-22
      301.303   4.85058e-22
      301.395   4.93818e-22
      301.488   5.02832e-22
      301.581   5.11972e-22
      301.674   5.21275e-22
      301.766   5.30616e-22
      301.859   5.40221e-22
      301.952   5.49966e-22
      302.045   5.59877e-22
      302.138   5.87193e-22
      302.231   6.22936e-22
      302.324   6.61021e-22
      302.417   7.01357e-22
      302.510   7.44015e-22
      302.603   7.89094e-22
      302.696   8.36786e-22
      302.789   8.87245e-22
      302.882   9.40575e-22
      302.976   9.97556e-22
      303.069   1.05715e-21
      303.162   1.12012e-21
      303.255   1.18665e-21
      303.349   1.25771e-21
      303.442   1.33201e-21
      303.535   1.41038e-21
      303.629   1.49404e-21
      303.722   1.58147e-21
      303.816   1.67477e-21
      303.909   1.77222e-21
      304.003   1.87611e-21
      304.096   1.98465e-21
      304.190   2.10039e-21
      304.283   2.22115e-21
      304.377   2.34976e-21
      304.471   2.48553e-21
      304.564   2.62714e-21
      304.658   2.77801e-21
      304.752   2.93721e-21
      304.846   3.10482e-21
      304.939   3.27962e-21
      305.033   3.46576e-21
      305.127   3.66182e-21
      305.221   3.86831e-21
      305.315   4.08596e-21
      305.409   4.31498e-21
      305.503   4.55615e-21
      305.597   4.81017e-21
      305.691   5.07737e-21
      305.785   5.35881e-21
      305.879   5.65483e-21
      305.973   5.96600e-21
      306.067   6.29365e-21
      306.161   6.63809e-21
      306.255   7.00033e-21
      306.350   7.38537e-21
      306.444   7.78596e-21
      306.538   8.20720e-21
      306.633   8.65441e-21
      306.727   9.11977e-21
      306.821   9.60868e-21
      306.916   1.01276e-20
      307.010   1.06699e-20
      307.105   1.12480e-20
      307.199   1.18493e-20
      307.294   1.24879e-20
      307.388   1.31515e-20
      307.483   1.38559e-20
      307.577   1.45879e-20
      307.672   1.53646e-20
      307.767   1.61800e-20
      307.861   1.70263e-20
      307.956   1.79248e-20
      308.051   1.88678e-20
      308.146   1.98570e-20
      308.240   2.08833e-20
      308.335   2.19712e-20
      308.430   2.31128e-20
      308.525   2.43106e-20
      308.620   2.55656e-20
      308.715   2.68818e-20
      308.810   2.82617e-20
      308.905   2.97078e-20
      309.000   3.12224e-20
      309.095   3.28101e-20
      309.190   3.44733e-20
      309.285   3.62161e-20
      309.380   3.80412e-20
      309.476   3.99723e-20
      309.571   4.19743e-20
      309.666   4.40717e-20
      309.761   4.62658e-20
      309.857   4.85863e-20
      309.952   5.09901e-20
      310.047   5.35042e-20
      310.143   5.61639e-20
      310.238   5.89177e-20
      310.334   6.18280e-20
      310.429   6.48429e-20
      310.525   6.80256e-20
      310.620   7.13212e-20
      310.716   7.48025e-20
      310.811   7.84048e-20
      310.907   8.22065e-20
      311.003   8.61807e-20
      311.098   9.02924e-20
      311.194   9.46338e-20
      311.290   9.91705e-20
      311.386   1.03908e-19
      311.481   1.08805e-19
      311.577   1.13970e-19
      311.673   1.19368e-19
      311.769   1.25004e-19
      311.865   1.30882e-19
      311.961   1.37049e-19
      312.057   1.43542e-19
      312.153   1.50335e-19
      312.249   1.57429e-19
      312.345   1.64837e-19
      312.441   1.72571e-19
      312.537   1.80639e-19
      312.633   1.89058e-19
      312.730   1.97943e-19
      312.826   2.07116e-19
      312.922   2.16682e-19
      313.018   2.26663e-19
      313.115   2.37184e-19
      313.211   2.48048e-19
      313.307   2.59374e-19
      313.404   2.71305e-19
      313.500   2.83619e-19
      313.597   2.96587e-19
      313.693   3.09957e-19
      313.790   3.24045e-19
      313.886   3.38576e-19
      313.983   3.53879e-19
      314.079   3.69658e-19
      314.176   3.86257e-19
      314.273   4.03554e-19
      314.369   4.21385e-19
      314.466   4.40146e-19
      314.563   4.59685e-19
      314.660   4.80010e-19
      314.756   5.00970e-19
      314.853   5.23004e-19
      314.950   5.45941e-19
      315.047   5.69810e-19
      315.144   5.94658e-19
      315.241   6.20503e-19
      315.338   6.47402e-19
      315.435   6.75372e-19
      315.532   7.04464e-19
      315.629   7.34711e-19
      315.726   7.66169e-19
      315.823   7.98902e-19
      315.921   8.33249e-19
      316.018   8.68622e-19
      316.115   9.05385e-19
      316.212   9.43591e-19
      316.310   9.83699e-19
      316.407   1.02494e-18
      316.504   1.06782e-18
      316.602   1.11281e-18
      316.699   1.15907e-18
      316.796   1.20709e-18
      316.894   1.25748e-18
      316.991   1.30934e-18
      317.089   1.36411e-18
      317.187   1.42122e-18
      317.284   1.47990e-18
      317.382   1.54146e-18
      317.479   1.60475e-18
      317.577   1.67109e-18
      317.675   1.73995e-18
      317.773   1.81148e-18
      317.870   1.88495e-18
      317.968   1.96204e-18
      318.066   2.04200e-18
      318.164   2.12496e-18
      318.262   2.21105e-18
      318.360   2.30039e-18
      318.458   2.39305e-18
      318.556   2.48913e-18
      318.654   2.58878e-18
      318.752   2.69209e-18
      318.850   2.79921e-18
      318.948   2.91033e-18
      319.046   3.02552e-18
      319.144   3.14492e-18
      319.242   3.26861e-18
      319.341   3.39816e-18
      319.439   3.53104e-18
      319.537   3.66872e-18
      319.635   3.81136e-18
      319.734   3.96061e-18
      319.832   4.11366e-18
      319.930   4.27218e-18
      320.029   4.43801e-18
      320.127   4.60799e-18
      320.226   4.78584e-18
      320.324   4.96814e-18
      320.423   5.15877e-18
      320.522   5.35606e-18
      320.620   5.55816e-18
      320.719   5.76949e-18
      320.818   5.98822e-18
      320.916   6.21223e-18
      321.015   6.44643e-18
      321.114   6.68863e-18
      321.213   6.93924e-18
      321.311   7.19575e-18
      321.410   7.46358e-18
      321.509   7.74074e-18
      321.608   8.02712e-18
      321.707   8.32337e-18
      321.806   8.62971e-18
      321.905   8.94615e-18
      322.004   9.27354e-18
      322.103   9.65936e-18
      322.202   1.01426e-17
      322.301   1.06843e-17
      322.401   1.12587e-17
      322.500   1.18555e-17
      322.599   1.24814e-17
      322.698   1.31378e-17
      322.798   1.38336e-17
      322.897   1.45561e-17
      322.996   1.53130e-17
      323.096   1.61150e-17
      323.195   1.69469e-17
      323.294   1.78184e-17
      323.394   1.87404e-17
      323.493   1.96970e-17
      323.593   2.07089e-17
      323.692   2.17578e-17
      323.792   2.28669e-17
      323.892   2.40279e-17
      323.991   2.52314e-17
      324.091   2.65030e-17
      324.191   2.78342e-17
      324.291   2.92261e-17
      324.390   3.06665e-17
      324.490   3.21899e-17
      324.590   3.37808e-17
      324.690   3.54438e-17
      324.790   3.71828e-17
      324.890   3.89996e-17
      324.990   4.08990e-17
      325.090   4.28836e-17
      325.190   4.49545e-17
      325.290   4.71169e-17
      325.390   4.93766e-17
      325.490   5.17340e-17
      325.590   5.41938e-17
      325.690   5.67619e-17
      325.790   5.94408e-17
      325.891   6.22640e-17
      325.991   6.51793e-17
      326.091   6.82207e-17
      326.192   7.14234e-17
      326.292   7.47295e-17
      326.392   7.81739e-17
      326.493   8.18009e-17
      326.593   8.55431e-17
      326.694   8.94779e-17
      326.794   9.35385e-17
      326.895   9.78103e-17
      326.995   1.02215e-16
      327.096   1.06844e-16
      327.197   1.11665e-16
      327.297   1.16641e-16
      327.398   1.21887e-16
      327.499   1.27357e-16
      327.599   1.32994e-16
      327.700   1.38917e-16
      327.801   1.45076e-16
      327.902   1.51481e-16
      328.003   1.58147e-16
      328.104   1.65077e-16
      328.205   1.72282e-16
      328.306   1.79769e-16
      328.407   1.87549e-16
      328.508   1.95634e-16
      328.609   2.04033e-16
      328.710   2.12754e-16
      328.811   2.21814e-16
      328.912   2.31224e-16
      329.013   2.40987e-16
      329.115   2.51227e-16
      329.216   2.61753e-16
      329.317   2.72671e-16
      329.419   2.84111e-16
      329.520   2.95869e-16
      329.621   3.08061e-16
      329.723   3.20838e-16
      329.824   3.33936e-16
      329.926   3.47659e-16
      330.027   3.61751e-16
      330.129   3.76500e-16
      330.230   3.91624e-16
      330.332   4.07459e-16
      330.434   4.23858e-16
      330.535   4.40684e-16
      330.637   4.58276e-16
      330.739   4.76477e-16
      330.840   4.95146e-16
      330.942   5.14666e-16
      331.044   5.34867e-16
      331.146   5.55767e-16
      331.248   5.77394e-16
      331.350   5.99765e-16
      331.452   6.22923e-16
      331.554   6.47205e-16
      331.656   6.72906e-16
      331.758   6.99507e-16
      331.860   7.27062e-16
      331.962   7.55576e-16
      332.064   7.85084e-16
      332.166   8.15609e-16
      332.268   8.47206e-16
      332.371   8.80197e-16
      332.473   9.13998e-16
      332.575   9.47506e-16
      332.677   9.77255e-16
      332.780   1.00420e-15
      332.882   1.03154e-15
      332.985   1.05977e-15
      333.087   1.08841e-15
      333.190   1.11799e-15
      333.292   1.14762e-15
      333.395   1.17731e-15
      333.497   1.20696e-15
      333.600   1.23755e-15
      333.702   1.26848e-15
      333.805   1.30035e-15
      333.908   1.33295e-15
      334.011   1.36619e-15
      334.113   1.39979e-15
      334.216   1.43443e-15
      334.319   1.46978e-15
      334.422   1.50585e-15
      334.525   1.54267e-15
      334.628   1.58023e-15
      334.731   1.61853e-15
      334.834   1.65763e-15
      334.937   1.69751e-15
      335.040   1.73820e-15
      335.143   1.77966e-15
      335.246   1.82196e-15
      335.349   1.86506e-15
      335.452   1.90901e-15
      335.555   1.95380e-15
      335.659   1.99994e-15
      335.762   2.04653e-15
      335.865   2.09397e-15
      335.969   2.14280e-15
      336.072   2.19209e-15
      336.175   2.24227e-15
      336.279   2.29389e-15
      336.382   2.34599e-15
      336.486   2.39959e-15
      336.589   2.45362e-15
      336.693   2.50920e-15
      336.796   2.56520e-15
      336.900   2.62285e-15
      337.004   2.68156e-15
      337.107   2.74066e-15
      337.211   2.80149e-15
      337.315   2.86337e-15
      337.419   2.92637e-15
      337.523   2.99044e-15
      337.626   3.05502e-15
      337.730   3.12140e-15
      337.834   3.18889e-15
      337.938   3.25744e-15
      338.042   3.32670e-15
      338.146   3.39708e-15
      338.250   3.46863e-15
      338.354   3.54141e-15
      338.458   3.61542e-15
      338.562   3.69066e-15
      338.667   3.76787e-15
      338.771   3.84564e-15
      338.875   3.92464e-15
      338.979   4.00497e-15
      339.084   4.08735e-15
      339.188   4.17023e-15
      339.292   4.25453e-15
      339.397   4.34098e-15
      339.501   4.42796e-15
      339.606   4.51724e-15
      339.710   4.60697e-15
      339.815   4.69906e-15
      339.919   4.79163e-15
      340.024   4.88662e-15
      340.128   4.98204e-15
      340.233   5.08000e-15
      340.338   5.17936e-15
      340.442   5.27931e-15
      340.547   5.38174e-15
      340.652   5.48575e-15
      340.757   5.59128e-15
      340.862   5.69843e-15
      340.966   5.80610e-15
      341.071   5.91632e-15
      341.176   6.02825e-15
      341.281   6.14181e-15
      341.386   6.25701e-15
      341.491   6.37392e-15
      341.596   6.49251e-15
      341.702   6.61397e-15
      341.807   6.73590e-15
      341.912   6.85964e-15
      342.017   6.98516e-15
      342.122   7.11242e-15
      342.228   7.24256e-15
      342.333   7.37339e-15
      342.438   7.50605e-15
      342.544   7.64172e-15
      342.649   7.77796e-15
      342.754   7.91607e-15
      342.860   8.05736e-15
      342.965   8.19934e-15
      343.071   8.34435e-15
      343.176   8.49008e-15
      343.282   8.63920e-15
      343.388   8.79021e-15
      343.493   8.94266e-15
      343.599   9.10616e-15
      343.705   9.27292e-15
      343.810   9.44029e-15
      343.916   9.61161e-15
      344.022   9.78547e-15
      344.128   9.96164e-15
      344.234   1.01404e-14
      344.340   1.03216e-14
      344.446   1.05052e-14
      344.552   1.06915e-14
      344.658   1.08804e-14
      344.764   1.10716e-14
      344.870   1.12657e-14
      344.976   1.14621e-14
      345.082   1.16613e-14
      345.188   1.18632e-14
      345.294   1.20677e-14
      345.401   1.22770e-14
      345.507   1.24870e-14
      345.613   1.26997e-14
      345.719   1.29152e-14
      345.826   1.31357e-14
      345.932   1.33569e-14
      346.039   1.35830e-14
      346.145   1.38099e-14
      346.252   1.40419e-14
      346.358   1.42746e-14
      346.465   1.45123e-14
      346.571   1.47510e-14
      346.678   1.49948e-14
      346.785   1.52418e-14
      346.891   1.54893e-14
      346.998   1.57422e-14
      347.105   1.59983e-14
      347.212   1.62577e-14
      347.319   1.65202e-14
      347.425   1.67833e-14
      347.532   1.70522e-14
      347.639   1.73241e-14
      347.746   1.75994e-14
      347.853   1.78782e-14
      347.960   1.81600e-14
      348.067   1.84452e-14
      348.174   1.87336e-14
      348.281   1.90253e-14
      348.389   1.93234e-14
      348.496   1.96218e-14
      348.603   1.99240e-14
      348.710   2.02293e-14
      348.818   2.05413e-14
      348.925   2.08515e-14
      349.032   2.10616e-14
      349.140   2.10227e-14
      349.247   2.09838e-14
      349.355   2.09447e-14
      349.462   2.09058e-14
      349.570   2.08665e-14
      349.677   2.08275e-14
      349.785   2.07880e-14
      349.892   2.07489e-14
      350.000   2.07096e-14
      350.100   2.06730e-14
      350.193   2.06390e-14
      350.287   2.06045e-14
      350.380   2.05704e-14
      350.473   2.05363e-14
      350.567   2.05017e-14
      350.660   2.04675e-14
      350.754   2.04330e-14
      350.847   2.03987e-14
      350.941   2.03640e-14
      351.034   2.03297e-14
      351.128   2.02952e-14
      351.221   2.02608e-14
      351.315   2.02261e-14
      351.409   2.01913e-14
      351.502   2.01569e-14
      351.596   2.01221e-14
      351.690   2.00872e-14
      351.783   2.00528e-14
      351.877   2.00180e-14
      351.971   1.99831e-14
      352.065   1.99483e-14
      352.159   1.99134e-14
      352.252   1.98789e-14
      352.346   1.98438e-14
      352.440   1.98089e-14
      352.534   1.97739e-14
      352.628   1.97390e-14
      352.722   1.97039e-14
      352.816   1.96689e-14
      352.910   1.96338e-14
      353.004   1.95988e-14
      353.098   1.95637e-14
      353.192   1.95286e-14
      353.287   1.94930e-14
      353.381   1.94579e-14
      353.475   1.94228e-14
      353.569   1.93876e-14
      353.663   1.93523e-14
      353.758   1.93168e-14
      353.852   1.92816e-14
      353.946   1.92464e-14
      354.041   1.92107e-14
      354.135   1.91754e-14
      354.229   1.91400e-14
      354.324   1.91044e-14
      354.418   1.90690e-14
      354.513   1.90332e-14
      354.607   1.89979e-14
      354.702   1.89329e-14
      354.796   1.88504e-14
      354.891   1.87656e-14
      354.985   1.86821e-14
      355.080   1.85980e-14
      355.175   1.85142e-14
      355.269   1.84316e-14
      355.364   1.83486e-14
      355.459   1.82658e-14
      355.553   1.81843e-14
      355.648   1.81022e-14
      355.743   1.80205e-14
      355.838   1.79390e-14
      355.933   1.78580e-14
      356.027   1.77781e-14
      356.122   1.76976e-14
      356.217   1.76174e-14
      356.312   1.75377e-14
      356.407   1.74581e-14
      356.502   1.73789e-14
      356.597   1.73000e-14
      356.692   1.72214e-14
      356.787   1.71432e-14
      356.882   1.70651e-14
      356.977   1.69875e-14
      357.073   1.69094e-14
      357.168   1.68322e-14
      357.263   1.67554e-14
      357.358   1.66790e-14
      357.453   1.66028e-14
      357.549   1.65261e-14
      357.644   1.64505e-14
      357.739   1.63752e-14
      357.835   1.62994e-14
      357.930   1.62246e-14
      358.025   1.61502e-14
      358.121   1.60752e-14
      358.216   1.60013e-14
      358.312   1.59269e-14
      358.407   1.58535e-14
      358.503   1.57797e-14
      358.598   1.57069e-14
      358.694   1.56335e-14
      358.790   1.55605e-14
      358.885   1.54885e-14
      358.981   1.54160e-14
      359.076   1.53445e-14
      359.172   1.52726e-14
      359.268   1.52008e-14
      359.364   1.51294e-14
      359.459   1.50590e-14
      359.555   1.49881e-14
      359.651   1.49174e-14
      359.747   1.48469e-14
      359.843   1.47768e-14
      359.939   1.47068e-14
      360.035   1.46372e-14
      360.131   1.45678e-14
      360.227   1.44986e-14
      360.323   1.44298e-14
      360.419   1.44442e-14
      360.515   1.45325e-14
      360.611   1.46351e-14
      360.707   1.47381e-14
      360.803   1.48411e-14
      360.899   1.49445e-14
      360.995   1.50481e-14
      361.092   1.51531e-14
      361.188   1.52572e-14
      361.284   1.53615e-14
      361.380   1.54661e-14
      361.477   1.55719e-14
      361.573   1.56770e-14
      361.669   1.57821e-14
      361.766   1.58885e-14
      361.862   1.59940e-14
      361.959   1.61008e-14
      362.055   1.62067e-14
      362.152   1.63139e-14
      362.248   1.64201e-14
      362.345   1.65276e-14
      362.441   1.66341e-14
      362.538   1.67419e-14
      362.635   1.68498e-14
      362.731   1.69568e-14
      362.828   1.70648e-14
      362.925   1.71731e-14
      363.021   1.72805e-14
      363.118   1.73890e-14
      363.215   1.74976e-14
      363.312   1.76063e-14
      363.409   1.77151e-14
      363.505   1.78227e-14
      363.602   1.79318e-14
      363.699   1.80409e-14
      363.796   1.81499e-14
      363.893   1.82589e-14
      363.990   1.83680e-14
      364.087   1.84772e-14
      364.184   1.85864e-14
      364.281   1.86956e-14
      364.378   1.88050e-14
      364.475   1.89142e-14
      364.573   1.90246e-14
      364.670   1.91337e-14
      364.767   1.92429e-14
      364.864   1.93522e-14
      364.961   1.94612e-14
      365.059   1.95715e-14
      365.156   1.96805e-14
      365.253   1.97896e-14
      365.351   1.98996e-14
      365.448   2.00085e-14
      365.545   2.01174e-14
      365.643   2.02272e-14
      365.740   2.03358e-14
      365.838   2.04455e-14
      365.935   2.05538e-14
      366.033   2.06632e-14
      366.130   2.07714e-14
      366.228   2.09191e-14
      366.326   2.11213e-14
      366.423   2.13394e-14
      366.521   2.15612e-14
      366.618   2.17818e-14
      366.716   2.20056e-14
      366.814   2.22305e-14
      366.912   2.24565e-14
      367.010   2.26839e-14
      367.107   2.29098e-14
      367.205   2.31392e-14
      367.303   2.33695e-14
      367.401   2.36008e-14
      367.499   2.38333e-14
      367.597   2.40667e-14
      367.695   2.43009e-14
      367.793   2.45362e-14
      367.891   2.47725e-14
      367.989   2.50101e-14
      368.087   2.52483e-14
      368.185   2.54872e-14
      368.283   2.57274e-14
      368.381   2.59686e-14
      368.480   2.62127e-14
      368.578   2.64555e-14
      368.676   2.66991e-14
      368.774   2.69435e-14
      368.873   2.71913e-14
      368.971   2.74373e-14
      369.069   2.76843e-14
      369.168   2.79346e-14
      369.266   2.81828e-14
      369.364   2.84320e-14
      369.463   2.86847e-14
      369.561   2.89353e-14
      369.660   2.91891e-14
      369.758   2.94410e-14
      369.857   2.96963e-14
      369.955   2.99497e-14
      370.054   3.02062e-14
      370.153   3.04633e-14
      370.251   3.07185e-14
      370.350   3.09769e-14
      370.449   3.12358e-14
      370.547   3.14925e-14
      370.646   3.17527e-14
      370.745   3.20132e-14
      370.844   3.22743e-14
      370.943   3.25358e-14
      371.041   3.27951e-14
      371.140   3.30575e-14
      371.239   3.33205e-14
      371.338   3.35839e-14
      371.437   3.38476e-14
      371.536   3.41113e-14
      371.635   3.43758e-14
      371.734   3.46405e-14
      371.833   3.49055e-14
      371.932   3.51708e-14
      372.032   3.54393e-14
      372.131   3.59528e-14
      372.230   3.69966e-14
      372.329   3.83352e-14
      372.428   3.97119e-14
      372.528   4.11413e-14
      372.627   4.25960e-14
      372.726   4.40910e-14
      372.826   4.56432e-14
      372.925   4.72223e-14
      373.024   4.88432e-14
      373.124   5.05245e-14
      373.223   5.22315e-14
      373.323   5.40020e-14
      373.422   5.58007e-14
      373.522   5.76638e-14
      373.621   5.95537e-14
      373.721   6.15124e-14
      373.820   6.34982e-14
      373.920   6.55539e-14
      374.020   6.76616e-14
      374.119   6.97955e-14
      374.219   7.20050e-14
      374.319   7.42655e-14
      374.419   7.65775e-14
      374.518   7.89209e-14
      374.618   8.13419e-14
      374.718   8.38194e-14
      374.818   8.63488e-14
      374.918   8.89340e-14
      375.018   9.15791e-14
      375.118   9.42794e-14
      375.218   9.70390e-14
      375.318   9.98570e-14
      375.418   1.02735e-13
      375.518   1.05670e-13
      375.618   1.08666e-13
      375.718   1.11722e-13
      375.818   1.14839e-13
      375.918   1.18019e-13
      376.019   1.21293e-13
      376.119   1.24599e-13
      376.219   1.27966e-13
      376.319   1.31398e-13
      376.420   1.34928e-13
      376.520   1.38487e-13
      376.620   1.42110e-13
      376.721   1.45837e-13
      376.821   1.49591e-13
      376.922   1.53480e-13
      377.022   1.57789e-13
      377.122   1.62616e-13
      377.223   1.67599e-13
      377.323   1.72637e-13
      377.424   1.77838e-13
      377.525   1.83144e-13
      377.625   1.88503e-13
      377.726   1.94027e-13
      377.827   1.99664e-13
      377.927   2.05356e-13
      378.028   2.11213e-13
      378.129   2.17186e-13
      378.230   2.23274e-13
      378.330   2.29413e-13
      378.431   2.35727e-13
      378.532   2.42153e-13
      378.633   2.48699e-13
      378.734   2.55362e-13
      378.835   2.62137e-13
      378.936   2.69029e-13
      379.037   2.76037e-13
      379.138   2.83160e-13
      379.239   2.90405e-13
      379.340   2.97762e-13
      379.441   3.05239e-13
      379.542   3.12831e-13
      379.643   3.20539e-13
      379.745   3.28444e-13
      379.846   3.36389e-13
      379.947   3.44446e-13
      380.048   3.52618e-13
      380.150   3.60995e-13
      380.251   3.69402e-13
      380.352   3.77921e-13
      380.454   3.86639e-13
      380.555   3.95389e-13
      380.656   4.04250e-13
      380.758   4.13316e-13
      380.859   4.22401e-13
      380.961   4.31685e-13
      381.062   4.40989e-13
      381.164   4.50503e-13
      381.266   4.60123e-13
      381.367   4.69757e-13
      381.469   4.79594e-13
      381.570   4.89435e-13
      381.672   4.99480e-13
      381.774   5.09637e-13
      381.876   5.19890e-13
      381.977   5.30282e-13
      382.079   5.41342e-13
      382.181   5.52912e-13
      382.283   5.64602e-13
      382.385   5.76421e-13
      382.487   5.88372e-13
      382.589   6.00428e-13
      382.691   6.12602e-13
      382.793   6.24895e-13
      382.895   6.37310e-13
      382.997   6.49837e-13
      383.099   6.62474e-13
      383.201   6.75213e-13
      383.303   6.88075e-13
      383.405   7.01029e-13
      383.507   7.14080e-13
      383.610   7.27369e-13
      383.712   7.40634e-13
      383.814   7.53980e-13
      383.916   7.67426e-13
      384.019   7.81099e-13
      384.121   7.94732e-13
      384.223   8.08438e-13
      384.326   8.22374e-13
      384.428   8.36237e-13
      384.531   8.50312e-13
      384.633   8.64333e-13
      384.736   8.78565e-13
      384.838   8.92725e-13
      384.941   9.07094e-13
      385.043   9.21389e-13
      385.146   9.35889e-13
      385.249   9.50446e-13
      385.351   9.64923e-13
      385.454   9.79601e-13
      385.557   9.94320e-13
      385.660   1.00910e-12
      385.762   1.02378e-12
      385.865   1.03864e-12
      385.968   1.05355e-12
      386.071   1.06850e-12
      386.174   1.08349e-12
      386.277   1.09850e-12
      386.380   1.11353e-12
      386.483   1.12860e-12
      386.586   1.14369e-12
      386.689   1.15880e-12
      386.792   1.17394e-12
      386.895   1.18908e-12
      386.998   1.20424e-12
      387.101   1.21386e-12
      387.204   1.20440e-12
      387.308   1.18850e-12
      387.411   1.17295e-12
      387.514   1.15761e-12
      387.617   1.14249e-12
      387.721   1.12741e-12
      387.824   1.11268e-12
      387.927   1.09813e-12
      388.031   1.08364e-12
      388.134   1.06949e-12
      388.238   1.05539e-12
      388.341   1.04160e-12
      388.445   1.02787e-12
      388.548   1.01444e-12
      388.652   1.00107e-12
      388.755   9.87995e-13
      388.859   9.74968e-13
      388.962   9.62238e-13
      389.066   9.49546e-13
      389.170   9.37035e-13
      389.274   9.24679e-13
      389.377   9.12601e-13
      389.481   9.00560e-13
      389.585   8.88688e-13
      389.689   8.76967e-13
      389.793   8.65395e-13
      389.897   8.53986e-13
      390.000   8.42825e-13
      390.104   8.31709e-13
      390.208   8.20731e-13
      390.312   8.09902e-13
      390.416   7.99209e-13
      390.520   7.88644e-13
      390.625   7.78116e-13
      390.729   7.67837e-13
      390.833   7.57685e-13
      390.937   7.47668e-13
      391.041   7.37785e-13
      391.145   7.28031e-13
      391.250   7.18308e-13
      391.354   7.08802e-13
      391.458   6.99415e-13
      391.563   6.90062e-13
      391.667   6.80925e-13
      391.771   6.71909e-13
      391.876   6.62924e-13
      391.980   6.54143e-13
      392.085   6.45398e-13
      392.189   6.36852e-13
      392.294   6.28337e-13
      392.398   6.20018e-13
      392.503   6.11730e-13
      392.607   6.03630e-13
      392.712   5.95564e-13
      392.817   5.87599e-13
      392.921   5.79824e-13
      393.026   5.72074e-13
      393.131   5.64431e-13
      393.236   5.56884e-13
      393.340   5.49514e-13
      393.445   5.42174e-13
      393.550   5.34930e-13
      393.655   5.27783e-13
      393.760   5.20733e-13
      393.865   5.13776e-13
      393.970   5.06918e-13
      394.075   5.00145e-13
      394.180   4.93468e-13
      394.285   4.86879e-13
      394.390   4.80380e-13
      394.495   4.73964e-13
      394.600   4.67638e-13
      394.706   4.61338e-13
      394.811   4.55183e-13
      394.916   4.49105e-13
      395.021   4.43111e-13
      395.126   4.37203e-13
      395.232   4.31312e-13
      395.337   4.25558e-13
      395.443   4.19829e-13
      395.548   4.14230e-13
      395.653   4.08708e-13
      395.759   4.03205e-13
      395.864   3.97830e-13
      395.970   3.92477e-13
      396.075   3.87246e-13
      396.181   3.82034e-13
      396.286   3.76941e-13
      396.392   3.71873e-13
      396.498   3.66873e-13
      396.603   3.61982e-13
      396.709   3.57115e-13
      396.815   3.52310e-13
      396.921   3.47570e-13
      397.026   3.42941e-13
      397.132   3.38328e-13
      397.238   3.33781e-13
      397.344   3.29290e-13
      397.450   3.24868e-13
      397.556   3.20497e-13
      397.662   3.16186e-13
      397.768   3.11934e-13
      397.874   3.07737e-13
      397.980   3.03597e-13
      398.086   2.99511e-13
      398.192   2.95482e-13
      398.298   2.91506e-13
      398.404   2.87584e-13
      398.510   2.83713e-13
      398.617   2.79862e-13
      398.723   2.76096e-13
      398.829   2.72378e-13
      398.935   2.68712e-13
      399.042   2.65062e-13
      399.148   2.61492e-13
      399.255   2.57940e-13
      399.361   2.54468e-13
      399.467   2.51038e-13
      399.574   2.47627e-13
      399.680   2.44290e-13
      399.787   2.40968e-13
      399.893       0.00000
      400.000       0.00000
