Filter Ti-poly
observation_date 22Sept2021
wavelength effective area
      1.00000   2.76776e-10
      1.10000   7.88638e-10
      1.20000   2.04568e-09
      1.30000   4.87933e-09
      1.40000   1.10399e-08
      1.50000   2.34772e-08
      1.60000   4.73585e-08
      1.70000   9.15813e-08
      1.80000   1.69776e-07
      1.90000   3.03739e-07
      2.00000   5.25447e-07
      2.10000   8.82846e-07
      2.20000   1.44760e-06
      2.30000   2.31334e-06
      2.40000   3.60945e-06
      2.50000   5.78521e-06
      2.60000   8.95638e-06
      2.70000   1.33527e-05
      2.80000   1.95263e-05
      2.90000   2.82610e-05
      3.00000   4.02652e-05
      3.10000   5.66313e-05
      3.20000   7.87808e-05
      3.30000   0.000108480
      3.40000   0.000147820
      3.50000   0.000199479
      3.60000   0.000267955
      3.70000   0.000356120
      3.80000   0.000471339
      3.90000   0.000620381
      4.00000   0.000811480
      4.10000    0.00105654
      4.20000    0.00137071
      4.30000    0.00177326
      4.40000    0.00228795
      4.50000    0.00294395
      4.60000    0.00377538
      4.70000    0.00484150
      4.80000    0.00620243
      4.90000    0.00784382
      5.00000     0.0101809
      5.10000     0.0130282
      5.20000     0.0167214
      5.30000     0.0212802
      5.40000     0.0270387
      5.50000     0.0344159
      5.60000     0.0424627
      5.70000     0.0551954
      5.80000     0.0647072
      5.90000     0.0987959
      6.00000      0.132803
      6.10000      0.169730
      6.20000      0.208422
      6.30000      0.245323
      6.40000      0.276983
      6.50000      0.300287
      6.60000      0.310823
      6.70000      0.320507
      6.80000      0.320927
      6.90000      0.421022
      7.00000      0.457843
      7.10000      0.484191
      7.20000      0.505113
      7.30000      0.522166
      7.40000      0.535173
      7.50000      0.545514
      7.60000      0.553299
      7.70000      0.557065
      7.80000      0.555732
      7.90000      0.555059
      8.00000      0.802451
      8.10000      0.878102
      8.20000      0.892006
      8.30000      0.901825
      8.40000      0.908168
      8.50000      0.913063
      8.60000      0.916231
      8.70000      0.918272
      8.80000      0.918888
      8.90000      0.918541
      9.00000      0.917169
      9.10000      0.914821
      9.20000      0.911680
      9.30000      0.907666
      9.40000      0.902924
      9.50000      0.897512
      9.60000      0.891382
      9.70000      0.884643
      9.80000      0.877441
      9.90000      0.869806
      10.0000      0.861798
      10.1000      0.853428
      10.2000      0.844721
      10.3000      0.835625
      10.4000      0.826164
      10.5000      0.816365
      10.6000      0.806267
      10.7000      0.795895
      10.8000      0.785257
      10.9000      0.774386
      11.0000      0.763297
      11.1000      0.752022
      11.2000      0.740568
      11.3000      0.728967
      11.4000      0.717215
      11.5000      0.705314
      11.6000      0.693282
      11.7000      0.681069
      11.8000      0.668754
      11.9000      0.656258
      12.0000      0.642903
      12.1000      0.631892
      12.2000      0.631945
      12.3000      0.625315
      12.4000      0.614065
      12.5000      0.602435
      12.6000      0.590672
      12.7000      0.578873
      12.8000      0.567076
      12.9000      0.555292
      13.0000      0.543563
      13.1000      0.531921
      13.2000      0.520379
      13.3000      0.508954
      13.4000      0.497661
      13.5000      0.486630
      13.6000      0.475837
      13.7000      0.465171
      13.8000      0.454626
      13.9000      0.444224
      14.0000      0.433962
      14.1000      0.423825
      14.2000      0.413815
      14.3000      0.403930
      14.4000      0.394159
      14.5000      0.384515
      14.6000      0.375001
      14.7000      0.365607
      14.8000      0.356338
      14.9000      0.347196
      15.0000      0.338184
      15.1000      0.329309
      15.2000      0.320594
      15.3000      0.312024
      15.4000      0.303593
      15.5000      0.295303
      15.6000      0.287172
      15.7000      0.279197
      15.8000      0.271414
      15.9000      0.263794
      16.0000      0.256336
      16.1000      0.249040
      16.2000      0.241945
      16.3000      0.235002
      16.4000      0.228196
      16.5000      0.221524
      16.6000      0.214999
      16.7000      0.208625
      16.8000      0.202374
      16.9000      0.196244
      17.0000      0.190259
      17.1000      0.184417
      17.2000      0.178688
      17.3000      0.173079
      17.4000      0.167714
      17.5000      0.162560
      17.6000      0.157586
      17.7000      0.152820
      17.8000      0.148353
      17.9000      0.143985
      18.0000      0.139684
      18.1000      0.135494
      18.2000      0.131346
      18.3000      0.127230
      18.4000      0.123139
      18.5000      0.119083
      18.6000      0.115047
      18.7000      0.111017
      18.8000      0.107098
      18.9000      0.103262
      19.0000     0.0995415
      19.1000     0.0959426
      19.2000     0.0924320
      19.3000     0.0890619
      19.4000     0.0858049
      19.5000     0.0826329
      19.6000     0.0796215
      19.7000     0.0766941
      19.8000     0.0738427
      19.9000     0.0711325
      20.0000     0.0684809
      20.1000     0.0659094
      20.2000     0.0634252
      20.3000     0.0609915
      20.4000     0.0586532
      20.5000     0.0563728
      20.6000     0.0541452
      20.7000     0.0520097
      20.8000     0.0499146
      20.9000     0.0478917
      21.0000     0.0460223
      21.1000     0.0442710
      21.2000     0.0428709
      21.3000     0.0415721
      21.4000     0.0404921
      21.5000     0.0396584
      21.6000     0.0390726
      21.7000     0.0384586
      21.8000     0.0378348
      21.9000     0.0371320
      22.0000     0.0363812
      22.1000     0.0355120
      22.2000     0.0344315
      22.3000     0.0331693
      22.4000     0.0312387
      22.5000     0.0291058
      22.6000     0.0245091
      22.7000     0.0216844
      22.8000     0.0278431
      22.9000     0.0355837
      23.0000     0.0446127
      23.1000     0.0500871
      23.2000     0.0521827
      23.3000     0.0520027
      23.4000     0.0506773
      23.5000     0.0493217
      23.6000     0.0479641
      23.7000     0.0465240
      23.8000     0.0450854
      23.9000     0.0436846
      24.0000     0.0422931
      24.1000     0.0409228
      24.2000     0.0395695
      24.3000     0.0382613
      24.4000     0.0369712
      24.5000     0.0357186
      24.6000     0.0344893
      24.7000     0.0333029
      24.8000     0.0321398
      24.9000     0.0310151
      25.0000     0.0299153
      25.1000     0.0288550
      25.2000     0.0278181
      25.3000     0.0268184
      25.4000     0.0258414
      25.5000     0.0249033
      25.6000     0.0239858
      25.7000     0.0231075
      25.8000     0.0222462
      25.9000     0.0214243
      26.0000     0.0206154
      26.1000     0.0198464
      26.2000     0.0190863
      26.3000     0.0183689
      26.4000     0.0176560
      26.5000     0.0169864
      26.6000     0.0163207
      26.7000     0.0156938
      26.8000     0.0150753
      26.9000     0.0144871
      27.0000     0.0139105
      27.1000     0.0133558
      27.2000     0.0128161
      27.3000     0.0552428
      27.4000      0.151132
      27.5000      0.220869
      27.6000      0.217208
      27.7000      0.213560
      27.8000      0.209837
      27.9000      0.206133
      28.0000      0.202499
      28.1000      0.198895
      28.2000      0.195349
      28.3000      0.191849
      28.4000      0.188390
      28.5000      0.184995
      28.6000      0.181625
      28.7000      0.178362
      28.8000      0.175117
      28.9000      0.171938
      29.0000      0.168790
      29.1000      0.165686
      29.2000      0.162631
      29.3000      0.159602
      29.4000      0.156643
      29.5000      0.153700
      29.6000      0.150821
      29.7000      0.147971
      29.8000      0.145164
      29.9000      0.142408
      30.0000      0.139669
      30.1000      0.137003
      30.2000      0.134353
      30.3000      0.136932
      30.4000      0.142478
      30.5000      0.146249
      30.6000      0.143547
      30.7000      0.140861
      30.8000      0.138235
      30.9000      0.135639
      31.0000      0.133076
      31.1000      0.130573
      31.2000      0.128084
      31.3000      0.125657
      31.4000      0.123255
      31.5000      0.120890
      31.6000      0.118586
      31.7000      0.116295
      31.8000      0.114059
      31.9000      0.111846
      32.0000      0.109645
      32.1000      0.107451
      32.2000      0.105271
      32.3000      0.103144
      32.4000      0.101049
      32.5000     0.0989746
      32.6000     0.0969835
      32.7000     0.0950066
      32.8000     0.0930704
      32.9000     0.0911725
      33.0000     0.0892859
      33.1000     0.0875089
      33.2000     0.0857582
      33.3000     0.0840309
      33.4000     0.0823500
      33.5000     0.0806801
      33.6000     0.0790501
      33.7000     0.0774508
      33.8000     0.0758606
      33.9000     0.0743228
      34.0000     0.0727998
      34.1000     0.0713040
      34.2000     0.0698507
      34.3000     0.0684054
      34.4000     0.0669885
      34.5000     0.0656055
      34.6000     0.0642302
      34.7000     0.0628861
      34.8000     0.0615605
      34.9000     0.0602422
      35.0000     0.0589722
      35.1000     0.0577135
      35.2000     0.0564700
      35.3000     0.0553014
      35.4000     0.0541393
      35.5000     0.0529952
      35.6000     0.0518858
      35.7000     0.0507826
      35.8000     0.0497028
      35.9000     0.0486506
      36.0000     0.0476042
      36.1000     0.0465856
      36.2000     0.0455887
      36.3000     0.0445974
      36.4000     0.0436366
      36.5000     0.0426924
      36.6000     0.0417536
      36.7000     0.0408476
      36.8000     0.0399547
      36.9000     0.0390669
      37.0000     0.0382129
      37.1000     0.0373692
      37.2000     0.0365304
      37.3000     0.0357256
      37.4000     0.0349294
      37.5000     0.0341378
      37.6000     0.0333793
      37.7000     0.0326283
      37.8000     0.0318817
      37.9000     0.0311670
      38.0000     0.0304599
      38.1000     0.0297569
      38.2000     0.0290834
      38.3000     0.0284179
      38.4000     0.0277563
      38.5000     0.0271215
      38.6000     0.0264960
      38.7000     0.0258741
      38.8000     0.0252758
      38.9000     0.0246885
      39.0000     0.0241046
      39.1000     0.0235406
      39.2000     0.0229899
      39.3000     0.0224424
      39.4000     0.0219105
      39.5000     0.0213945
      39.6000     0.0208816
      39.7000     0.0203799
      39.8000     0.0198972
      39.9000     0.0194174
      40.0000     0.0189443
      40.1000     0.0184939
      40.2000     0.0180461
      40.3000     0.0176011
      40.4000     0.0171796
      40.5000     0.0167616
      40.6000     0.0163462
      40.7000     0.0159483
      40.8000     0.0155586
      40.9000     0.0151712
      41.0000     0.0147954
      41.1000     0.0144324
      41.2000     0.0140716
      41.3000     0.0137167
      41.4000     0.0133795
      41.5000     0.0130443
      41.6000     0.0127112
      41.7000     0.0123956
      41.8000     0.0120842
      41.9000     0.0117747
      42.0000     0.0114765
      42.1000     0.0111878
      42.2000     0.0109009
      42.3000     0.0106186
      42.4000     0.0103511
      42.5000     0.0100852
      42.6000    0.00982103
      42.7000    0.00957017
      42.8000    0.00932399
      42.9000    0.00907930
      43.0000    0.00884145
      43.1000    0.00861395
      43.2000    0.00838786
      43.3000    0.00816317
      43.4000     0.0248928
      43.5000     0.0457754
      43.6000     0.0726090
      43.7000     0.0962298
      43.8000      0.106530
      43.9000      0.107840
      44.0000      0.105812
      44.1000      0.100647
      44.2000     0.0989747
      44.3000     0.0976088
      44.4000     0.0962638
      44.5000     0.0949454
      44.6000     0.0936305
      44.7000     0.0923189
      44.8000     0.0910492
      44.9000     0.0897884
      45.0000     0.0885308
      45.1000     0.0872881
      45.2000     0.0860763
      45.3000     0.0848678
      45.4000     0.0836623
      45.5000     0.0824864
      45.6000     0.0813259
      45.7000     0.0801685
      45.8000     0.0790153
      45.9000     0.0779016
      46.0000     0.0767906
      46.1000     0.0756825
      46.2000     0.0746242
      46.3000     0.0736494
      46.4000     0.0726772
      46.5000     0.0717075
      46.6000     0.0707729
      46.7000     0.0698570
      46.8000     0.0689435
      46.9000     0.0680322
      47.0000     0.0671690
      47.1000     0.0663111
      47.2000     0.0654553
      47.3000     0.0646072
      47.4000     0.0637869
      47.5000     0.0629687
      47.6000     0.0621527
      47.7000     0.0613522
      47.8000     0.0605756
      47.9000     0.0598008
      48.0000     0.0590281
      48.1000     0.0582728
      48.2000     0.0575312
      48.3000     0.0567915
      48.4000     0.0560536
      48.5000     0.0553423
      48.6000     0.0546425
      48.7000     0.0539445
      48.8000     0.0532481
      48.9000     0.0525750
      49.0000     0.0519079
      49.1000     0.0512424
      49.2000     0.0505786
      49.3000     0.0499375
      49.4000     0.0492997
      49.5000     0.0486635
      49.6000     0.0480288
      49.7000     0.0474169
      49.8000     0.0468069
      49.9000     0.0461985
      50.0000     0.0455922
      50.1000     0.0450047
      50.2000     0.0444308
      50.3000     0.0438636
      50.4000     0.0433026
      50.5000     0.0427476
      50.6000     0.0421992
      50.7000     0.0416573
      50.8000     0.0411216
      50.9000     0.0405925
      51.0000     0.0400699
      51.1000     0.0395538
      51.2000     0.0390433
      51.3000     0.0385397
      51.4000     0.0380427
      51.5000     0.0375501
      51.6000     0.0370628
      51.7000     0.0365805
      51.8000     0.0360988
      51.9000     0.0356223
      52.0000     0.0351507
      52.1000     0.0346848
      52.2000     0.0342239
      52.3000     0.0337677
      52.4000     0.0333184
      52.5000     0.0328742
      52.6000     0.0324248
      52.7000     0.0319703
      52.8000     0.0315207
      52.9000     0.0310773
      53.0000     0.0306399
      53.1000     0.0302073
      53.2000     0.0297806
      53.3000     0.0293591
      53.4000     0.0289422
      53.5000     0.0285308
      53.6000     0.0281245
      53.7000     0.0277228
      53.8000     0.0273262
      53.9000     0.0269345
      54.0000     0.0265480
      54.1000     0.0261675
      54.2000     0.0257914
      54.3000     0.0254191
      54.4000     0.0250518
      54.5000     0.0246889
      54.6000     0.0243307
      54.7000     0.0239782
      54.8000     0.0236303
      54.9000     0.0232863
      55.0000     0.0229468
      55.1000     0.0226109
      55.2000     0.0222691
      55.3000     0.0219232
      55.4000     0.0215820
      55.5000     0.0212448
      55.6000     0.0209124
      55.7000     0.0205845
      55.8000     0.0202608
      55.9000     0.0199419
      56.0000     0.0196304
      56.1000     0.0193195
      56.2000     0.0190092
      56.3000     0.0187036
      56.4000     0.0184018
      56.5000     0.0181043
      56.6000     0.0178113
      56.7000     0.0175226
      56.8000     0.0172377
      56.9000     0.0169574
      57.0000     0.0166879
      57.1000     0.0164264
      57.2000     0.0161685
      57.3000     0.0159139
      57.4000     0.0156628
      57.5000     0.0154151
      57.6000     0.0151708
      57.7000     0.0149298
      57.8000     0.0146927
      57.9000     0.0144593
      58.0000     0.0142291
      58.1000     0.0140015
      58.2000     0.0137773
      58.3000     0.0135563
      58.4000     0.0133383
      58.5000     0.0131235
      58.6000     0.0129122
      58.7000     0.0127039
      58.8000     0.0124983
      58.9000     0.0122956
      59.0000     0.0120958
      59.1000     0.0118989
      59.2000     0.0117049
      59.3000     0.0115139
      59.4000     0.0113256
      59.5000     0.0111401
      59.6000     0.0109573
      59.7000     0.0107771
      59.8000     0.0105994
      59.9000     0.0104241
      60.0000     0.0102519
      60.1000     0.0100820
      60.2000    0.00991465
      60.3000    0.00974982
      60.4000    0.00958752
      60.5000    0.00942777
      60.6000    0.00927014
      60.7000    0.00911465
      60.8000    0.00896138
      60.9000    0.00881023
      61.0000    0.00866148
      61.1000    0.00851521
      61.2000    0.00837116
      61.3000    0.00822926
      61.4000    0.00808953
      61.5000    0.00795193
      61.6000    0.00781630
      61.7000    0.00768312
      61.8000    0.00755427
      61.9000    0.00742819
      62.0000    0.00730398
      62.1000    0.00718161
      62.2000    0.00706129
      62.3000    0.00694277
      62.4000    0.00682591
      62.5000    0.00671076
      62.6000    0.00659733
      62.7000    0.00648604
      62.8000    0.00638148
      62.9000    0.00627859
      63.0000    0.00617726
      63.1000    0.00607742
      63.2000    0.00597894
      63.3000    0.00588182
      63.4000    0.00578617
      63.5000    0.00569204
      63.6000    0.00559922
      63.7000    0.00550773
      63.8000    0.00541769
      63.9000    0.00532905
      64.0000    0.00524172
      64.1000    0.00515569
      64.2000    0.00507107
      64.3000    0.00498776
      64.4000    0.00490562
      64.5000    0.00482459
      64.6000    0.00474472
      64.7000    0.00466601
      64.8000    0.00458847
      64.9000    0.00451208
      65.0000    0.00443691
      65.1000    0.00436305
      65.2000    0.00429034
      65.3000    0.00421866
      65.4000    0.00414800
      65.5000    0.00407836
      65.6000    0.00400970
      65.7000    0.00394212
      65.8000    0.00387563
      65.9000    0.00381024
      66.0000    0.00374595
      66.1000    0.00368270
      66.2000    0.00362039
      66.3000    0.00355903
      66.4000    0.00349858
      66.5000    0.00343902
      66.6000    0.00338033
      66.7000    0.00332257
      66.8000    0.00326580
      66.9000    0.00321033
      67.0000    0.00315606
      67.1000    0.00310266
      67.2000    0.00305010
      67.3000    0.00299838
      67.4000    0.00294744
      67.5000    0.00289725
      67.6000    0.00284783
      67.7000    0.00279920
      67.8000    0.00275127
      67.9000    0.00270390
      68.0000    0.00265725
      68.1000    0.00261143
      68.2000    0.00256632
      68.3000    0.00252193
      68.4000    0.00247825
      68.5000    0.00243527
      68.6000    0.00239300
      68.7000    0.00235142
      68.8000    0.00231049
      68.9000    0.00227079
      69.0000    0.00223489
      69.1000    0.00220247
      69.2000    0.00217104
      69.3000    0.00214042
      69.4000    0.00211101
      69.5000    0.00208106
      69.6000    0.00205024
      69.7000    0.00202067
      69.8000    0.00199254
      69.9000    0.00196479
      70.0000    0.00193735
      70.1000    0.00190973
      70.2000    0.00188346
      70.3000    0.00185855
      70.4000    0.00183373
      70.5000    0.00180956
      70.6000    0.00178598
      70.7000    0.00176273
      70.8000    0.00173973
      70.9000    0.00171619
      71.0000    0.00169221
      71.1000    0.00166933
      71.2000    0.00164755
      71.3000    0.00162447
      71.4000    0.00159981
      71.5000    0.00157709
      71.6000    0.00155718
      71.7000    0.00153713
      71.8000    0.00151644
      71.9000    0.00149646
      72.0000    0.00147798
      72.1000    0.00145911
      72.2000    0.00143750
      72.3000    0.00141627
      72.4000    0.00139763
      72.5000    0.00137928
      72.6000    0.00136117
      72.7000    0.00134331
      72.8000    0.00132567
      72.9000    0.00130827
      73.0000    0.00129149
      73.1000    0.00127513
      73.2000    0.00125897
      73.3000    0.00124302
      73.4000    0.00122742
      73.5000    0.00121228
      73.6000    0.00119733
      73.7000    0.00118259
      73.8000    0.00116802
      73.9000    0.00115361
      74.0000    0.00113946
      74.1000    0.00112659
      74.2000    0.00111420
      74.3000    0.00110083
      74.4000    0.00108675
      74.5000    0.00107309
      74.6000    0.00106009
      74.7000    0.00104726
      74.8000    0.00103465
      74.9000    0.00102230
      75.0000    0.00101001
      75.1000   0.000997823
      75.2000   0.000985754
      75.3000   0.000973818
      75.4000   0.000962132
      75.5000   0.000950833
      75.6000   0.000939670
      75.7000   0.000928641
      75.8000   0.000917758
      75.9000   0.000907142
      76.0000   0.000896772
      76.1000   0.000887182
      76.2000   0.000877790
      76.3000   0.000868509
      76.4000   0.000859495
      76.5000   0.000850588
      76.6000   0.000841761
      76.7000   0.000833019
      76.8000   0.000824361
      76.9000   0.000815796
      77.0000   0.000807328
      77.1000   0.000798958
      77.2000   0.000790680
      77.3000   0.000782486
      77.4000   0.000774368
      77.5000   0.000766306
      77.6000   0.000758148
      77.7000   0.000750069
      77.8000   0.000742065
      77.9000   0.000734132
      78.0000   0.000726168
      78.1000   0.000717972
      78.2000   0.000709883
      78.3000   0.000702574
      78.4000   0.000695591
      78.5000   0.000688602
      78.6000   0.000681466
      78.7000   0.000674399
      78.8000   0.000667133
      78.9000   0.000659871
      79.0000   0.000652683
      79.1000   0.000645565
      79.2000   0.000638536
      79.3000   0.000631796
      79.4000   0.000625204
      79.5000   0.000618614
      79.6000   0.000611869
      79.7000   0.000605185
      79.8000   0.000598453
      79.9000   0.000591733
      80.0000   0.000585054
      80.1000   0.000578187
      80.2000   0.000571378
      80.3000   0.000564362
      80.4000   0.000557161
      80.5000   0.000550030
      80.6000   0.000542988
      80.7000   0.000536031
      80.8000   0.000529198
      80.9000   0.000522546
      81.0000   0.000515969
      81.1000   0.000509474
      81.2000   0.000503058
      81.3000   0.000496729
      81.4000   0.000490975
      81.5000   0.000485315
      81.6000   0.000479861
      81.7000   0.000474766
      81.8000   0.000469739
      81.9000   0.000464963
      82.0000   0.000460343
      82.1000   0.000455784
      82.2000   0.000451109
      82.3000   0.000446483
      82.4000   0.000442012
      82.5000   0.000437750
      82.6000   0.000433516
      82.7000   0.000429188
      82.8000   0.000424745
      82.9000   0.000420336
      83.0000   0.000416017
      83.1000   0.000411760
      83.2000   0.000407546
      83.3000   0.000403375
      83.4000   0.000399253
      83.5000   0.000395192
      83.6000   0.000391277
      83.7000   0.000387399
      83.8000   0.000383530
      83.9000   0.000379628
      84.0000   0.000375759
      84.1000   0.000371988
      84.2000   0.000368345
      84.3000   0.000364735
      84.4000   0.000361111
      84.5000   0.000357486
      84.6000   0.000353897
      84.7000   0.000350411
      84.8000   0.000346999
      84.9000   0.000343625
      85.0000   0.000340188
      85.1000   0.000336757
      85.2000   0.000333363
      85.3000   0.000330151
      85.4000   0.000326994
      85.5000   0.000323869
      85.6000   0.000320698
      85.7000   0.000317553
      85.8000   0.000314435
      85.9000   0.000311343
      86.0000   0.000308278
      86.1000   0.000305242
      86.2000   0.000302330
      86.3000   0.000299448
      86.4000   0.000296591
      86.5000   0.000293760
      86.6000   0.000290954
      86.7000   0.000288171
      86.8000   0.000285191
      86.9000   0.000282231
      87.0000   0.000279305
      87.1000   0.000276457
      87.2000   0.000273643
      87.3000   0.000270860
      87.4000   0.000268025
      87.5000   0.000265201
      87.6000   0.000262402
      87.7000   0.000259675
      87.8000   0.000256984
      87.9000   0.000254315
      88.0000   0.000251672
      88.1000   0.000249052
      88.2000   0.000246460
      88.3000   0.000243952
      88.4000   0.000241523
      88.5000   0.000239125
      88.6000   0.000236730
      88.7000   0.000234329
      88.8000   0.000231955
      88.9000   0.000229600
      89.0000   0.000227257
      89.1000   0.000224939
      89.2000   0.000222654
      89.3000   0.000220423
      89.4000   0.000218256
      89.5000   0.000216110
      89.6000   0.000213983
      89.7000   0.000211873
      89.8000   0.000209781
      89.9000   0.000207704
      90.0000   0.000205646
      90.1000   0.000203608
      90.2000   0.000201540
      90.3000   0.000199381
      90.4000   0.000197242
      90.5000   0.000195129
      90.6000   0.000193077
      90.7000   0.000191038
      90.8000   0.000188999
      90.9000   0.000186935
      91.0000   0.000184880
      91.1000   0.000182846
      91.2000   0.000180804
      91.3000   0.000178736
      91.4000   0.000176684
      91.5000   0.000174654
      91.6000   0.000172646
      91.7000   0.000170840
      91.8000   0.000169333
      91.9000   0.000168172
      92.0000   0.000166814
      92.1000   0.000165423
      92.2000   0.000163930
      92.3000   0.000162349
      92.4000   0.000160725
      92.5000   0.000159119
      92.6000   0.000157528
      92.7000   0.000155953
      92.8000   0.000154393
      92.9000   0.000152869
      93.0000   0.000151406
      93.1000   0.000149955
      93.2000   0.000148518
      93.3000   0.000147153
      93.4000   0.000145820
      93.5000   0.000144498
      93.6000   0.000143183
      93.7000   0.000141871
      93.8000   0.000140558
      93.9000   0.000139255
      94.0000   0.000137962
      94.1000   0.000136680
      94.2000   0.000135409
      94.3000   0.000134162
      94.4000   0.000132966
      94.5000   0.000131783
      94.6000   0.000130612
      94.7000   0.000129453
      94.8000   0.000128303
      94.9000   0.000127162
      95.0000   0.000126031
      95.1000   0.000124911
      95.2000   0.000123797
      95.3000   0.000122690
      95.4000   0.000121596
      95.5000   0.000120532
      95.6000   0.000119475
      95.7000   0.000118427
      95.8000   0.000117373
      95.9000   0.000116320
      96.0000   0.000115274
      96.1000   0.000114236
      96.2000   0.000113204
      96.3000   0.000112183
      96.4000   0.000111171
      96.5000   0.000110167
      96.6000   0.000109177
      96.7000   0.000108197
      96.8000   0.000107222
      96.9000   0.000106254
      97.0000   0.000105294
      97.1000   0.000104347
      97.2000   0.000103406
      97.3000   0.000102459
      97.4000   0.000101507
      97.5000   0.000100566
      97.6000   9.96343e-05
      97.7000   9.87172e-05
      97.8000   9.78121e-05
      97.9000   9.69153e-05
      98.0000   9.60248e-05
      98.1000   9.51403e-05
      98.2000   9.42633e-05
      98.3000   9.34650e-05
      98.4000   9.27072e-05
      98.5000   9.19780e-05
      98.6000   9.12545e-05
      98.7000   9.05360e-05
      98.8000   8.98220e-05
      98.9000   8.91128e-05
      99.0000   8.84115e-05
      99.1000   8.77157e-05
      99.2000   8.70200e-05
      99.3000   8.63032e-05
      99.4000   8.55929e-05
      99.5000   8.48883e-05
      99.6000   8.41953e-05
      99.7000   8.35469e-05
      99.8000   8.29210e-05
      99.9000   8.24567e-05
      100.000   8.22374e-05
      100.100   8.19900e-05
      100.200   8.17420e-05
      100.300   8.14939e-05
      100.400   8.12459e-05
      100.500   8.10092e-05
      100.600   8.07713e-05
      100.700   8.05330e-05
      100.800   8.02943e-05
      100.900   8.00557e-05
      101.000   7.98173e-05
      101.100   7.95798e-05
      101.200   7.93434e-05
      101.300   7.91080e-05
      101.400   7.88736e-05
      101.500   7.86131e-05
      101.600   7.83188e-05
      101.700   7.80332e-05
      101.800   7.77506e-05
      101.900   7.74684e-05
      102.000   7.71879e-05
      102.100   7.69200e-05
      102.200   7.66582e-05
      102.300   7.63965e-05
      102.400   7.61353e-05
      102.500   7.58740e-05
      102.600   7.56124e-05
      102.700   7.53505e-05
      102.800   7.50885e-05
      102.900   7.48265e-05
      103.000   7.45646e-05
      103.100   7.43032e-05
      103.200   7.40425e-05
      103.300   7.37826e-05
      103.400   7.35234e-05
      103.500   7.32650e-05
      103.600   7.30070e-05
      103.700   7.27482e-05
      103.800   7.24725e-05
      103.900   7.21767e-05
      104.000   7.18805e-05
      104.100   7.15855e-05
      104.200   7.12997e-05
      104.300   7.10668e-05
      104.400   7.08362e-05
      104.500   7.06063e-05
      104.600   7.03760e-05
      104.700   7.01293e-05
      104.800   6.98759e-05
      104.900   6.96226e-05
      105.000   6.93698e-05
      105.100   6.91290e-05
      105.200   6.89176e-05
      105.300   6.87071e-05
      105.400   6.84967e-05
      105.500   6.82867e-05
      105.600   6.80835e-05
      105.700   6.78820e-05
      105.800   6.76802e-05
      105.900   6.74786e-05
      106.000   6.72869e-05
      106.100   6.71160e-05
      106.200   6.69463e-05
      106.300   6.67762e-05
      106.400   6.66058e-05
      106.500   6.64352e-05
      106.600   6.62646e-05
      106.700   6.60940e-05
      106.800   6.59234e-05
      106.900   6.57530e-05
      107.000   6.55827e-05
      107.100   6.54125e-05
      107.200   6.52426e-05
      107.300   6.50730e-05
      107.400   6.49024e-05
      107.500   6.47314e-05
      107.600   6.45611e-05
      107.700   6.43912e-05
      107.800   6.42223e-05
      107.900   6.40495e-05
      108.000   6.38767e-05
      108.100   6.37038e-05
      108.200   6.35302e-05
      108.300   6.33553e-05
      108.400   6.31747e-05
      108.500   6.29935e-05
      108.600   6.28118e-05
      108.700   6.26292e-05
      108.800   6.24307e-05
      108.900   6.22098e-05
      109.000   6.19885e-05
      109.100   6.17674e-05
      109.200   6.15465e-05
      109.300   6.13261e-05
      109.400   6.11061e-05
      109.500   6.08868e-05
      109.600   6.06683e-05
      109.700   6.04505e-05
      109.800   6.02338e-05
      109.900   6.00183e-05
      110.000   5.98039e-05
      110.100   5.95905e-05
      110.200   5.93777e-05
      110.300   5.91752e-05
      110.400   5.89738e-05
      110.500   5.87727e-05
      110.600   5.85715e-05
      110.700   5.83700e-05
      110.800   5.81683e-05
      110.900   5.79662e-05
      111.000   5.77639e-05
      111.100   5.75614e-05
      111.200   5.73596e-05
      111.300   5.71775e-05
      111.400   5.69956e-05
      111.500   5.68133e-05
      111.600   5.66309e-05
      111.700   5.64493e-05
      111.800   5.62802e-05
      111.900   5.61116e-05
      112.000   5.59433e-05
      112.100   5.57751e-05
      112.200   5.56074e-05
      112.300   5.54276e-05
      112.400   5.52479e-05
      112.500   5.50691e-05
      112.600   5.48910e-05
      112.700   5.47156e-05
      112.800   5.45528e-05
      112.900   5.43603e-05
      113.000   5.41784e-05
      113.100   5.40009e-05
      113.200   5.38176e-05
      113.300   5.36407e-05
      113.400   5.33955e-05
      113.500   5.31335e-05
      113.600   5.29310e-05
      113.700   5.27104e-05
      113.800   5.24497e-05
      113.900   5.22477e-05
      114.000   5.20454e-05
      114.100   5.18016e-05
      114.200   5.15789e-05
      114.300   5.13898e-05
      114.400   5.11921e-05
      114.500   5.09855e-05
      114.600   5.08226e-05
      114.700   5.06273e-05
      114.800   5.04543e-05
      114.900   5.03327e-05
      115.000   5.01743e-05
      115.100   4.99942e-05
      115.200   4.98121e-05
      115.300   4.96765e-05
      115.400   4.94967e-05
      115.500   4.93387e-05
      115.600   4.91621e-05
      115.700   4.89576e-05
      115.800   4.87907e-05
      115.900   4.86039e-05
      116.000   4.84497e-05
      116.100   4.83455e-05
      116.200   4.82370e-05
      116.300   4.81193e-05
      116.400   4.79852e-05
      116.500   4.78868e-05
      116.600   4.77768e-05
      116.700   4.76757e-05
      116.800   4.75637e-05
      116.900   4.74076e-05
      117.000   4.73011e-05
      117.100   4.73369e-05
      117.200   4.74731e-05
      117.300   4.75109e-05
      117.400   4.75421e-05
      117.500   4.75749e-05
      117.600   4.75496e-05
      117.700   4.75015e-05
      117.800   4.74229e-05
      117.900   4.73288e-05
      118.000   4.72054e-05
      118.100   4.70540e-05
      118.200   4.69248e-05
      118.300   4.68052e-05
      118.400   4.65747e-05
      118.500   4.63534e-05
      118.600   4.61832e-05
      118.700   4.59949e-05
      118.800   4.57821e-05
      118.900   4.55865e-05
      119.000   4.53307e-05
      119.100   4.50074e-05
      119.200   4.47447e-05
      119.300   4.45325e-05
      119.400   4.43485e-05
      119.500   4.41771e-05
      119.600   4.39660e-05
      119.700   4.37087e-05
      119.800   4.33593e-05
      119.900   4.28880e-05
      120.000   4.24570e-05
      120.100   4.20584e-05
      120.200   4.18121e-05
      120.300   4.16536e-05
      120.400   4.14942e-05
      120.500   4.12114e-05
      120.600   4.08351e-05
      120.700   4.04292e-05
      120.800   4.00439e-05
      120.900   3.98210e-05
      121.000   3.98510e-05
      121.100   3.98358e-05
      121.200   3.96934e-05
      121.300   3.94606e-05
      121.400   3.91590e-05
      121.500   3.88055e-05
      121.600   3.82503e-05
      121.700   3.77768e-05
      121.800   3.72326e-05
      121.900   3.66804e-05
      122.000   3.60807e-05
      122.100   3.55191e-05
      122.200   3.49653e-05
      122.300   3.45846e-05
      122.400   3.43910e-05
      122.500   3.42373e-05
      122.600   3.40598e-05
      122.700   3.38807e-05
      122.800   3.36593e-05
      122.900   3.34627e-05
      123.000   3.34851e-05
      123.100   3.38885e-05
      123.200   3.43184e-05
      123.300   3.49459e-05
      123.400   3.57382e-05
      123.500   3.67661e-05
      123.600   3.76633e-05
      123.700   3.81678e-05
      123.800   3.85609e-05
      123.900   3.90687e-05
      124.000   3.97621e-05
      124.100   4.10583e-05
      124.200   4.36414e-05
      124.300   4.74848e-05
      124.400   5.12091e-05
      124.500   5.23652e-05
      124.600   5.23273e-05
      124.700   5.21515e-05
      124.800   5.19897e-05
      124.900   5.18271e-05
      125.000   5.16627e-05
      125.100   5.14853e-05
      125.200   5.13065e-05
      125.300   5.11277e-05
      125.400   5.09491e-05
      125.500   5.07707e-05
      125.600   5.05925e-05
      125.700   5.04147e-05
      125.800   5.02370e-05
      125.900   5.00600e-05
      126.000   4.98834e-05
      126.100   4.97075e-05
      126.200   4.95321e-05
      126.300   4.93573e-05
      126.400   4.91831e-05
      126.500   4.90094e-05
      126.600   4.88363e-05
      126.700   4.86637e-05
      126.800   4.84916e-05
      126.900   4.83197e-05
      127.000   4.81468e-05
      127.100   4.79694e-05
      127.200   4.77900e-05
      127.300   4.76102e-05
      127.400   4.74305e-05
      127.500   4.72509e-05
      127.600   4.70715e-05
      127.700   4.68922e-05
      127.800   4.67129e-05
      127.900   4.65338e-05
      128.000   4.63549e-05
      128.100   4.61761e-05
      128.200   4.59975e-05
      128.300   4.58191e-05
      128.400   4.56409e-05
      128.500   4.54629e-05
      128.600   4.52850e-05
      128.700   4.51075e-05
      128.800   4.49303e-05
      128.900   4.47534e-05
      129.000   4.45770e-05
      129.100   4.44001e-05
      129.200   4.42210e-05
      129.300   4.40424e-05
      129.400   4.38644e-05
      129.500   4.36872e-05
      129.600   4.35106e-05
      129.700   4.33347e-05
      129.800   4.31594e-05
      129.900   4.29849e-05
      130.000   4.28110e-05
      130.100   4.26378e-05
      130.200   4.24650e-05
      130.300   4.22929e-05
      130.400   4.21212e-05
      130.500   4.19500e-05
      130.600   4.17791e-05
      130.700   4.16086e-05
      130.800   4.14386e-05
      130.900   4.12690e-05
      131.000   4.10996e-05
      131.100   4.09307e-05
      131.200   4.07617e-05
      131.300   4.05923e-05
      131.400   4.04233e-05
      131.500   4.02546e-05
      131.600   4.00862e-05
      131.700   3.99182e-05
      131.800   3.97504e-05
      131.900   3.95830e-05
      132.000   3.94159e-05
      132.100   3.92491e-05
      132.200   3.90827e-05
      132.300   3.89167e-05
      132.400   3.87510e-05
      132.500   3.85858e-05
      132.600   3.84210e-05
      132.700   3.82567e-05
      132.800   3.80928e-05
      132.900   3.79295e-05
      133.000   3.77667e-05
      133.100   3.76044e-05
      133.200   3.74426e-05
      133.300   3.72810e-05
      133.400   3.71197e-05
      133.500   3.69587e-05
      133.600   3.67981e-05
      133.700   3.66381e-05
      133.800   3.64784e-05
      133.900   3.63193e-05
      134.000   3.61606e-05
      134.100   3.60024e-05
      134.200   3.58446e-05
      134.300   3.56873e-05
      134.400   3.55305e-05
      134.500   3.53742e-05
      134.600   3.52184e-05
      134.700   3.50631e-05
      134.800   3.49084e-05
      134.900   3.47541e-05
      135.000   3.46004e-05
      135.100   3.44471e-05
      135.200   3.42943e-05
      135.300   3.41421e-05
      135.400   3.39904e-05
      135.500   3.38388e-05
      135.600   3.36872e-05
      135.700   3.35361e-05
      135.800   3.33854e-05
      135.900   3.32352e-05
      136.000   3.30856e-05
      136.100   3.29363e-05
      136.200   3.27877e-05
      136.300   3.26395e-05
      136.400   3.24918e-05
      136.500   3.23445e-05
      136.600   3.21977e-05
      136.700   3.20514e-05
      136.800   3.19056e-05
      136.900   3.17602e-05
      137.000   3.16152e-05
      137.100   3.14706e-05
      137.200   3.13264e-05
      137.300   3.11825e-05
      137.400   3.10391e-05
      137.500   3.08961e-05
      137.600   3.07591e-05
      137.700   3.06365e-05
      137.800   3.05247e-05
      137.900   3.04130e-05
      138.000   3.03016e-05
      138.100   3.01904e-05
      138.200   3.00796e-05
      138.300   2.99689e-05
      138.400   2.98586e-05
      138.500   2.97485e-05
      138.600   2.96388e-05
      138.700   2.95293e-05
      138.800   2.94202e-05
      138.900   2.93115e-05
      139.000   2.92031e-05
      139.100   2.90950e-05
      139.200   2.89873e-05
      139.300   2.88799e-05
      139.400   2.87729e-05
      139.500   2.86663e-05
      139.600   2.85600e-05
      139.700   2.84540e-05
      139.800   2.83484e-05
      139.900   2.82430e-05
      140.000   2.81377e-05
      140.100   2.80327e-05
      140.200   2.79280e-05
      140.300   2.78237e-05
      140.400   2.77196e-05
      140.500   2.76157e-05
      140.600   2.75121e-05
      140.700   2.74086e-05
      140.800   2.73054e-05
      140.900   2.72023e-05
      141.000   2.70993e-05
      141.100   2.69964e-05
      141.200   2.68937e-05
      141.300   2.67912e-05
      141.400   2.66887e-05
      141.500   2.65863e-05
      141.600   2.64841e-05
      141.700   2.63819e-05
      141.800   2.62800e-05
      141.900   2.61782e-05
      142.000   2.60766e-05
      142.100   2.59856e-05
      142.200   2.59246e-05
      142.300   2.58894e-05
      142.400   2.58539e-05
      142.500   2.58181e-05
      142.600   2.57822e-05
      142.700   2.57460e-05
      142.800   2.57097e-05
      142.900   2.56732e-05
      143.000   2.56366e-05
      143.100   2.55998e-05
      143.200   2.55628e-05
      143.300   2.55257e-05
      143.400   2.54885e-05
      143.500   2.54513e-05
      143.600   2.54139e-05
      143.700   2.53764e-05
      143.800   2.53389e-05
      143.900   2.53013e-05
      144.000   2.52636e-05
      144.100   2.52257e-05
      144.200   2.51878e-05
      144.300   2.51497e-05
      144.400   2.51144e-05
      144.500   2.51164e-05
      144.600   2.51301e-05
      144.700   2.51447e-05
      144.800   2.51589e-05
      144.900   2.51726e-05
      145.000   2.51858e-05
      145.100   2.51986e-05
      145.200   2.52108e-05
      145.300   2.52224e-05
      145.400   2.52335e-05
      145.500   2.52441e-05
      145.600   2.52540e-05
      145.700   2.52634e-05
      145.800   2.52723e-05
      145.900   2.52805e-05
      146.000   2.52882e-05
      146.100   2.52954e-05
      146.200   2.53021e-05
      146.300   2.53082e-05
      146.400   2.53137e-05
      146.500   2.53187e-05
      146.600   2.53232e-05
      146.700   2.53272e-05
      146.800   2.53292e-05
      146.900   2.53284e-05
      147.000   2.53273e-05
      147.100   2.53256e-05
      147.200   2.53235e-05
      147.300   2.53210e-05
      147.400   2.53182e-05
      147.500   2.53151e-05
      147.600   2.53116e-05
      147.700   2.53077e-05
      147.800   2.53035e-05
      147.900   2.52990e-05
      148.000   2.52942e-05
      148.100   2.52891e-05
      148.200   2.52837e-05
      148.300   2.52781e-05
      148.400   2.52722e-05
      148.500   2.52660e-05
      148.600   2.52594e-05
      148.700   2.52526e-05
      148.800   2.52453e-05
      148.900   2.52378e-05
      149.000   2.52300e-05
      149.100   2.52217e-05
      149.200   2.52129e-05
      149.300   2.52037e-05
      149.400   2.51940e-05
      149.500   2.51839e-05
      149.600   2.51734e-05
      149.700   2.51623e-05
      149.800   2.51509e-05
      149.900   2.51391e-05
      150.000   2.51268e-05
      150.100   2.51141e-05
      150.200   2.51008e-05
      150.300   2.50871e-05
      150.400   2.50730e-05
      150.500   2.50585e-05
      150.600   2.50435e-05
      150.700   2.50280e-05
      150.800   2.50121e-05
      150.900   2.49957e-05
      151.000   2.49788e-05
      151.100   2.49617e-05
      151.200   2.49440e-05
      151.300   2.49259e-05
      151.400   2.49075e-05
      151.500   2.48886e-05
      151.600   2.48696e-05
      151.700   2.48507e-05
      151.800   2.48314e-05
      151.900   2.48118e-05
      152.000   2.47917e-05
      152.100   2.47714e-05
      152.200   2.47509e-05
      152.300   2.47299e-05
      152.400   2.47086e-05
      152.500   2.46871e-05
      152.600   2.46653e-05
      152.700   2.46432e-05
      152.800   2.46208e-05
      152.900   2.45981e-05
      153.000   2.45751e-05
      153.100   2.45519e-05
      153.200   2.45283e-05
      153.300   2.45045e-05
      153.400   2.44804e-05
      153.500   2.44559e-05
      153.600   2.44312e-05
      153.700   2.44062e-05
      153.800   2.43808e-05
      153.900   2.43551e-05
      154.000   2.43201e-05
      154.100   2.42742e-05
      154.200   2.42266e-05
      154.300   2.41788e-05
      154.400   2.41307e-05
      154.500   2.40822e-05
      154.600   2.40335e-05
      154.700   2.39846e-05
      154.800   2.39354e-05
      154.900   2.38858e-05
      155.000   2.38360e-05
      155.100   2.37860e-05
      155.200   2.37356e-05
      155.300   2.36850e-05
      155.400   2.36341e-05
      155.500   2.35829e-05
      155.600   2.35314e-05
      155.700   2.34797e-05
      155.800   2.34277e-05
      155.900   2.33754e-05
      156.000   2.33229e-05
      156.100   2.32701e-05
      156.200   2.32170e-05
      156.300   2.31638e-05
      156.400   2.31102e-05
      156.500   2.30534e-05
      156.600   2.29885e-05
      156.700   2.29229e-05
      156.800   2.28572e-05
      156.900   2.27913e-05
      157.000   2.27254e-05
      157.100   2.26591e-05
      157.200   2.25928e-05
      157.300   2.25263e-05
      157.400   2.24597e-05
      157.500   2.23929e-05
      157.600   2.23259e-05
      157.700   2.22589e-05
      157.800   2.21916e-05
      157.900   2.21242e-05
      158.000   2.20566e-05
      158.100   2.19889e-05
      158.200   2.19209e-05
      158.300   2.18529e-05
      158.400   2.17847e-05
      158.500   2.17164e-05
      158.600   2.16479e-05
      158.700   2.15792e-05
      158.800   2.15106e-05
      158.900   2.14416e-05
      159.000   2.13726e-05
      159.100   2.13033e-05
      159.200   2.12339e-05
      159.300   2.11644e-05
      159.400   2.10947e-05
      159.500   2.10250e-05
      159.600   2.09552e-05
      159.700   2.08853e-05
      159.800   2.08153e-05
      159.900   2.07453e-05
      160.000   2.06752e-05
      160.100   2.06050e-05
      160.200   2.05348e-05
      160.300   2.04645e-05
      160.400   2.03942e-05
      160.500   2.03238e-05
      160.600   2.02534e-05
      160.700   2.01829e-05
      160.800   2.01125e-05
      160.900   2.00420e-05
      161.000   1.99714e-05
      161.100   1.99009e-05
      161.200   1.98304e-05
      161.300   1.97599e-05
      161.400   1.96893e-05
      161.500   1.96188e-05
      161.600   1.95482e-05
      161.700   1.94774e-05
      161.800   1.94066e-05
      161.900   1.93358e-05
      162.000   1.92649e-05
      162.100   1.91940e-05
      162.200   1.91231e-05
      162.300   1.90522e-05
      162.400   1.89813e-05
      162.500   1.89103e-05
      162.600   1.88393e-05
      162.700   1.87682e-05
      162.800   1.86971e-05
      162.900   1.86259e-05
      163.000   1.85547e-05
      163.100   1.84835e-05
      163.200   1.84122e-05
      163.300   1.83408e-05
      163.400   1.82694e-05
      163.500   1.81980e-05
      163.600   1.81265e-05
      163.700   1.80550e-05
      163.800   1.79835e-05
      163.900   1.79120e-05
      164.000   1.78404e-05
      164.100   1.77689e-05
      164.200   1.76974e-05
      164.300   1.76269e-05
      164.400   1.75565e-05
      164.500   1.74861e-05
      164.600   1.74158e-05
      164.700   1.73455e-05
      164.800   1.72753e-05
      164.900   1.72051e-05
      165.000   1.71350e-05
      165.100   1.70650e-05
      165.200   1.69950e-05
      165.300   1.69252e-05
      165.400   1.68555e-05
      165.500   1.67859e-05
      165.600   1.67164e-05
      165.700   1.66471e-05
      165.800   1.65779e-05
      165.900   1.65088e-05
      166.000   1.64398e-05
      166.100   1.63711e-05
      166.200   1.63024e-05
      166.300   1.62340e-05
      166.400   1.61656e-05
      166.500   1.60975e-05
      166.600   1.60295e-05
      166.700   1.59616e-05
      166.800   1.58926e-05
      166.900   1.58173e-05
      167.000   1.57366e-05
      167.100   1.56558e-05
      167.200   1.55753e-05
      167.300   1.54951e-05
      167.400   1.54151e-05
      167.500   1.53353e-05
      167.600   1.52558e-05
      167.700   1.51765e-05
      167.800   1.50974e-05
      167.900   1.50185e-05
      168.000   1.49398e-05
      168.100   1.48613e-05
      168.200   1.47830e-05
      168.300   1.47049e-05
      168.400   1.46270e-05
      168.500   1.45493e-05
      168.600   1.44717e-05
      168.700   1.43943e-05
      168.800   1.43171e-05
      168.900   1.42402e-05
      169.000   1.41634e-05
      169.100   1.40868e-05
      169.200   1.40104e-05
      169.300   1.39341e-05
      169.400   1.38581e-05
      169.500   1.37784e-05
      169.600   1.36824e-05
      169.700   1.35701e-05
      169.800   1.34572e-05
      169.900   1.33450e-05
      170.000   1.32333e-05
      170.100   1.31222e-05
      170.200   1.30117e-05
      170.300   1.71170e-05
      170.400   3.71039e-05
      170.500   7.08482e-05
      170.600   0.000105096
      170.700   0.000133016
      170.800   0.000146638
      170.900   0.000148086
      171.000   0.000146506
      171.100   0.000144933
      171.200   0.000143367
      171.300   0.000141808
      171.400   0.000140257
      171.500   0.000138714
      171.600   0.000137179
      171.700   0.000135654
      171.800   0.000134140
      171.900   0.000132638
      172.000   0.000131149
      172.100   0.000129675
      172.200   0.000128216
      172.300   0.000126769
      172.400   0.000125314
      172.500   0.000123869
      172.600   0.000122442
      172.700   0.000121033
      172.800   0.000119640
      172.900   0.000118264
      173.000   0.000116906
      173.100   0.000115564
      173.200   0.000114239
      173.300   0.000112931
      173.400   0.000111638
      173.500   0.000110361
      173.600   0.000109101
      173.700   0.000107855
      173.800   0.000106624
      173.900   0.000105409
      174.000   0.000104208
      174.100   0.000103020
      174.200   0.000101847
      174.300   0.000100687
      174.400   9.95403e-05
      174.500   9.84062e-05
      174.600   9.72839e-05
      174.700   9.61744e-05
      174.800   9.50770e-05
      174.900   9.39908e-05
      175.000   9.29153e-05
      175.100   9.18511e-05
      175.200   9.08016e-05
      175.300   8.97620e-05
      175.400   8.87329e-05
      175.500   8.77147e-05
      175.600   8.67069e-05
      175.700   8.57097e-05
      175.800   8.47225e-05
      175.900   8.37456e-05
      176.000   8.27789e-05
      176.100   8.18226e-05
      176.200   8.08761e-05
      176.300   7.99393e-05
      176.400   7.90129e-05
      176.500   7.80960e-05
      176.600   7.71888e-05
      176.700   7.62911e-05
      176.800   7.54030e-05
      176.900   7.45246e-05
      177.000   7.36553e-05
      177.100   7.27951e-05
      177.200   7.19444e-05
      177.300   7.11027e-05
      177.400   7.02696e-05
      177.500   6.94451e-05
      177.600   6.86295e-05
      177.700   6.78225e-05
      177.800   6.70240e-05
      177.900   6.62331e-05
      178.000   6.54548e-05
      178.100   6.46850e-05
      178.200   6.39229e-05
      178.300   6.31687e-05
      178.400   6.24227e-05
      178.500   6.16843e-05
      178.600   6.09534e-05
      178.700   6.02299e-05
      178.800   5.95142e-05
      178.900   5.88061e-05
      179.000   5.81053e-05
      179.100   5.74118e-05
      179.200   5.67257e-05
      179.300   5.60471e-05
      179.400   5.53758e-05
      179.500   5.47121e-05
      179.600   5.40555e-05
      179.700   5.34066e-05
      179.800   5.27647e-05
      179.900   5.21301e-05
      180.000   5.15026e-05
      180.100   5.08826e-05
      180.200   5.02698e-05
      180.300   4.96642e-05
      180.400   4.90656e-05
      180.500   4.84744e-05
      180.600   4.78902e-05
      180.700   4.73130e-05
      180.800   4.67305e-05
      180.900   4.61410e-05
      181.000   4.55551e-05
      181.100   4.49769e-05
      181.200   4.44058e-05
      181.300   4.38419e-05
      181.400   4.32854e-05
      181.500   4.27359e-05
      181.600   4.21933e-05
      181.700   4.16574e-05
      181.800   4.11284e-05
      181.900   4.06060e-05
      182.000   4.00903e-05
      182.100   3.95809e-05
      182.200   3.90781e-05
      182.300   3.85815e-05
      182.400   3.80912e-05
      182.500   3.76067e-05
      182.600   3.71282e-05
      182.700   3.66555e-05
      182.800   3.61887e-05
      182.900   3.57275e-05
      183.000   3.52719e-05
      183.100   3.48220e-05
      183.200   3.43775e-05
      183.300   3.39382e-05
      183.400   3.35043e-05
      183.500   3.30758e-05
      183.600   3.26524e-05
      183.700   3.22116e-05
      183.800   3.16887e-05
      183.900   3.11574e-05
      184.000   3.06345e-05
      184.100   3.01198e-05
      184.200   2.96133e-05
      184.300   2.91144e-05
      184.400   2.86236e-05
      184.500   2.81404e-05
      184.600   2.76647e-05
      184.700   2.71964e-05
      184.800   2.67355e-05
      184.900   2.62818e-05
      185.000   2.58352e-05
      185.100   2.53954e-05
      185.200   2.49625e-05
      185.300   2.45367e-05
      185.400   2.41174e-05
      185.500   2.37047e-05
      185.600   2.32984e-05
      185.700   2.28983e-05
      185.800   2.25049e-05
      185.900   2.21178e-05
      186.000   2.17365e-05
      186.100   2.13613e-05
      186.200   2.09920e-05
      186.300   2.06283e-05
      186.400   2.02703e-05
      186.500   1.99179e-05
      186.600   1.95709e-05
      186.700   1.92293e-05
      186.800   1.88930e-05
      186.900   1.85618e-05
      187.000   1.82358e-05
      187.100   1.79149e-05
      187.200   1.75990e-05
      187.300   1.72882e-05
      187.400   1.69824e-05
      187.500   1.66815e-05
      187.600   1.63852e-05
      187.700   1.60937e-05
      187.800   1.58067e-05
      187.900   1.55243e-05
      188.000   1.52466e-05
      188.100   1.49732e-05
      188.200   1.47042e-05
      188.300   1.44395e-05
      188.400   1.41791e-05
      188.500   1.39230e-05
      188.600   1.36713e-05
      188.700   1.34238e-05
      188.800   1.31805e-05
      188.900   1.29414e-05
      189.000   1.27062e-05
      189.100   1.24748e-05
      189.200   1.22474e-05
      189.300   1.20239e-05
      189.400   1.18042e-05
      189.500   1.15882e-05
      189.600   1.13757e-05
      189.700   1.11658e-05
      189.800   1.09516e-05
      189.900   1.07417e-05
      190.000   1.05354e-05
      190.100   1.03330e-05
      190.200   1.01342e-05
      190.300   9.93899e-06
      190.400   9.74722e-06
      190.500   9.55895e-06
      190.600   9.37418e-06
      190.700   9.19269e-06
      190.800   9.01452e-06
      190.900   8.83961e-06
      191.000   8.66795e-06
      191.100   8.49963e-06
      191.200   8.33431e-06
      191.300   8.17201e-06
      191.400   8.01269e-06
      191.500   7.85622e-06
      191.600   7.70263e-06
      191.700   7.55184e-06
      191.800   7.40373e-06
      191.900   7.25837e-06
      192.000   7.11574e-06
      192.100   6.97585e-06
      192.200   6.83862e-06
      192.300   6.70388e-06
      192.400   6.57156e-06
      192.500   6.44168e-06
      192.600   6.31421e-06
      192.700   6.18684e-06
      192.800   6.05001e-06
      192.900   5.89487e-06
      193.000   5.74342e-06
      193.100   5.59565e-06
      193.200   5.45147e-06
      193.300   5.31071e-06
      193.400   5.17333e-06
      193.500   5.03915e-06
      193.600   4.90809e-06
      193.700   4.78011e-06
      193.800   4.65524e-06
      193.900   4.53337e-06
      194.000   4.41435e-06
      194.100   4.29831e-06
      194.200   4.18527e-06
      194.300   4.07492e-06
      194.400   3.96721e-06
      194.500   3.86207e-06
      194.600   3.75945e-06
      194.700   3.65935e-06
      194.800   3.56170e-06
      194.900   3.46637e-06
      195.000   3.37339e-06
      195.100   3.28287e-06
      195.200   3.19460e-06
      195.300   3.10849e-06
      195.400   3.02446e-06
      195.500   2.94247e-06
      195.600   2.86248e-06
      195.700   2.78448e-06
      195.800   2.70838e-06
      195.900   2.63416e-06
      196.000   2.56145e-06
      196.100   2.49055e-06
      196.200   2.42143e-06
      196.300   2.35402e-06
      196.400   2.28830e-06
      196.500   2.22420e-06
      196.600   2.16175e-06
      196.700   2.10086e-06
      196.800   2.04159e-06
      196.900   1.98391e-06
      197.000   1.92771e-06
      197.100   1.87294e-06
      197.200   1.81958e-06
      197.300   1.76756e-06
      197.400   1.71685e-06
      197.500   1.66746e-06
      197.600   1.61937e-06
      197.700   1.57266e-06
      197.800   1.52718e-06
      197.900   1.48286e-06
      198.000   1.43971e-06
      198.100   1.39770e-06
      198.200   1.35677e-06
      198.300   1.31691e-06
      198.400   1.27813e-06
      198.500   1.24049e-06
      198.600   1.20388e-06
      198.700   1.16824e-06
      198.800   1.13355e-06
      198.900   1.09980e-06
      199.000   1.06766e-06
      199.100   1.03849e-06
      199.200   1.01298e-06
      199.300   9.88110e-07
      199.400   9.63821e-07
      199.500   9.40085e-07
      199.600   9.16880e-07
      199.700   8.94198e-07
      199.800   8.72030e-07
      199.900   8.50373e-07
      200.000   8.29206e-07
      200.100   8.08610e-07
      200.200   7.88461e-07
      200.300   7.68785e-07
      200.400   7.49567e-07
      200.500   7.30795e-07
      200.600   7.12460e-07
      200.700   6.94557e-07
      200.800   6.77064e-07
      200.900   6.59983e-07
      201.000   6.43329e-07
      201.100   6.27070e-07
      201.200   6.11193e-07
      201.300   5.95696e-07
      201.400   5.80572e-07
      201.500   5.65793e-07
      201.600   5.51372e-07
      201.700   5.37295e-07
      201.800   5.23547e-07
      201.900   5.10142e-07
      202.000   4.97078e-07
      202.100   4.84315e-07
      202.200   4.71865e-07
      202.300   4.59956e-07
      202.400   4.48679e-07
      202.500   4.37718e-07
      202.600   4.27002e-07
      202.700   4.16532e-07
      202.800   4.06311e-07
      202.900   3.96335e-07
      203.000   3.86593e-07
      203.100   3.77079e-07
      203.200   3.67782e-07
      203.300   3.58699e-07
      203.400   3.49827e-07
      203.500   3.41167e-07
      203.600   3.32706e-07
      203.700   3.24443e-07
      203.800   3.16387e-07
      203.900   3.08524e-07
      204.000   3.00844e-07
      204.100   2.93348e-07
      204.200   2.86031e-07
      204.300   2.78883e-07
      204.400   2.71908e-07
      204.500   2.65098e-07
      204.600   2.58448e-07
      204.700   2.51958e-07
      204.800   2.45631e-07
      204.900   2.39458e-07
      205.000   2.33432e-07
      205.100   2.27552e-07
      205.200   2.21810e-07
      205.300   2.16209e-07
      205.400   2.10742e-07
      205.500   2.05405e-07
      205.600   2.00217e-07
      205.700   1.95176e-07
      205.800   1.90254e-07
      205.900   1.85454e-07
      206.000   1.80776e-07
      206.100   1.76206e-07
      206.200   1.71744e-07
      206.300   1.67391e-07
      206.400   1.63143e-07
      206.500   1.58993e-07
      206.600   1.54944e-07
      206.700   1.50993e-07
      206.800   1.47133e-07
      206.900   1.43367e-07
      207.000   1.39694e-07
      207.100   1.36110e-07
      207.200   1.32615e-07
      207.300   1.29203e-07
      207.400   1.25873e-07
      207.500   1.22622e-07
      207.600   1.19451e-07
      207.700   1.16354e-07
      207.800   1.13333e-07
      207.900   1.10385e-07
      208.000   1.07508e-07
      208.100   1.04701e-07
      208.200   1.01963e-07
      208.300   9.92907e-08
      208.400   9.66864e-08
      208.500   9.41472e-08
      208.600   9.16683e-08
      208.700   8.92496e-08
      208.800   8.68872e-08
      208.900   8.44380e-08
      209.000   8.18612e-08
      209.100   7.93581e-08
      209.200   7.69259e-08
      209.300   7.45619e-08
      209.400   7.22669e-08
      209.500   7.00367e-08
      209.600   6.78698e-08
      209.700   6.57669e-08
      209.800   6.37283e-08
      209.900   6.17466e-08
      210.000   5.98231e-08
      210.100   5.79557e-08
      210.200   5.61421e-08
      210.300   5.43819e-08
      210.400   5.26732e-08
      210.500   5.10141e-08
      210.600   4.94041e-08
      210.700   4.78420e-08
      210.800   4.63257e-08
      210.900   4.48543e-08
      211.000   4.34264e-08
      211.100   4.20418e-08
      211.200   4.06981e-08
      211.300   3.93965e-08
      211.400   3.81349e-08
      211.500   3.69103e-08
      211.600   3.57228e-08
      211.700   3.45716e-08
      211.800   3.34544e-08
      211.900   3.23712e-08
      212.000   3.13216e-08
      212.100   3.03037e-08
      212.200   2.92883e-08
      212.300   2.78779e-08
      212.400   2.62756e-08
      212.500   2.47582e-08
      212.600   2.33227e-08
      212.700   2.19640e-08
      212.800   2.06786e-08
      212.900   1.94637e-08
      213.000   1.83155e-08
      213.100   1.72320e-08
      213.200   1.62079e-08
      213.300   1.52409e-08
      213.400   1.43270e-08
      213.500   1.34642e-08
      213.600   1.26498e-08
      213.700   1.18816e-08
      213.800   1.11563e-08
      213.900   1.04729e-08
      214.000   9.82829e-09
      214.100   9.22053e-09
      214.200   8.64822e-09
      214.300   8.10888e-09
      214.400   7.60081e-09
      214.500   7.12253e-09
      214.600   6.67263e-09
      214.700   6.24919e-09
      214.800   5.85083e-09
      214.900   5.47651e-09
      215.000   5.12433e-09
      215.100   4.79360e-09
      215.200   4.48336e-09
      215.300   4.19222e-09
      215.400   3.91860e-09
      215.500   3.66178e-09
      215.600   3.42098e-09
      215.700   3.19487e-09
      215.800   2.98281e-09
      215.900   2.78412e-09
      216.000   2.59776e-09
      216.100   2.42312e-09
      216.200   2.25959e-09
      216.300   2.10647e-09
      216.400   1.96311e-09
      216.500   1.82888e-09
      216.600   1.70335e-09
      216.700   1.58596e-09
      216.800   1.47616e-09
      216.900   1.37357e-09
      217.000   1.27770e-09
      217.100   1.18809e-09
      217.200   1.10449e-09
      217.300   1.02641e-09
      217.400   9.53516e-10
      217.500   8.85559e-10
      217.600   8.22140e-10
      217.700   7.63009e-10
      217.800   7.07894e-10
      217.900   6.56603e-10
      218.000   6.08850e-10
      218.100   5.64389e-10
      218.200   5.23008e-10
      218.300   4.84517e-10
      218.400   4.48695e-10
      218.500   4.15365e-10
      218.600   3.84404e-10
      218.700   3.55611e-10
      218.800   3.28861e-10
      218.900   3.04034e-10
      219.000   2.80967e-10
      219.100   2.59768e-10
      219.200   2.41824e-10
      219.300   2.27677e-10
      219.400   2.14312e-10
      219.500   2.01698e-10
      219.600   1.89791e-10
      219.700   1.78551e-10
      219.800   1.67949e-10
      219.900   1.57945e-10
      220.000   1.48505e-10
      220.100   1.39603e-10
      220.200   1.31211e-10
      220.300   1.23301e-10
      220.400   1.15843e-10
      220.500   1.08816e-10
      220.600   1.02198e-10
      220.700   9.59607e-11
      220.800   9.00842e-11
      220.900   8.45558e-11
      221.000   7.93488e-11
      221.100   7.44461e-11
      221.200   6.98356e-11
      221.300   6.54964e-11
      221.400   6.14137e-11
      221.500   5.75755e-11
      221.600   5.39656e-11
      221.700   5.05709e-11
      221.800   4.73800e-11
      221.900   4.43829e-11
      222.000   4.15669e-11
      222.100   3.89200e-11
      222.200   3.64364e-11
      222.300   3.41033e-11
      222.400   3.19126e-11
      222.500   2.98561e-11
      222.600   2.79279e-11
      222.700   2.61178e-11
      222.800   2.44199e-11
      222.900   2.28289e-11
      223.000   2.13362e-11
      223.100   1.99368e-11
      223.200   1.86252e-11
      223.300   1.73968e-11
      223.400   1.62458e-11
      223.500   1.51671e-11
      223.600   1.41579e-11
      223.700   1.32126e-11
      223.800   1.23274e-11
      223.900   1.15001e-11
      224.000   1.07252e-11
      224.100   1.00004e-11
      224.200   9.32253e-12
      224.300   8.68903e-12
      224.400   8.09646e-12
      224.500   7.54275e-12
      224.600   7.02516e-12
      224.700   6.54214e-12
      224.800   6.09078e-12
      224.900   5.66910e-12
      225.000   5.27564e-12
      225.100   4.90825e-12
      225.200   4.56538e-12
      225.300   4.24579e-12
      225.400   3.94746e-12
      225.500   3.66922e-12
      225.600   3.40984e-12
      225.700   3.16820e-12
      225.800   2.94290e-12
      225.900   2.73300e-12
      226.000   2.53760e-12
      226.100   2.35551e-12
      226.200   2.18597e-12
      226.300   2.02841e-12
      226.400   1.88185e-12
      226.500   1.74537e-12
      226.600   1.61838e-12
      226.700   1.50035e-12
      226.800   1.39053e-12
      226.900   1.28840e-12
      227.000   1.19357e-12
      227.100   1.10542e-12
      227.200   1.02353e-12
      227.300   9.47497e-13
      227.400   8.76908e-13
      227.500   8.11372e-13
      227.600   7.50560e-13
      227.700   6.94139e-13
      227.800   6.41818e-13
      227.900   5.93302e-13
      228.000   5.48316e-13
      228.100   5.06621e-13
      228.200   4.67978e-13
      228.300   4.32183e-13
      228.400   3.99039e-13
      228.500   3.68337e-13
      228.600   3.39923e-13
      228.700   3.13622e-13
      228.800   2.89282e-13
      228.900   2.66779e-13
      229.000   2.45956e-13
      229.100   2.26705e-13
      229.200   2.08913e-13
      229.300   1.92471e-13
      229.400   1.77279e-13
      229.500   1.63246e-13
      229.600   1.50287e-13
      229.700   1.38324e-13
      229.800   1.27279e-13
      229.900   1.17127e-13
      230.000   1.08070e-13
      230.100   1.00274e-13
      230.200   9.30227e-14
      230.300   8.62840e-14
      230.400   8.00157e-14
      230.500   7.41932e-14
      230.600   6.87883e-14
      230.700   6.37634e-14
      230.800   5.90953e-14
      230.900   5.47596e-14
      231.000   5.07304e-14
      231.100   4.69894e-14
      231.200   4.35153e-14
      231.300   4.02911e-14
      231.400   3.72998e-14
      231.500   3.45219e-14
      231.600   3.19443e-14
      231.700   2.95542e-14
      231.800   2.73376e-14
      231.900   2.52822e-14
      232.000   2.33765e-14
      232.100   2.16099e-14
      232.200   1.99729e-14
      232.300   1.84563e-14
      232.400   1.70511e-14
      232.500   1.57494e-14
      232.600   1.45444e-14
      232.700   1.34289e-14
      232.800   1.23962e-14
      232.900   1.14405e-14
      233.000   1.05562e-14
      233.100   9.73850e-15
      233.200   8.98182e-15
      233.300   8.28236e-15
      233.400   7.63585e-15
      233.500   7.03934e-15
      233.600   6.48877e-15
      233.700   5.97985e-15
      233.800   5.50525e-15
      233.900   5.06676e-15
      234.000   4.66191e-15
      234.100   4.28861e-15
      234.200   3.94434e-15
      234.300   3.62687e-15
      234.400   3.33419e-15
      234.500   3.06447e-15
      234.600   2.81587e-15
      234.700   2.58690e-15
      234.800   2.37606e-15
      234.900   2.18183e-15
      235.000   2.00299e-15
      235.100   1.83843e-15
      235.200   1.68698e-15
      235.300   1.54763e-15
      235.400   1.41947e-15
      235.500   1.30160e-15
      235.600   1.19326e-15
      235.700   1.09374e-15
      235.800   1.00259e-15
      235.900   9.18821e-16
      236.000   8.41853e-16
      236.100   7.71140e-16
      236.200   7.06198e-16
      236.300   6.46558e-16
      236.400   5.91823e-16
      236.500   5.41581e-16
      236.600   4.95487e-16
      236.700   4.53202e-16
      236.800   4.14415e-16
      236.900   3.78858e-16
      237.000   3.46264e-16
      237.100   3.16385e-16
      237.200   2.89021e-16
      237.300   2.63947e-16
      237.400   2.41092e-16
      237.500   2.21131e-16
      237.600   2.04470e-16
      237.700   1.89076e-16
      237.800   1.74808e-16
      237.900   1.61586e-16
      238.000   1.49341e-16
      238.100   1.37993e-16
      238.200   1.27485e-16
      238.300   1.17754e-16
      238.400   1.08746e-16
      238.500   1.00406e-16
      238.600   9.26878e-17
      238.700   8.55486e-17
      238.800   7.89421e-17
      238.900   7.28317e-17
      239.000   6.71804e-17
      239.100   6.19559e-17
      239.200   5.71275e-17
      239.300   5.26765e-17
      239.400   4.85731e-17
      239.500   4.47797e-17
      239.600   4.12740e-17
      239.700   3.80363e-17
      239.800   3.50445e-17
      239.900   3.22817e-17
      240.000   2.97308e-17
      240.100   2.73751e-17
      240.200   2.52008e-17
      240.300   2.31948e-17
      240.400   2.13432e-17
      240.500   1.96362e-17
      240.600   1.80617e-17
      240.700   1.66101e-17
      240.800   1.52757e-17
      240.900   1.40489e-17
      241.000   1.29181e-17
      241.100   1.18757e-17
      241.200   1.09152e-17
      241.300   1.00768e-17
      241.400   9.38655e-18
      241.500   8.78626e-18
      241.600   8.22338e-18
      241.700   7.69553e-18
      241.800   7.20069e-18
      241.900   6.73679e-18
      242.000   6.30204e-18
      242.100   5.89463e-18
      242.200   5.51400e-18
      242.300   5.15810e-18
      242.400   4.82452e-18
      242.500   4.51195e-18
      242.600   4.21912e-18
      242.700   3.94475e-18
      242.800   3.68782e-18
      242.900   3.44717e-18
      243.000   3.22183e-18
      243.100   3.01085e-18
      243.200   2.81325e-18
      243.300   2.62833e-18
      243.400   2.45531e-18
      243.500   2.29380e-18
      243.600   2.14312e-18
      243.700   2.00202e-18
      243.800   1.86996e-18
      243.900   1.74645e-18
      244.000   1.63084e-18
      244.100   1.52269e-18
      244.200   1.42155e-18
      244.300   1.32692e-18
      244.400   1.23845e-18
      244.500   1.15572e-18
      244.600   1.07838e-18
      244.700   1.00624e-18
      244.800   9.39062e-19
      244.900   8.76274e-19
      245.000   8.17550e-19
      245.100   7.62666e-19
      245.200   7.11396e-19
      245.300   6.63479e-19
      245.400   6.18690e-19
      245.500   5.76867e-19
      245.600   5.37794e-19
      245.700   5.01289e-19
      245.800   4.67190e-19
      245.900   4.35515e-19
      246.000   4.05993e-19
      246.100   3.78413e-19
      246.200   3.52662e-19
      246.300   3.28614e-19
      246.400   3.06170e-19
      246.500   2.85216e-19
      246.600   2.65658e-19
      246.700   2.47410e-19
      246.800   2.30375e-19
      246.900   2.14485e-19
      247.000   1.99733e-19
      247.100   1.86001e-19
      247.200   1.73191e-19
      247.300   1.61241e-19
      247.400   1.50091e-19
      247.500   1.39692e-19
      247.600   1.29996e-19
      247.700   1.20954e-19
      247.800   1.12524e-19
      247.900   1.04666e-19
      248.000   9.73426e-20
      248.100   9.05728e-20
      248.200   8.42592e-20
      248.300   7.83741e-20
      248.400   7.28893e-20
      248.500   6.77759e-20
      248.600   6.30120e-20
      248.700   5.85752e-20
      248.800   5.44418e-20
      248.900   5.05927e-20
      249.000   4.70083e-20
      249.100   4.36924e-20
      249.200   4.09757e-20
      249.300   3.88059e-20
      249.400   3.68387e-20
      249.500   3.49691e-20
      249.600   3.31916e-20
      249.700   3.15025e-20
      249.800   2.98975e-20
      249.900   2.83718e-20
      250.000   2.69229e-20
      250.100   2.55508e-20
      250.200   2.42489e-20
      250.300   2.30129e-20
      250.400   2.18385e-20
      250.500   2.07231e-20
      250.600   1.96635e-20
      250.700   1.86570e-20
      250.800   1.77011e-20
      250.900   1.67931e-20
      251.000   1.59309e-20
      251.100   1.51119e-20
      251.200   1.43356e-20
      251.300   1.36003e-20
      251.400   1.29018e-20
      251.500   1.22384e-20
      251.600   1.16085e-20
      251.700   1.10107e-20
      251.800   1.04429e-20
      251.900   9.90385e-21
      252.000   9.39194e-21
      252.100   8.90634e-21
      252.200   8.44511e-21
      252.300   8.00801e-21
      252.400   7.59388e-21
      252.500   7.20099e-21
      252.600   6.82792e-21
      252.700   6.47389e-21
      252.800   6.13788e-21
      252.900   5.81894e-21
      253.000   5.51630e-21
      253.100   5.22915e-21
      253.200   4.98011e-21
      253.300   4.84182e-21
      253.400   4.72973e-21
      253.500   4.62036e-21
      253.600   4.51355e-21
      253.700   4.40918e-21
      253.800   4.30723e-21
      253.900   4.20759e-21
      254.000   4.11024e-21
      254.100   4.01510e-21
      254.200   3.92213e-21
      254.300   3.83129e-21
      254.400   3.74252e-21
      254.500   3.65581e-21
      254.600   3.57103e-21
      254.700   3.48824e-21
      254.800   3.40744e-21
      254.900   3.32846e-21
      255.000   3.25130e-21
      255.100   3.17585e-21
      255.200   3.10217e-21
      255.300   3.03014e-21
      255.400   2.95977e-21
      255.500   2.89102e-21
      255.600   2.82382e-21
      255.700   2.75816e-21
      255.800   2.69399e-21
      255.900   2.63129e-21
      256.000   2.56999e-21
      256.100   2.51018e-21
      256.200   2.45172e-21
      256.300   2.39460e-21
      256.400   2.33882e-21
      256.500   2.28429e-21
      256.600   2.23100e-21
      256.700   2.17893e-21
      256.800   2.12806e-21
      256.900   2.07834e-21
      257.000   2.02975e-21
      257.100   1.98228e-21
      257.200   1.93591e-21
      257.300   1.89059e-21
      257.400   1.84669e-21
      257.500   1.80393e-21
      257.600   1.76219e-21
      257.700   1.72140e-21
      257.800   1.68153e-21
      257.900   1.64257e-21
      258.000   1.60449e-21
      258.100   1.56727e-21
      258.200   1.53091e-21
      258.300   1.49537e-21
      258.400   1.46063e-21
      258.500   1.42667e-21
      258.600   1.39351e-21
      258.700   1.36109e-21
      258.800   1.32940e-21
      258.900   1.29845e-21
      259.000   1.26820e-21
      259.100   1.23864e-21
      259.200   1.20976e-21
      259.300   1.18157e-21
      259.400   1.15402e-21
      259.500   1.12709e-21
      259.600   1.10079e-21
      259.700   1.07509e-21
      259.800   1.04998e-21
      259.900   1.02543e-21
      260.000   1.00145e-21
      260.100   9.78028e-22
      260.200   9.55143e-22
      260.300   9.32784e-22
      260.400   9.10939e-22
      260.500   8.89605e-22
      260.600   8.68750e-22
      260.700   8.48381e-22
      260.800   8.28493e-22
      260.900   8.09049e-22
      261.000   7.90069e-22
      261.100   7.71543e-22
      261.200   7.53431e-22
      261.300   7.35744e-22
      261.400   7.18471e-22
      261.500   7.01613e-22
      261.600   6.85204e-22
      261.700   6.69179e-22
      261.800   6.53530e-22
      261.900   6.38235e-22
      262.000   6.23295e-22
      262.100   6.08699e-22
      262.200   5.94449e-22
      262.300   5.80524e-22
      262.400   5.66925e-22
      262.500   5.53638e-22
      262.600   5.40658e-22
      262.700   5.27982e-22
      262.800   5.15601e-22
      262.900   5.03498e-22
      263.000   4.91694e-22
      263.100   4.80159e-22
      263.200   4.68899e-22
      263.300   4.57898e-22
      263.400   4.47153e-22
      263.500   4.36662e-22
      263.600   4.26416e-22
      263.700   4.16406e-22
      263.800   4.06629e-22
      263.900   3.97089e-22
      264.000   3.87765e-22
      264.100   3.78658e-22
      264.200   3.69761e-22
      264.300   3.61078e-22
      264.400   3.52598e-22
      264.500   3.44313e-22
      264.600   3.36222e-22
      264.700   3.28324e-22
      264.800   3.20605e-22
      264.900   3.13073e-22
      265.000   3.05715e-22
      265.100   2.98527e-22
      265.200   2.91509e-22
      265.300   2.84656e-22
      265.400   2.77967e-22
      265.500   2.71431e-22
      265.600   2.65051e-22
      265.700   2.59553e-22
      265.800   2.57284e-22
      265.900   2.55137e-22
      266.000   2.53007e-22
      266.100   2.50897e-22
      266.200   2.48804e-22
      266.300   2.46728e-22
      266.400   2.44671e-22
      266.500   2.42632e-22
      266.600   2.40609e-22
      266.700   2.38600e-22
      266.800   2.36613e-22
      266.900   2.34642e-22
      267.000   2.32688e-22
      267.100   2.30751e-22
      267.200   2.28831e-22
      267.300   2.26927e-22
      267.400   2.25038e-22
      267.500   2.23167e-22
      267.600   2.21311e-22
      267.700   2.19472e-22
      267.800   2.17647e-22
      267.900   2.15838e-22
      268.000   2.14048e-22
      268.100   2.12272e-22
      268.200   2.10512e-22
      268.300   2.08767e-22
      268.400   2.07036e-22
      268.500   2.05319e-22
      268.600   2.03617e-22
      268.700   2.01933e-22
      268.800   2.00262e-22
      268.900   1.98605e-22
      269.000   1.96964e-22
      269.100   1.95334e-22
      269.200   1.93721e-22
      269.300   1.92122e-22
      269.400   1.90536e-22
      269.500   1.88964e-22
      269.600   1.87407e-22
      269.700   1.85859e-22
      269.800   1.84329e-22
      269.900   1.82810e-22
      270.000   1.81306e-22
      270.100   1.79821e-22
      270.200   1.78350e-22
      270.300   1.76893e-22
      270.400   1.75446e-22
      270.500   1.74013e-22
      270.600   1.72590e-22
      270.700   1.71182e-22
      270.800   1.69784e-22
      270.900   1.68399e-22
      271.000   1.67026e-22
      271.100   1.65663e-22
      271.200   1.64313e-22
      271.300   1.62974e-22
      271.400   1.61646e-22
      271.500   1.60330e-22
      271.600   1.59024e-22
      271.700   1.57728e-22
      271.800   1.56445e-22
      271.900   1.55171e-22
      272.000   1.53909e-22
      272.100   1.52656e-22
      272.200   1.51414e-22
      272.300   1.50181e-22
      272.400   1.48959e-22
      272.500   1.47747e-22
      272.600   1.46545e-22
      272.700   1.45353e-22
      272.800   1.44169e-22
      272.900   1.42996e-22
      273.000   1.41832e-22
      273.100   1.40677e-22
      273.200   1.39533e-22
      273.300   1.38398e-22
      273.400   1.37270e-22
      273.500   1.36152e-22
      273.600   1.35043e-22
      273.700   1.33942e-22
      273.800   1.32850e-22
      273.900   1.31767e-22
      274.000   1.30693e-22
      274.100   1.29627e-22
      274.200   1.28568e-22
      274.300   1.27518e-22
      274.400   1.26446e-22
      274.500   1.25309e-22
      274.600   1.24167e-22
      274.700   1.23036e-22
      274.800   1.21914e-22
      274.900   1.20802e-22
      275.000   1.19699e-22
      275.100   1.18606e-22
      275.200   1.17521e-22
      275.300   1.16445e-22
      275.400   1.15380e-22
      275.500   1.14323e-22
      275.600   1.13275e-22
      275.700   1.12235e-22
      275.800   1.11205e-22
      275.900   1.10184e-22
      276.000   1.09171e-22
      276.100   1.08166e-22
      276.200   1.07170e-22
      276.300   1.06182e-22
      276.400   1.05203e-22
      276.500   1.04231e-22
      276.600   1.03269e-22
      276.700   1.02314e-22
      276.800   1.01367e-22
      276.900   1.00427e-22
      277.000   9.94959e-23
      277.100   9.85722e-23
      277.200   9.76568e-23
      277.300   9.67487e-23
      277.400   9.58488e-23
      277.500   9.49550e-23
      277.600   9.40699e-23
      277.700   9.31908e-23
      277.800   9.23190e-23
      277.900   9.14564e-23
      278.000   9.06007e-23
      278.100   8.97516e-23
      278.200   8.89099e-23
      278.300   8.80752e-23
      278.400   8.72477e-23
      278.500   8.64264e-23
      278.600   8.56120e-23
      278.700   8.48054e-23
      278.800   8.40394e-23
      278.900   8.34382e-23
      279.000   8.28440e-23
      279.100   8.22534e-23
      279.200   8.16648e-23
      279.300   8.10808e-23
      279.400   8.04994e-23
      279.500   7.99209e-23
      279.600   7.93465e-23
      279.700   7.87749e-23
      279.800   7.82069e-23
      279.900   7.76425e-23
      280.000   7.70807e-23
      280.100   7.65218e-23
      280.200   7.59666e-23
      280.300   7.54144e-23
      280.400   7.48658e-23
      280.500   7.43202e-23
      280.600   7.37778e-23
      280.700   7.32388e-23
      280.800   7.27025e-23
      280.900   7.21692e-23
      281.000   7.16394e-23
      281.100   7.11125e-23
      281.200   7.05888e-23
      281.300   7.00682e-23
      281.400   6.95512e-23
      281.500   6.90370e-23
      281.600   6.85251e-23
      281.700   6.80166e-23
      281.800   6.75121e-23
      281.900   6.70102e-23
      282.000   6.65109e-23
      282.100   6.60150e-23
      282.200   6.55227e-23
      282.300   6.50324e-23
      282.400   6.45453e-23
      282.500   6.40610e-23
      282.600   6.35805e-23
      282.700   6.31029e-23
      282.800   6.26275e-23
      282.900   6.21563e-23
      283.000   6.16876e-23
      283.100   6.12210e-23
      283.200   6.07584e-23
      283.300   6.04215e-23
      283.400   6.07556e-23
      283.500   6.11718e-23
      283.600   6.15891e-23
      283.700   6.20086e-23
      283.800   6.24291e-23
      283.900   6.28508e-23
      284.000   6.32742e-23
      284.100   6.36987e-23
      284.200   6.41256e-23
      284.300   6.45545e-23
      284.400   6.49840e-23
      284.500   6.54151e-23
      284.600   6.58486e-23
      284.700   6.62829e-23
      284.800   6.67189e-23
      284.900   6.71570e-23
      285.000   6.75963e-23
      285.100   6.80370e-23
      285.200   6.84789e-23
      285.300   6.89231e-23
      285.400   6.93697e-23
      285.500   6.98164e-23
      285.600   7.02659e-23
      285.700   7.07161e-23
      285.800   7.11686e-23
      285.900   7.16227e-23
      286.000   7.20776e-23
      286.100   7.25355e-23
      286.200   7.29950e-23
      286.300   7.34565e-23
      286.400   7.39184e-23
      286.500   7.43826e-23
      286.600   7.48486e-23
      286.700   7.53161e-23
      286.800   7.57857e-23
      286.900   7.62576e-23
      287.000   7.67304e-23
      287.100   7.72051e-23
      287.200   7.76817e-23
      287.300   7.81593e-23
      287.400   7.86392e-23
      287.500   7.91215e-23
      287.600   7.96054e-23
      287.700   8.00915e-23
      287.800   8.05793e-23
      287.900   8.10693e-23
      288.000   8.15618e-23
      288.100   8.20570e-23
      288.200   8.25532e-23
      288.300   8.30519e-23
      288.400   8.35543e-23
      288.500   8.40568e-23
      288.600   8.45618e-23
      288.700   8.50694e-23
      288.800   8.55782e-23
      288.900   8.60888e-23
      289.000   8.66025e-23
      289.100   8.71173e-23
      289.200   8.76334e-23
      289.300   8.81525e-23
      289.400   8.86746e-23
      289.500   8.91980e-23
      289.600   8.97229e-23
      289.700   9.02506e-23
      289.800   9.07805e-23
      289.900   9.13113e-23
      290.000   9.18466e-23
      290.100   9.23811e-23
      290.200   9.29203e-23
      290.300   9.34612e-23
      290.400   9.40034e-23
      290.500   9.45485e-23
      290.600   9.50949e-23
      290.700   9.56440e-23
      290.800   9.61956e-23
      290.900   9.67495e-23
      291.000   9.73058e-23
      291.100   9.78638e-23
      291.200   9.84236e-23
      291.300   9.89866e-23
      291.400   9.95508e-23
      291.500   1.00117e-22
      291.600   1.00687e-22
      291.700   1.01257e-22
      291.800   1.01831e-22
      291.900   1.02407e-22
      292.000   1.02986e-22
      292.100   1.03567e-22
      292.200   1.04150e-22
      292.300   1.04735e-22
      292.400   1.05322e-22
      292.500   1.05912e-22
      292.600   1.06501e-22
      292.700   1.07092e-22
      292.800   1.07684e-22
      292.900   1.08277e-22
      293.000   1.08874e-22
      293.100   1.09473e-22
      293.200   1.10074e-22
      293.300   1.10676e-22
      293.400   1.11282e-22
      293.500   1.11889e-22
      293.600   1.12499e-22
      293.700   1.13111e-22
      293.800   1.13726e-22
      293.900   1.14341e-22
      294.000   1.14959e-22
      294.100   1.15579e-22
      294.200   1.16202e-22
      294.300   1.16826e-22
      294.400   1.17453e-22
      294.500   1.18081e-22
      294.600   1.18711e-22
      294.700   1.19345e-22
      294.800   1.19979e-22
      294.900   1.20615e-22
      295.000   1.21254e-22
      295.100   1.21896e-22
      295.200   1.22539e-22
      295.300   1.23183e-22
      295.400   1.23829e-22
      295.500   1.24478e-22
      295.600   1.25128e-22
      295.700   1.25779e-22
      295.800   1.26433e-22
      295.900   1.27089e-22
      296.000   1.27747e-22
      296.100   1.28406e-22
      296.200   1.29067e-22
      296.300   1.29730e-22
      296.400   1.30394e-22
      296.500   1.31060e-22
      296.600   1.31729e-22
      296.700   1.32398e-22
      296.800   1.33069e-22
      296.900   1.33742e-22
      297.000   1.34417e-22
      297.100   1.35093e-22
      297.200   1.35852e-22
      297.300   1.37224e-22
      297.400   1.40111e-22
      297.500   1.43054e-22
      297.600   1.46054e-22
      297.700   1.49117e-22
      297.800   1.52235e-22
      297.900   1.55413e-22
      298.000   1.58648e-22
      298.100   1.61943e-22
      298.200   1.65300e-22
      298.300   1.68718e-22
      298.400   1.72202e-22
      298.500   1.75748e-22
      298.600   1.79362e-22
      298.700   1.83039e-22
      298.800   1.86784e-22
      298.900   1.90602e-22
      299.000   1.94493e-22
      299.100   1.98453e-22
      299.200   2.02486e-22
      299.300   2.06589e-22
      299.400   2.10768e-22
      299.500   2.15022e-22
      299.600   2.19349e-22
      299.700   2.23753e-22
      299.800   2.28239e-22
      299.900   2.32803e-22
      300.000   2.37445e-22
      300.100   2.42177e-22
      300.192   2.46604e-22
      300.285   2.51151e-22
      300.377   2.55722e-22
      300.470   2.60419e-22
      300.562   2.65137e-22
      300.654   2.69931e-22
      300.747   2.74862e-22
      300.839   2.79813e-22
      300.932   2.84897e-22
      301.025   2.90070e-22
      301.117   2.95263e-22
      301.210   3.00593e-22
      301.303   3.06017e-22
      301.395   3.11456e-22
      301.488   3.17051e-22
      301.581   3.22723e-22
      301.674   3.28495e-22
      301.766   3.34288e-22
      301.859   3.40242e-22
      301.952   3.46282e-22
      302.045   3.52423e-22
      302.138   3.69513e-22
      302.231   3.91895e-22
      302.324   4.15737e-22
      302.417   4.40982e-22
      302.510   4.67671e-22
      302.603   4.95867e-22
      302.696   5.25688e-22
      302.789   5.57231e-22
      302.882   5.90558e-22
      302.976   6.26156e-22
      303.069   6.63376e-22
      303.162   7.02692e-22
      303.255   7.44221e-22
      303.349   7.88563e-22
      303.442   8.34909e-22
      303.535   8.83783e-22
      303.629   9.35943e-22
      303.722   9.90434e-22
      303.816   1.04856e-21
      303.909   1.10926e-21
      304.003   1.17396e-21
      304.096   1.24153e-21
      304.190   1.31355e-21
      304.283   1.38868e-21
      304.377   1.46868e-21
      304.471   1.55309e-21
      304.564   1.64112e-21
      304.658   1.73486e-21
      304.752   1.83376e-21
      304.846   1.93786e-21
      304.939   2.04638e-21
      305.033   2.16191e-21
      305.127   2.28356e-21
      305.221   2.41164e-21
      305.315   2.54661e-21
      305.409   2.68858e-21
      305.503   2.83804e-21
      305.597   2.99541e-21
      305.691   3.16091e-21
      305.785   3.33516e-21
      305.879   3.51839e-21
      305.973   3.71094e-21
      306.067   3.91363e-21
      306.161   4.12664e-21
      306.255   4.35059e-21
      306.350   4.58855e-21
      306.444   4.83606e-21
      306.538   5.09625e-21
      306.633   5.37239e-21
      306.727   5.65965e-21
      306.821   5.96136e-21
      306.916   6.28152e-21
      307.010   6.61596e-21
      307.105   6.97239e-21
      307.199   7.34305e-21
      307.294   7.73655e-21
      307.388   8.14533e-21
      307.483   8.57907e-21
      307.577   9.02972e-21
      307.672   9.50775e-21
      307.767   1.00094e-20
      307.861   1.05299e-20
      307.956   1.10824e-20
      308.051   1.16620e-20
      308.146   1.22699e-20
      308.240   1.29003e-20
      308.335   1.35684e-20
      308.430   1.42693e-20
      308.525   1.50044e-20
      308.620   1.57744e-20
      308.715   1.65817e-20
      308.810   1.74278e-20
      308.905   1.83142e-20
      309.000   1.92423e-20
      309.095   2.02149e-20
      309.190   2.12334e-20
      309.285   2.23003e-20
      309.380   2.34173e-20
      309.476   2.45988e-20
      309.571   2.58232e-20
      309.666   2.71056e-20
      309.761   2.84468e-20
      309.857   2.98647e-20
      309.952   3.13330e-20
      310.047   3.28683e-20
      310.143   3.44920e-20
      310.238   3.61725e-20
      310.334   3.79480e-20
      310.429   3.97867e-20
      310.525   4.17272e-20
      310.620   4.37358e-20
      310.716   4.58570e-20
      310.811   4.80511e-20
      310.907   5.03660e-20
      311.003   5.27852e-20
      311.098   5.52872e-20
      311.194   5.79282e-20
      311.290   6.06870e-20
      311.386   6.35671e-20
      311.481   6.65432e-20
      311.577   6.96810e-20
      311.673   7.29593e-20
      311.769   7.63812e-20
      311.865   7.99491e-20
      311.961   8.36911e-20
      312.057   8.76305e-20
      312.153   9.17510e-20
      312.249   9.60532e-20
      312.345   1.00544e-19
      312.441   1.05231e-19
      312.537   1.10119e-19
      312.633   1.15218e-19
      312.730   1.20598e-19
      312.826   1.26149e-19
      312.922   1.31938e-19
      313.018   1.37975e-19
      313.115   1.44337e-19
      313.211   1.50905e-19
      313.307   1.57749e-19
      313.404   1.64957e-19
      313.500   1.72394e-19
      313.597   1.80223e-19
      313.693   1.88292e-19
      313.790   1.96793e-19
      313.886   2.05557e-19
      313.983   2.14784e-19
      314.079   2.24295e-19
      314.176   2.34297e-19
      314.273   2.44718e-19
      314.369   2.55455e-19
      314.466   2.66749e-19
      314.563   2.78508e-19
      314.660   2.90736e-19
      314.756   3.03341e-19
      314.853   3.16588e-19
      314.950   3.30374e-19
      315.047   3.44715e-19
      315.144   3.59640e-19
      315.241   3.75158e-19
      315.338   3.91304e-19
      315.435   4.08087e-19
      315.532   4.25538e-19
      315.629   4.43675e-19
      315.726   4.62533e-19
      315.823   4.82149e-19
      315.921   5.02724e-19
      316.018   5.23907e-19
      316.115   5.45915e-19
      316.212   5.68780e-19
      316.310   5.92775e-19
      316.407   6.17443e-19
      316.504   6.43076e-19
      316.602   6.69964e-19
      316.699   6.97604e-19
      316.796   7.26281e-19
      316.894   7.56371e-19
      316.991   7.87325e-19
      317.089   8.20011e-19
      317.187   8.54090e-19
      317.284   8.89099e-19
      317.382   9.25811e-19
      317.479   9.63541e-19
      317.577   1.00308e-18
      317.675   1.04410e-18
      317.773   1.08671e-18
      317.870   1.13045e-18
      317.968   1.17633e-18
      318.066   1.22391e-18
      318.164   1.27326e-18
      318.262   1.32445e-18
      318.360   1.37756e-18
      318.458   1.43262e-18
      318.556   1.48969e-18
      318.654   1.54886e-18
      318.752   1.61019e-18
      318.850   1.67377e-18
      318.948   1.73969e-18
      319.046   1.80800e-18
      319.144   1.87878e-18
      319.242   1.95209e-18
      319.341   2.02885e-18
      319.439   2.10755e-18
      319.537   2.18906e-18
      319.635   2.27348e-18
      319.734   2.36179e-18
      319.832   2.45231e-18
      319.930   2.54604e-18
      320.029   2.64406e-18
      320.127   2.74449e-18
      320.226   2.84954e-18
      320.324   2.95719e-18
      320.423   3.06971e-18
      320.522   3.18612e-18
      320.620   3.30534e-18
      320.719   3.42995e-18
      320.818   3.55888e-18
      320.916   3.69088e-18
      321.015   3.82883e-18
      321.114   3.97145e-18
      321.213   4.11897e-18
      321.311   4.26991e-18
      321.410   4.42746e-18
      321.509   4.59044e-18
      321.608   4.75878e-18
      321.707   4.93287e-18
      321.806   5.11281e-18
      321.905   5.29863e-18
      322.004   5.49081e-18
      322.103   5.71745e-18
      322.202   6.00160e-18
      322.301   6.32015e-18
      322.401   6.65778e-18
      322.500   7.00848e-18
      322.599   7.37615e-18
      322.698   7.76159e-18
      322.798   8.17005e-18
      322.897   8.59401e-18
      322.996   9.03802e-18
      323.096   9.50834e-18
      323.195   9.99601e-18
      323.294   1.05067e-17
      323.394   1.10468e-17
      323.493   1.16069e-17
      323.593   1.21993e-17
      323.692   1.28130e-17
      323.792   1.34618e-17
      323.892   1.41407e-17
      323.991   1.48442e-17
      324.091   1.55872e-17
      324.191   1.63648e-17
      324.291   1.71775e-17
      324.390   1.80183e-17
      324.490   1.89072e-17
      324.590   1.98351e-17
      324.690   2.08048e-17
      324.790   2.18184e-17
      324.890   2.28769e-17
      324.990   2.39832e-17
      325.090   2.51386e-17
      325.190   2.63439e-17
      325.290   2.76020e-17
      325.390   2.89161e-17
      325.490   3.02867e-17
      325.590   3.17162e-17
      325.690   3.32081e-17
      325.790   3.47638e-17
      325.891   3.64027e-17
      325.991   3.80944e-17
      326.091   3.98587e-17
      326.192   4.17158e-17
      326.292   4.36321e-17
      326.392   4.56279e-17
      326.493   4.77287e-17
      326.593   4.98954e-17
      326.694   5.21728e-17
      326.794   5.45221e-17
      326.895   5.69926e-17
      326.995   5.95391e-17
      327.096   6.22139e-17
      327.197   6.49989e-17
      327.297   6.78726e-17
      327.398   7.09010e-17
      327.499   7.40571e-17
      327.599   7.73092e-17
      327.700   8.07245e-17
      327.801   8.42744e-17
      327.902   8.79648e-17
      328.003   9.18037e-17
      328.104   9.57936e-17
      328.205   9.99400e-17
      328.306   1.04247e-16
      328.407   1.08721e-16
      328.508   1.13369e-16
      328.609   1.18195e-16
      328.710   1.23204e-16
      328.811   1.28406e-16
      328.912   1.33806e-16
      329.013   1.39407e-16
      329.115   1.45280e-16
      329.216   1.51314e-16
      329.317   1.57570e-16
      329.419   1.64123e-16
      329.520   1.70855e-16
      329.621   1.77833e-16
      329.723   1.85143e-16
      329.824   1.92634e-16
      329.926   2.00479e-16
      330.027   2.08531e-16
      330.129   2.16955e-16
      330.230   2.25591e-16
      330.332   2.34629e-16
      330.434   2.43984e-16
      330.535   2.53580e-16
      330.637   2.63608e-16
      330.739   2.73979e-16
      330.840   2.84613e-16
      330.942   2.95727e-16
      331.044   3.07224e-16
      331.146   3.19113e-16
      331.248   3.31411e-16
      331.350   3.44127e-16
      331.452   3.57285e-16
      331.554   3.71079e-16
      331.656   3.85674e-16
      331.758   4.00775e-16
      331.860   4.16412e-16
      331.962   4.32585e-16
      332.064   4.49316e-16
      332.166   4.66616e-16
      332.268   4.84515e-16
      332.371   5.03198e-16
      332.473   5.22331e-16
      332.575   5.41282e-16
      332.677   5.58072e-16
      332.780   5.73249e-16
      332.882   5.88636e-16
      332.985   6.04525e-16
      333.087   6.20630e-16
      333.190   6.37263e-16
      333.292   6.53912e-16
      333.395   6.70577e-16
      333.497   6.87217e-16
      333.600   7.04371e-16
      333.702   7.21709e-16
      333.805   7.39566e-16
      333.908   7.57819e-16
      334.011   7.76429e-16
      334.113   7.95226e-16
      334.216   8.14602e-16
      334.319   8.34363e-16
      334.422   8.54520e-16
      334.525   8.75084e-16
      334.628   8.96058e-16
      334.731   9.17430e-16
      334.834   9.39234e-16
      334.937   9.61472e-16
      335.040   9.84149e-16
      335.143   1.00724e-15
      335.246   1.03079e-15
      335.349   1.05478e-15
      335.452   1.07922e-15
      335.555   1.10413e-15
      335.659   1.12977e-15
      335.762   1.15565e-15
      335.865   1.18199e-15
      335.969   1.20909e-15
      336.072   1.23643e-15
      336.175   1.26425e-15
      336.279   1.29286e-15
      336.382   1.32172e-15
      336.486   1.35140e-15
      336.589   1.38129e-15
      336.693   1.41204e-15
      336.796   1.44301e-15
      336.900   1.47486e-15
      337.004   1.50730e-15
      337.107   1.53993e-15
      337.211   1.57349e-15
      337.315   1.60762e-15
      337.419   1.64236e-15
      337.523   1.67766e-15
      337.626   1.71324e-15
      337.730   1.74978e-15
      337.834   1.78692e-15
      337.938   1.82462e-15
      338.042   1.86270e-15
      338.146   1.90137e-15
      338.250   1.94067e-15
      338.354   1.98064e-15
      338.458   2.02125e-15
      338.562   2.06252e-15
      338.667   2.10485e-15
      338.771   2.14747e-15
      338.875   2.19074e-15
      338.979   2.23472e-15
      339.084   2.27980e-15
      339.188   2.32513e-15
      339.292   2.37121e-15
      339.397   2.41845e-15
      339.501   2.46596e-15
      339.606   2.51470e-15
      339.710   2.56366e-15
      339.815   2.61388e-15
      339.919   2.66434e-15
      340.024   2.71609e-15
      340.128   2.76806e-15
      340.233   2.82138e-15
      340.338   2.87543e-15
      340.442   2.92978e-15
      340.547   2.98546e-15
      340.652   3.04196e-15
      340.757   3.09926e-15
      340.862   3.15741e-15
      340.966   3.21581e-15
      341.071   3.27557e-15
      341.176   3.33623e-15
      341.281   3.39774e-15
      341.386   3.46010e-15
      341.491   3.52336e-15
      341.596   3.58750e-15
      341.702   3.65316e-15
      341.807   3.71904e-15
      341.912   3.78586e-15
      342.017   3.85361e-15
      342.122   3.92226e-15
      342.228   3.99244e-15
      342.333   4.06295e-15
      342.438   4.13441e-15
      342.544   4.20746e-15
      342.649   4.28077e-15
      342.754   4.35505e-15
      342.860   4.43101e-15
      342.965   4.50730e-15
      343.071   4.58517e-15
      343.176   4.66340e-15
      343.282   4.74340e-15
      343.388   4.82438e-15
      343.493   4.90610e-15
      343.599   4.99391e-15
      343.705   5.08343e-15
      343.810   5.17324e-15
      343.916   5.26513e-15
      344.022   5.35834e-15
      344.128   5.45274e-15
      344.234   5.54849e-15
      344.340   5.64547e-15
      344.446   5.74375e-15
      344.552   5.84335e-15
      344.658   5.94436e-15
      344.764   6.04650e-15
      344.870   6.15015e-15
      344.976   6.25501e-15
      345.082   6.36132e-15
      345.188   6.46896e-15
      345.294   6.57801e-15
      345.401   6.68951e-15
      345.507   6.80134e-15
      345.613   6.91455e-15
      345.719   7.02923e-15
      345.826   7.14647e-15
      345.932   7.26403e-15
      346.039   7.38416e-15
      346.145   7.50466e-15
      346.252   7.62777e-15
      346.358   7.75122e-15
      346.465   7.87725e-15
      346.571   8.00375e-15
      346.678   8.13292e-15
      346.785   8.26371e-15
      346.891   8.39469e-15
      346.998   8.52844e-15
      347.105   8.66387e-15
      347.212   8.80093e-15
      347.319   8.93958e-15
      347.425   9.07847e-15
      347.532   9.22036e-15
      347.639   9.36378e-15
      347.746   9.50887e-15
      347.853   9.65580e-15
      347.960   9.80416e-15
      348.067   9.95432e-15
      348.174   1.01061e-14
      348.281   1.02594e-14
      348.389   1.04161e-14
      348.496   1.05729e-14
      348.603   1.07316e-14
      348.710   1.08917e-14
      348.818   1.10554e-14
      348.925   1.12181e-14
      349.032   1.13267e-14
      349.140   1.13013e-14
      349.247   1.12760e-14
      349.355   1.12506e-14
      349.462   1.12253e-14
      349.570   1.11998e-14
      349.677   1.11745e-14
      349.785   1.11489e-14
      349.892   1.11236e-14
      350.000   1.10982e-14
      350.100   1.10745e-14
      350.193   1.10526e-14
      350.287   1.10303e-14
      350.380   1.10083e-14
      350.473   1.09864e-14
      350.567   1.09641e-14
      350.660   1.09421e-14
      350.754   1.09199e-14
      350.847   1.08979e-14
      350.941   1.08756e-14
      351.034   1.08536e-14
      351.128   1.08314e-14
      351.221   1.08094e-14
      351.315   1.07872e-14
      351.409   1.07650e-14
      351.502   1.07430e-14
      351.596   1.07207e-14
      351.690   1.06985e-14
      351.783   1.06765e-14
      351.877   1.06544e-14
      351.971   1.06321e-14
      352.065   1.06100e-14
      352.159   1.05878e-14
      352.252   1.05658e-14
      352.346   1.05436e-14
      352.440   1.05214e-14
      352.534   1.04992e-14
      352.628   1.04771e-14
      352.722   1.04549e-14
      352.816   1.04327e-14
      352.910   1.04105e-14
      353.004   1.03884e-14
      353.098   1.03662e-14
      353.192   1.03441e-14
      353.287   1.03217e-14
      353.381   1.02995e-14
      353.475   1.02774e-14
      353.569   1.02552e-14
      353.663   1.02331e-14
      353.758   1.02108e-14
      353.852   1.01887e-14
      353.946   1.01665e-14
      354.041   1.01442e-14
      354.135   1.01221e-14
      354.229   1.00999e-14
      354.324   1.00776e-14
      354.418   1.00555e-14
      354.513   1.00331e-14
      354.607   1.00111e-14
      354.702   9.97335e-15
      354.796   9.92638e-15
      354.891   9.87820e-15
      354.985   9.83078e-15
      355.080   9.78304e-15
      355.175   9.73552e-15
      355.269   9.68868e-15
      355.364   9.64157e-15
      355.459   9.59469e-15
      355.553   9.54850e-15
      355.648   9.50201e-15
      355.743   9.45575e-15
      355.838   9.40962e-15
      355.933   9.36380e-15
      356.027   9.31859e-15
      356.122   9.27311e-15
      356.217   9.22781e-15
      356.312   9.18276e-15
      356.407   9.13785e-15
      356.502   9.09315e-15
      356.597   9.04863e-15
      356.692   9.00435e-15
      356.787   8.96024e-15
      356.882   8.91627e-15
      356.977   8.87256e-15
      357.073   8.82856e-15
      357.168   8.78514e-15
      357.263   8.74194e-15
      357.358   8.69896e-15
      357.453   8.65615e-15
      357.549   8.61307e-15
      357.644   8.57062e-15
      357.739   8.52835e-15
      357.835   8.48581e-15
      357.930   8.44387e-15
      358.025   8.40212e-15
      358.121   8.36010e-15
      358.216   8.31869e-15
      358.312   8.27704e-15
      358.407   8.23597e-15
      358.503   8.19467e-15
      358.598   8.15398e-15
      358.694   8.11298e-15
      358.790   8.07219e-15
      358.885   8.03195e-15
      358.981   7.99150e-15
      359.076   7.95159e-15
      359.172   7.91149e-15
      359.268   7.87147e-15
      359.364   7.83165e-15
      359.459   7.79245e-15
      359.555   7.75298e-15
      359.651   7.71361e-15
      359.747   7.67442e-15
      359.843   7.63542e-15
      359.939   7.59655e-15
      360.035   7.55788e-15
      360.131   7.51933e-15
      360.227   7.48093e-15
      360.323   7.44272e-15
      360.419   7.44749e-15
      360.515   7.49032e-15
      360.611   7.54051e-15
      360.707   7.59083e-15
      360.803   7.64112e-15
      360.899   7.69160e-15
      360.995   7.74217e-15
      361.092   7.79332e-15
      361.188   7.84406e-15
      361.284   7.89484e-15
      361.380   7.94572e-15
      361.477   7.99721e-15
      361.573   8.04826e-15
      361.669   8.09931e-15
      361.766   8.15097e-15
      361.862   8.20214e-15
      361.959   8.25392e-15
      362.055   8.30523e-15
      362.152   8.35711e-15
      362.248   8.40849e-15
      362.345   8.46049e-15
      362.441   8.51197e-15
      362.538   8.56401e-15
      362.635   8.61609e-15
      362.731   8.66766e-15
      362.828   8.71974e-15
      362.925   8.77188e-15
      363.021   8.82357e-15
      363.118   8.87574e-15
      363.215   8.92793e-15
      363.312   8.98014e-15
      363.409   9.03235e-15
      363.505   9.08398e-15
      363.602   9.13624e-15
      363.699   9.18849e-15
      363.796   9.24066e-15
      363.893   9.29281e-15
      363.990   9.34495e-15
      364.087   9.39709e-15
      364.184   9.44919e-15
      364.281   9.50129e-15
      364.378   9.55339e-15
      364.475   9.60538e-15
      364.573   9.65791e-15
      364.670   9.70980e-15
      364.767   9.76169e-15
      364.864   9.81356e-15
      364.961   9.86529e-15
      365.059   9.91754e-15
      365.156   9.96918e-15
      365.253   1.00208e-14
      365.351   1.00728e-14
      365.448   1.01243e-14
      365.545   1.01757e-14
      365.643   1.02275e-14
      365.740   1.02787e-14
      365.838   1.03303e-14
      365.935   1.03813e-14
      366.033   1.04327e-14
      366.130   1.04836e-14
      366.228   1.05542e-14
      366.326   1.06523e-14
      366.423   1.07585e-14
      366.521   1.08663e-14
      366.618   1.09735e-14
      366.716   1.10822e-14
      366.814   1.11914e-14
      366.912   1.13010e-14
      367.010   1.14113e-14
      367.107   1.15208e-14
      367.205   1.16319e-14
      367.303   1.17433e-14
      367.401   1.18552e-14
      367.499   1.19676e-14
      367.597   1.20804e-14
      367.695   1.21935e-14
      367.793   1.23071e-14
      367.891   1.24211e-14
      367.989   1.25356e-14
      368.087   1.26504e-14
      368.185   1.27655e-14
      368.283   1.28810e-14
      368.381   1.29970e-14
      368.480   1.31144e-14
      368.578   1.32310e-14
      368.676   1.33479e-14
      368.774   1.34652e-14
      368.873   1.35841e-14
      368.971   1.37020e-14
      369.069   1.38203e-14
      369.168   1.39401e-14
      369.266   1.40588e-14
      369.364   1.41779e-14
      369.463   1.42986e-14
      369.561   1.44183e-14
      369.660   1.45394e-14
      369.758   1.46595e-14
      369.857   1.47812e-14
      369.955   1.49018e-14
      370.054   1.50239e-14
      370.153   1.51462e-14
      370.251   1.52675e-14
      370.350   1.53902e-14
      370.449   1.55131e-14
      370.547   1.56349e-14
      370.646   1.57583e-14
      370.745   1.58817e-14
      370.844   1.60053e-14
      370.943   1.61291e-14
      371.041   1.62517e-14
      371.140   1.63757e-14
      371.239   1.64998e-14
      371.338   1.66241e-14
      371.437   1.67485e-14
      371.536   1.68727e-14
      371.635   1.69973e-14
      371.734   1.71219e-14
      371.833   1.72465e-14
      371.932   1.73711e-14
      372.032   1.74972e-14
      372.131   1.77442e-14
      372.230   1.82526e-14
      372.329   1.89060e-14
      372.428   1.95778e-14
      372.528   2.02749e-14
      372.627   2.09841e-14
      372.726   2.17125e-14
      372.826   2.24685e-14
      372.925   2.32372e-14
      373.024   2.40260e-14
      373.124   2.48438e-14
      373.223   2.56736e-14
      373.323   2.65340e-14
      373.422   2.74077e-14
      373.522   2.83122e-14
      373.621   2.92293e-14
      373.721   3.01794e-14
      373.820   3.11422e-14
      373.920   3.21384e-14
      374.020   3.31593e-14
      374.119   3.41925e-14
      374.219   3.52617e-14
      374.319   3.63552e-14
      374.419   3.74729e-14
      374.518   3.86054e-14
      374.618   3.97748e-14
      374.718   4.09709e-14
      374.818   4.21916e-14
      374.918   4.34386e-14
      375.018   4.47138e-14
      375.118   4.60150e-14
      375.218   4.73442e-14
      375.318   4.87010e-14
      375.418   5.00858e-14
      375.518   5.14977e-14
      375.618   5.29376e-14
      375.718   5.44063e-14
      375.818   5.59035e-14
      375.918   5.74297e-14
      376.019   5.90008e-14
      376.119   6.05864e-14
      376.219   6.22000e-14
      376.319   6.38446e-14
      376.420   6.55348e-14
      376.520   6.72382e-14
      376.620   6.89715e-14
      376.721   7.07537e-14
      376.821   7.25478e-14
      376.922   7.44058e-14
      377.022   7.64660e-14
      377.122   7.87759e-14
      377.223   8.11593e-14
      377.323   8.35678e-14
      377.424   8.60527e-14
      377.525   8.85864e-14
      377.625   9.11447e-14
      377.726   9.37801e-14
      377.827   9.64682e-14
      377.927   9.91810e-14
      378.028   1.01971e-13
      378.129   1.04815e-13
      378.230   1.07713e-13
      378.330   1.10633e-13
      378.431   1.13635e-13
      378.532   1.16688e-13
      378.633   1.19797e-13
      378.734   1.22960e-13
      378.835   1.26175e-13
      378.936   1.29443e-13
      379.037   1.32765e-13
      379.138   1.36139e-13
      379.239   1.39569e-13
      379.340   1.43051e-13
      379.441   1.46588e-13
      379.542   1.50177e-13
      379.643   1.53819e-13
      379.745   1.57552e-13
      379.846   1.61302e-13
      379.947   1.65102e-13
      380.048   1.68956e-13
      380.150   1.72903e-13
      380.251   1.76863e-13
      380.352   1.80873e-13
      380.454   1.84974e-13
      380.555   1.89089e-13
      380.656   1.93253e-13
      380.758   1.97511e-13
      380.859   2.01776e-13
      380.961   2.06132e-13
      381.062   2.10495e-13
      381.164   2.14953e-13
      381.266   2.19459e-13
      381.367   2.23969e-13
      381.469   2.28571e-13
      381.570   2.33173e-13
      381.672   2.37867e-13
      381.774   2.42611e-13
      381.876   2.47396e-13
      381.977   2.52246e-13
      382.079   2.57408e-13
      382.181   2.62808e-13
      382.283   2.68262e-13
      382.385   2.73772e-13
      382.487   2.79340e-13
      382.589   2.84954e-13
      382.691   2.90620e-13
      382.793   2.96338e-13
      382.895   3.02109e-13
      382.997   3.07929e-13
      383.099   3.13796e-13
      383.201   3.19707e-13
      383.303   3.25671e-13
      383.405   3.31675e-13
      383.507   3.37720e-13
      383.610   3.43870e-13
      383.712   3.50007e-13
      383.814   3.56176e-13
      383.916   3.62388e-13
      384.019   3.68701e-13
      384.121   3.74991e-13
      384.223   3.81312e-13
      384.326   3.87733e-13
      384.428   3.94117e-13
      384.531   4.00595e-13
      384.633   4.07042e-13
      384.736   4.13583e-13
      384.838   4.20086e-13
      384.941   4.26682e-13
      385.043   4.33238e-13
      385.146   4.39884e-13
      385.249   4.46551e-13
      385.351   4.53178e-13
      385.454   4.59891e-13
      385.557   4.66619e-13
      385.660   4.73371e-13
      385.762   4.80069e-13
      385.865   4.86847e-13
      385.968   4.93643e-13
      386.071   5.00452e-13
      386.174   5.07273e-13
      386.277   5.14098e-13
      386.380   5.20931e-13
      386.483   5.27774e-13
      386.586   5.34621e-13
      386.689   5.41473e-13
      386.792   5.48329e-13
      386.895   5.55184e-13
      386.998   5.62039e-13
      387.101   5.66308e-13
      387.204   5.61675e-13
      387.308   5.54038e-13
      387.411   5.46577e-13
      387.514   5.39218e-13
      387.617   5.31961e-13
      387.721   5.24735e-13
      387.824   5.17674e-13
      387.927   5.10704e-13
      388.031   5.03766e-13
      388.134   4.96991e-13
      388.238   4.90244e-13
      388.341   4.83648e-13
      388.445   4.77081e-13
      388.548   4.70662e-13
      388.652   4.64273e-13
      388.755   4.58030e-13
      388.859   4.51811e-13
      388.962   4.45735e-13
      389.066   4.39681e-13
      389.170   4.33715e-13
      389.274   4.27825e-13
      389.377   4.22070e-13
      389.481   4.16335e-13
      389.585   4.10682e-13
      389.689   4.05104e-13
      389.793   3.99599e-13
      389.897   3.94173e-13
      390.000   3.88867e-13
      390.104   3.83585e-13
      390.208   3.78371e-13
      390.312   3.73229e-13
      390.416   3.68154e-13
      390.520   3.63142e-13
      390.625   3.58149e-13
      390.729   3.53277e-13
      390.833   3.48466e-13
      390.937   3.43721e-13
      391.041   3.39042e-13
      391.145   3.34425e-13
      391.250   3.29825e-13
      391.354   3.25330e-13
      391.458   3.20893e-13
      391.563   3.16473e-13
      391.667   3.12157e-13
      391.771   3.07900e-13
      391.876   3.03660e-13
      391.980   2.99517e-13
      392.085   2.95393e-13
      392.189   2.91364e-13
      392.294   2.87351e-13
      392.398   2.83433e-13
      392.503   2.79530e-13
      392.607   2.75718e-13
      392.712   2.71923e-13
      392.817   2.68177e-13
      392.921   2.64522e-13
      393.026   2.60880e-13
      393.131   2.57290e-13
      393.236   2.53746e-13
      393.340   2.50286e-13
      393.445   2.46843e-13
      393.550   2.43445e-13
      393.655   2.40095e-13
      393.760   2.36791e-13
      393.865   2.33532e-13
      393.970   2.30320e-13
      394.075   2.27150e-13
      394.180   2.24026e-13
      394.285   2.20945e-13
      394.390   2.17906e-13
      394.495   2.14908e-13
      394.600   2.11952e-13
      394.706   2.09011e-13
      394.811   2.06137e-13
      394.916   2.03301e-13
      395.021   2.00506e-13
      395.126   1.97751e-13
      395.232   1.95006e-13
      395.337   1.92325e-13
      395.443   1.89658e-13
      395.548   1.87051e-13
      395.653   1.84482e-13
      395.759   1.81922e-13
      395.864   1.79424e-13
      395.970   1.76936e-13
      396.075   1.74506e-13
      396.181   1.72086e-13
      396.286   1.69721e-13
      396.392   1.67370e-13
      396.498   1.65051e-13
      396.603   1.62783e-13
      396.709   1.60527e-13
      396.815   1.58302e-13
      396.921   1.56107e-13
      397.026   1.53964e-13
      397.132   1.51830e-13
      397.238   1.49727e-13
      397.344   1.47651e-13
      397.450   1.45607e-13
      397.556   1.43588e-13
      397.662   1.41598e-13
      397.768   1.39635e-13
      397.874   1.37699e-13
      397.980   1.35790e-13
      398.086   1.33906e-13
      398.192   1.32050e-13
      398.298   1.30218e-13
      398.404   1.28413e-13
      398.510   1.26631e-13
      398.617   1.24860e-13
      398.723   1.23128e-13
      398.829   1.21419e-13
      398.935   1.19734e-13
      399.042   1.18058e-13
      399.148   1.16419e-13
      399.255   1.14789e-13
      399.361   1.13196e-13
      399.467   1.11623e-13
      399.574   1.10060e-13
      399.680   1.08532e-13
      399.787   1.07010e-13
      399.893       0.00000
      400.000       0.00000
