Filter Ti-poly
observation_date 22-Sept-2006 22:40:45
wavelength effective area 
      1.00000   2.76780e-10
      1.10000   7.88654e-10
      1.20000   2.04574e-09
      1.30000   4.87950e-09
      1.40000   1.10404e-08
      1.50000   2.34784e-08
      1.60000   4.73616e-08
      1.70000   9.15884e-08
      1.80000   1.69792e-07
      1.90000   3.03772e-07
      2.00000   5.25515e-07
      2.10000   8.82978e-07
      2.20000   1.44785e-06
      2.30000   2.31380e-06
      2.40000   3.61027e-06
      2.50000   5.78669e-06
      2.60000   8.95896e-06
      2.70000   1.33570e-05
      2.80000   1.95333e-05
      2.90000   2.82724e-05
      3.00000   4.02831e-05
      3.10000   5.66592e-05
      3.20000   7.88236e-05
      3.30000   0.000108544
      3.40000   0.000147916
      3.50000   0.000199621
      3.60000   0.000268163
      3.70000   0.000356420
      3.80000   0.000471768
      3.90000   0.000620992
      4.00000   0.000812342
      4.10000    0.00105775
      4.20000    0.00137239
      4.30000    0.00177559
      4.40000    0.00229117
      4.50000    0.00294838
      4.60000    0.00378144
      4.70000    0.00484979
      4.80000    0.00621373
      4.90000    0.00785900
      5.00000     0.0102018
      5.10000     0.0130565
      5.20000     0.0167599
      5.30000     0.0213320
      5.40000     0.0271083
      5.50000     0.0345094
      5.60000     0.0425842
      5.70000     0.0553618
      5.80000     0.0649124
      5.90000     0.0991251
      6.00000      0.133268
      6.10000      0.170354
      6.20000      0.209224
      6.30000      0.246312
      6.40000      0.278151
      6.50000      0.301612
      6.60000      0.312256
      6.70000      0.322051
      6.80000      0.322540
      6.90000      0.423229
      7.00000      0.460346
      7.10000      0.486949
      7.20000      0.508108
      7.30000      0.525387
      7.40000      0.538605
      7.50000      0.549150
      7.60000      0.557130
      7.70000      0.561069
      7.80000      0.559877
      7.90000      0.559354
      8.00000      0.808887
      8.10000      0.885400
      8.20000      0.899685
      8.30000      0.909863
      8.40000      0.916543
      8.50000      0.921771
      8.60000      0.925264
      8.70000      0.927627
      8.80000      0.928558
      8.90000      0.928523
      9.00000      0.927457
      9.10000      0.925409
      9.20000      0.922564
      9.30000      0.918840
      9.40000      0.914383
      9.50000      0.909250
      9.60000      0.903392
      9.70000      0.896918
      9.80000      0.889975
      9.90000      0.882592
      10.0000      0.874829
      10.1000      0.866697
      10.2000      0.858222
      10.3000      0.849349
      10.4000      0.840105
      10.5000      0.830513
      10.6000      0.820616
      10.7000      0.810435
      10.8000      0.799982
      10.9000      0.789286
      11.0000      0.778363
      11.1000      0.767247
      11.2000      0.755943
      11.3000      0.744483
      11.4000      0.732862
      11.5000      0.721082
      11.6000      0.709163
      11.7000      0.697049
      11.8000      0.684825
      11.9000      0.672403
      12.0000      0.659091
      12.1000      0.648171
      12.2000      0.648599
      12.3000      0.642170
      12.4000      0.630992
      12.5000      0.619416
      12.6000      0.607693
      12.7000      0.595924
      12.8000      0.584146
      12.9000      0.572373
      13.0000      0.560646
      13.1000      0.548996
      13.2000      0.537440
      13.3000      0.525991
      13.4000      0.514667
      13.5000      0.503601
      13.6000      0.492767
      13.7000      0.482053
      13.8000      0.471456
      13.9000      0.460994
      14.0000      0.450666
      14.1000      0.440458
      14.2000      0.430371
      14.3000      0.420402
      14.4000      0.410541
      14.5000      0.400801
      14.6000      0.391186
      14.7000      0.381685
      14.8000      0.372303
      14.9000      0.363043
      15.0000      0.353907
      15.1000      0.344902
      15.2000      0.336054
      15.3000      0.327346
      15.4000      0.318772
      15.5000      0.310334
      15.6000      0.302052
      15.7000      0.293921
      15.8000      0.285981
      15.9000      0.278201
      16.0000      0.270579
      16.1000      0.263117
      16.2000      0.255855
      16.3000      0.248742
      16.4000      0.241764
      16.5000      0.234916
      16.6000      0.228213
      16.7000      0.221660
      16.8000      0.215228
      16.9000      0.208913
      17.0000      0.202742
      17.1000      0.196713
      17.2000      0.190794
      17.3000      0.184993
      17.4000      0.179442
      17.5000      0.174099
      17.6000      0.168941
      17.7000      0.163992
      17.8000      0.159348
      17.9000      0.154802
      18.0000      0.150323
      18.1000      0.145956
      18.2000      0.141627
      18.3000      0.137328
      18.4000      0.133049
      18.5000      0.128801
      18.6000      0.124569
      18.7000      0.120338
      18.8000      0.116219
      18.9000      0.112181
      19.0000      0.108261
      19.1000      0.104465
      19.2000      0.100757
      19.3000     0.0971950
      19.4000     0.0937484
      19.5000     0.0903872
      19.6000     0.0871944
      19.7000     0.0840865
      19.8000     0.0810553
      19.9000     0.0781724
      20.0000     0.0753477
      20.1000     0.0726050
      20.2000     0.0699525
      20.3000     0.0673500
      20.4000     0.0648471
      20.5000     0.0624025
      20.6000     0.0600110
      20.7000     0.0577160
      20.8000     0.0554608
      20.9000     0.0532805
      21.0000     0.0512660
      21.1000     0.0493786
      21.2000     0.0478788
      21.3000     0.0464889
      21.4000     0.0453406
      21.5000     0.0444658
      21.6000     0.0438675
      21.7000     0.0432361
      21.8000     0.0425925
      21.9000     0.0418584
      22.0000     0.0410686
      22.1000     0.0401430
      22.2000     0.0389760
      22.3000     0.0376000
      22.4000     0.0354617
      22.5000     0.0330876
      22.6000     0.0279021
      22.7000     0.0245859
      22.8000     0.0310302
      22.9000     0.0392018
      23.0000     0.0491471
      23.1000     0.0552092
      23.2000     0.0576263
      23.3000     0.0574899
      23.4000     0.0560858
      23.5000     0.0546457
      23.6000     0.0532003
      23.7000     0.0516605
      23.8000     0.0501192
      23.9000     0.0486169
      24.0000     0.0471218
      24.1000     0.0456471
      24.2000     0.0441883
      24.3000     0.0427770
      24.4000     0.0413828
      24.5000     0.0400277
      24.6000     0.0386957
      24.7000     0.0374089
      24.8000     0.0361455
      24.9000     0.0349225
      25.0000     0.0337249
      25.1000     0.0325693
      25.2000     0.0314374
      25.3000     0.0303449
      25.4000     0.0292757
      25.5000     0.0282480
      25.6000     0.0272410
      25.7000     0.0262760
      25.8000     0.0253281
      25.9000     0.0244229
      26.0000     0.0235304
      26.1000     0.0226813
      26.2000     0.0218404
      26.3000     0.0210464
      26.4000     0.0202556
      26.5000     0.0195127
      26.6000     0.0187723
      26.7000     0.0180749
      26.8000     0.0173855
      26.9000     0.0167292
      27.0000     0.0160848
      27.1000     0.0154640
      27.2000     0.0148591
      27.3000     0.0641357
      27.4000      0.175700
      27.5000      0.257124
      27.6000      0.253210
      27.7000      0.249301
      27.8000      0.245296
      27.9000      0.241303
      28.0000      0.237382
      28.1000      0.233486
      28.2000      0.229649
      28.3000      0.225856
      28.4000      0.222102
      28.5000      0.218414
      28.6000      0.214747
      28.7000      0.211196
      28.8000      0.207657
      28.9000      0.204188
      29.0000      0.200746
      29.1000      0.197348
      29.2000      0.193999
      29.3000      0.190671
      29.4000      0.187418
      29.5000      0.184176
      29.6000      0.181003
      29.7000      0.177855
      29.8000      0.174749
      29.9000      0.171697
      30.0000      0.168657
      30.1000      0.165697
      30.2000      0.162747
      30.3000      0.166134
      30.4000      0.173136
      30.5000      0.178002
      30.6000      0.174993
      30.7000      0.171995
      30.8000      0.169063
      30.9000      0.166157
      31.0000      0.163285
      31.1000      0.160476
      31.2000      0.157676
      31.3000      0.154945
      31.4000      0.152237
      31.5000      0.149565
      31.6000      0.146961
      31.7000      0.144366
      31.8000      0.141830
      31.9000      0.139315
      32.0000      0.136807
      32.1000      0.134301
      32.2000      0.131803
      32.3000      0.129365
      32.4000      0.126957
      32.5000      0.124568
      32.6000      0.122270
      32.7000      0.119980
      32.8000      0.117734
      32.9000      0.115531
      33.0000      0.113334
      33.1000      0.111262
      33.2000      0.109212
      33.3000      0.107184
      33.4000      0.105211
      33.5000      0.103246
      33.6000      0.101327
      33.7000     0.0994406
      33.8000     0.0975602
      33.9000     0.0957413
      34.0000     0.0939358
      34.1000     0.0921596
      34.2000     0.0904330
      34.3000     0.0887111
      34.4000     0.0870206
      34.5000     0.0853687
      34.6000     0.0837215
      34.7000     0.0821097
      34.8000     0.0805168
      34.9000     0.0789283
      35.0000     0.0773979
      35.1000     0.0758774
      35.2000     0.0743719
      35.3000     0.0729600
      35.4000     0.0715520
      35.5000     0.0701631
      35.6000     0.0688154
      35.7000     0.0674715
      35.8000     0.0661542
      35.9000     0.0648692
      36.0000     0.0635876
      36.1000     0.0623388
      36.2000     0.0611145
      36.3000     0.0598937
      36.4000     0.0587096
      36.5000     0.0575439
      36.6000     0.0563814
      36.7000     0.0552591
      36.8000     0.0541505
      36.9000     0.0530451
      37.0000     0.0519815
      37.1000     0.0509282
      37.2000     0.0498777
      37.3000     0.0488701
      37.4000     0.0478705
      37.5000     0.0468736
      37.6000     0.0459186
      37.7000     0.0449705
      37.8000     0.0440251
      37.9000     0.0431202
      38.0000     0.0422224
      38.1000     0.0413271
      38.2000     0.0404694
      38.3000     0.0396198
      38.4000     0.0387724
      38.5000     0.0379593
      38.6000     0.0371562
      38.7000     0.0363551
      38.8000     0.0355841
      38.9000     0.0348257
      39.0000     0.0340692
      39.1000     0.0333380
      39.2000     0.0326227
      39.3000     0.0319092
      39.4000     0.0312153
      39.5000     0.0305413
      39.6000     0.0298691
      39.7000     0.0292104
      39.8000     0.0285763
      39.9000     0.0279439
      40.0000     0.0273186
      40.1000     0.0267235
      40.2000     0.0261299
      40.3000     0.0255379
      40.4000     0.0249777
      40.5000     0.0244204
      40.6000     0.0238646
      40.7000     0.0233322
      40.8000     0.0228095
      40.9000     0.0222882
      41.0000     0.0217818
      41.1000     0.0212921
      41.2000     0.0208036
      41.3000     0.0203219
      41.4000     0.0198645
      41.5000     0.0194081
      41.6000     0.0189529
      41.7000     0.0185220
      41.8000     0.0180955
      41.9000     0.0176701
      42.0000     0.0172599
      42.1000     0.0168622
      42.2000     0.0164655
      42.3000     0.0160741
      42.4000     0.0157035
      42.5000     0.0153337
      42.6000     0.0149649
      42.7000     0.0146148
      42.8000     0.0142704
      42.9000     0.0139267
      43.0000     0.0135921
      43.1000     0.0132719
      43.2000     0.0129525
      43.3000     0.0126339
      43.4000     0.0386126
      43.5000     0.0665351
      43.6000     0.0943934
      43.7000      0.108808
      43.8000      0.107362
      43.9000      0.105920
      44.0000      0.104481
      44.1000      0.103088
      44.2000      0.101700
      44.3000      0.100315
      44.4000     0.0989510
      44.5000     0.0976141
      44.6000     0.0962802
      44.7000     0.0949495
      44.8000     0.0936614
      44.9000     0.0923820
      45.0000     0.0911055
      45.1000     0.0898438
      45.2000     0.0886136
      45.3000     0.0873863
      45.4000     0.0861617
      45.5000     0.0849673
      45.6000     0.0837883
      45.7000     0.0826121
      45.8000     0.0814399
      45.9000     0.0803079
      46.0000     0.0791784
      46.1000     0.0780515
      46.2000     0.0769755
      46.3000     0.0759853
      46.4000     0.0749975
      46.5000     0.0740118
      46.6000     0.0730621
      46.7000     0.0721313
      46.8000     0.0712026
      46.9000     0.0702760
      47.0000     0.0693988
      47.1000     0.0685268
      47.2000     0.0676567
      47.3000     0.0667941
      47.4000     0.0659602
      47.5000     0.0651280
      47.6000     0.0642978
      47.7000     0.0634834
      47.8000     0.0626933
      47.9000     0.0619048
      48.0000     0.0611182
      48.1000     0.0603493
      48.2000     0.0595943
      48.3000     0.0588410
      48.4000     0.0580893
      48.5000     0.0573649
      48.6000     0.0566522
      48.7000     0.0559410
      48.8000     0.0552314
      48.9000     0.0545456
      49.0000     0.0538656
      49.1000     0.0531871
      49.2000     0.0525102
      49.3000     0.0518565
      49.4000     0.0512059
      49.5000     0.0505568
      49.6000     0.0499090
      49.7000     0.0492846
      49.8000     0.0486620
      49.9000     0.0480407
      50.0000     0.0474215
      50.1000     0.0468214
      50.2000     0.0462340
      50.3000     0.0456535
      50.4000     0.0450792
      50.5000     0.0445109
      50.6000     0.0439493
      50.7000     0.0433943
      50.8000     0.0428454
      50.9000     0.0423032
      51.0000     0.0417673
      51.1000     0.0412378
      51.2000     0.0407141
      51.3000     0.0401973
      51.4000     0.0396873
      51.5000     0.0391816
      51.6000     0.0386812
      51.7000     0.0381860
      51.8000     0.0376914
      51.9000     0.0372021
      52.0000     0.0367179
      52.1000     0.0362394
      52.2000     0.0357659
      52.3000     0.0352972
      52.4000     0.0348353
      52.5000     0.0343788
      52.6000     0.0339165
      52.7000     0.0334488
      52.8000     0.0329861
      52.9000     0.0325296
      53.0000     0.0320793
      53.1000     0.0316336
      53.2000     0.0311941
      53.3000     0.0307598
      53.4000     0.0303302
      53.5000     0.0299062
      53.6000     0.0294874
      53.7000     0.0290732
      53.8000     0.0286642
      53.9000     0.0282601
      54.0000     0.0278614
      54.1000     0.0274688
      54.2000     0.0270806
      54.3000     0.0266963
      54.4000     0.0263169
      54.5000     0.0259421
      54.6000     0.0255720
      54.7000     0.0252077
      54.8000     0.0248481
      54.9000     0.0244925
      55.0000     0.0241413
      55.1000     0.0237939
      55.2000     0.0234400
      55.3000     0.0230817
      55.4000     0.0227282
      55.5000     0.0223787
      55.6000     0.0220341
      55.7000     0.0216942
      55.8000     0.0213584
      55.9000     0.0210277
      56.0000     0.0207046
      56.1000     0.0203819
      56.2000     0.0200600
      56.3000     0.0197426
      56.4000     0.0194293
      56.5000     0.0191202
      56.6000     0.0188159
      56.7000     0.0185159
      56.8000     0.0182197
      56.9000     0.0179283
      57.0000     0.0176481
      57.1000     0.0173763
      57.2000     0.0171082
      57.3000     0.0168435
      57.4000     0.0165823
      57.5000     0.0163246
      57.6000     0.0160704
      57.7000     0.0158195
      57.8000     0.0155726
      57.9000     0.0153296
      58.0000     0.0150899
      58.1000     0.0148528
      58.2000     0.0146192
      58.3000     0.0143888
      58.4000     0.0141615
      58.5000     0.0139375
      58.6000     0.0137171
      58.7000     0.0134996
      58.8000     0.0132850
      58.9000     0.0130734
      59.0000     0.0128647
      59.1000     0.0126589
      59.2000     0.0124562
      59.3000     0.0122565
      59.4000     0.0120596
      59.5000     0.0118656
      59.6000     0.0116743
      59.7000     0.0114857
      59.8000     0.0112996
      59.9000     0.0111162
      60.0000     0.0109357
      60.1000     0.0107578
      60.2000     0.0105824
      60.3000     0.0104096
      60.4000     0.0102395
      60.5000     0.0100719
      60.6000    0.00990659
      60.7000    0.00974342
      60.8000    0.00958254
      60.9000    0.00942382
      61.0000    0.00926759
      61.1000    0.00911391
      61.2000    0.00896253
      61.3000    0.00881335
      61.4000    0.00866641
      61.5000    0.00852166
      61.6000    0.00837895
      61.7000    0.00823877
      61.8000    0.00810317
      61.9000    0.00797045
      62.0000    0.00783967
      62.1000    0.00771079
      62.2000    0.00758403
      62.3000    0.00745914
      62.4000    0.00733597
      62.5000    0.00721456
      62.6000    0.00709494
      62.7000    0.00697753
      62.8000    0.00686731
      62.9000    0.00675882
      63.0000    0.00665195
      63.1000    0.00654660
      63.2000    0.00644266
      63.3000    0.00634013
      63.4000    0.00623911
      63.5000    0.00613966
      63.6000    0.00604156
      63.7000    0.00594483
      63.8000    0.00584961
      63.9000    0.00575584
      64.0000    0.00566341
      64.1000    0.00557234
      64.2000    0.00548272
      64.3000    0.00539447
      64.4000    0.00530743
      64.5000    0.00522153
      64.6000    0.00513684
      64.7000    0.00505336
      64.8000    0.00497108
      64.9000    0.00489000
      65.0000    0.00481020
      65.1000    0.00473177
      65.2000    0.00465454
      65.3000    0.00457837
      65.4000    0.00450328
      65.5000    0.00442923
      65.6000    0.00435621
      65.7000    0.00428431
      65.8000    0.00421355
      65.9000    0.00414395
      66.0000    0.00407548
      66.1000    0.00400810
      66.2000    0.00394171
      66.3000    0.00387629
      66.4000    0.00381183
      66.5000    0.00374829
      66.6000    0.00368565
      66.7000    0.00362399
      66.8000    0.00356337
      66.9000    0.00350406
      67.0000    0.00344597
      67.1000    0.00338878
      67.2000    0.00333246
      67.3000    0.00327704
      67.4000    0.00322243
      67.5000    0.00316861
      67.6000    0.00311560
      67.7000    0.00306343
      67.8000    0.00301198
      67.9000    0.00296112
      68.0000    0.00291099
      68.1000    0.00286168
      68.2000    0.00281313
      68.3000    0.00276534
      68.4000    0.00271830
      68.5000    0.00267200
      68.6000    0.00262646
      68.7000    0.00258164
      68.8000    0.00253751
      68.9000    0.00249470
      69.0000    0.00245604
      69.1000    0.00242118
      69.2000    0.00238735
      69.3000    0.00235441
      69.4000    0.00232278
      69.5000    0.00229053
      69.6000    0.00225729
      69.7000    0.00222543
      69.8000    0.00219511
      69.9000    0.00216521
      70.0000    0.00213563
      70.1000    0.00210582
      70.2000    0.00207750
      70.3000    0.00205065
      70.4000    0.00202389
      70.5000    0.00199783
      70.6000    0.00197241
      70.7000    0.00194733
      70.8000    0.00192252
      70.9000    0.00189710
      71.0000    0.00187118
      71.1000    0.00184647
      71.2000    0.00182294
      71.3000    0.00179798
      71.4000    0.00177125
      71.5000    0.00174665
      71.6000    0.00172515
      71.7000    0.00170349
      71.8000    0.00168110
      71.9000    0.00165949
      72.0000    0.00163952
      72.1000    0.00161911
      72.2000    0.00159565
      72.3000    0.00157260
      72.4000    0.00155241
      72.5000    0.00153252
      72.6000    0.00151290
      72.7000    0.00149353
      72.8000    0.00147440
      72.9000    0.00145552
      73.0000    0.00143733
      73.1000    0.00141958
      73.2000    0.00140206
      73.3000    0.00138475
      73.4000    0.00136782
      73.5000    0.00135139
      73.6000    0.00133517
      73.7000    0.00131915
      73.8000    0.00130333
      73.9000    0.00128768
      74.0000    0.00127231
      74.1000    0.00125836
      74.2000    0.00124494
      74.3000    0.00123040
      74.4000    0.00121508
      74.5000    0.00120020
      74.6000    0.00118606
      74.7000    0.00117210
      74.8000    0.00115838
      74.9000    0.00114494
      75.0000    0.00113157
      75.1000    0.00111829
      75.2000    0.00110514
      75.3000    0.00109214
      75.4000    0.00107940
      75.5000    0.00106709
      75.6000    0.00105493
      75.7000    0.00104290
      75.8000    0.00103104
      75.9000    0.00101946
      76.0000    0.00100816
      76.1000   0.000997722
      76.2000   0.000987500
      76.3000   0.000977397
      76.4000   0.000967587
      76.5000   0.000957891
      76.6000   0.000948278
      76.7000   0.000938753
      76.8000   0.000929318
      76.9000   0.000919980
      77.0000   0.000910744
      77.1000   0.000901614
      77.2000   0.000892581
      77.3000   0.000883636
      77.4000   0.000874772
      77.5000   0.000865965
      77.6000   0.000857043
      77.7000   0.000848206
      77.8000   0.000839448
      77.9000   0.000830764
      78.0000   0.000822040
      78.1000   0.000813048
      78.2000   0.000804171
      78.3000   0.000796173
      78.4000   0.000788539
      78.5000   0.000780895
      78.6000   0.000773078
      78.7000   0.000765335
      78.8000   0.000757362
      78.9000   0.000749388
      79.0000   0.000741494
      79.1000   0.000733674
      79.2000   0.000725950
      79.3000   0.000718549
      79.4000   0.000711312
      79.5000   0.000704074
      79.6000   0.000696652
      79.7000   0.000689296
      79.8000   0.000681881
      79.9000   0.000674473
      80.0000   0.000667106
      80.1000   0.000659520
      80.2000   0.000651995
      80.3000   0.000644228
      80.4000   0.000636244
      80.5000   0.000628334
      80.6000   0.000620520
      80.7000   0.000612797
      80.8000   0.000605211
      80.9000   0.000597826
      81.0000   0.000590520
      81.1000   0.000583304
      81.2000   0.000576172
      81.3000   0.000569136
      81.4000   0.000562752
      81.5000   0.000556473
      81.6000   0.000550425
      81.7000   0.000544784
      81.8000   0.000539218
      81.9000   0.000533936
      82.0000   0.000528829
      82.1000   0.000523789
      82.2000   0.000518613
      82.3000   0.000513490
      82.4000   0.000508540
      82.5000   0.000503827
      82.6000   0.000499145
      82.7000   0.000494350
      82.8000   0.000489420
      82.9000   0.000484525
      83.0000   0.000479731
      83.1000   0.000475006
      83.2000   0.000470326
      83.3000   0.000465694
      83.4000   0.000461114
      83.5000   0.000456601
      83.6000   0.000452254
      83.7000   0.000447947
      83.8000   0.000443646
      83.9000   0.000439304
      84.0000   0.000434998
      84.1000   0.000430801
      84.2000   0.000426750
      84.3000   0.000422733
      84.4000   0.000418698
      84.5000   0.000414658
      84.6000   0.000410656
      84.7000   0.000406771
      84.8000   0.000402970
      84.9000   0.000399208
      85.0000   0.000395371
      85.1000   0.000391537
      85.2000   0.000387743
      85.3000   0.000384159
      85.4000   0.000380635
      85.5000   0.000377146
      85.6000   0.000373601
      85.7000   0.000370083
      85.8000   0.000366593
      85.9000   0.000363132
      86.0000   0.000359699
      86.1000   0.000356297
      86.2000   0.000353038
      86.3000   0.000349811
      86.4000   0.000346612
      86.5000   0.000343440
      86.6000   0.000340294
      86.7000   0.000337174
      86.8000   0.000333821
      86.9000   0.000330489
      87.0000   0.000327194
      87.1000   0.000323988
      87.2000   0.000320821
      87.3000   0.000317686
      87.4000   0.000314489
      87.5000   0.000311303
      87.6000   0.000308143
      87.7000   0.000305066
      87.8000   0.000302029
      87.9000   0.000299016
      88.0000   0.000296031
      88.1000   0.000293071
      88.2000   0.000290141
      88.3000   0.000287309
      88.4000   0.000284568
      88.5000   0.000281860
      88.6000   0.000279156
      88.7000   0.000276441
      88.8000   0.000273755
      88.9000   0.000271091
      89.0000   0.000268439
      89.1000   0.000265813
      89.2000   0.000263225
      89.3000   0.000260699
      89.4000   0.000258246
      89.5000   0.000255815
      89.6000   0.000253406
      89.7000   0.000251015
      89.8000   0.000248642
      89.9000   0.000246286
      90.0000   0.000243950
      90.1000   0.000241636
      90.2000   0.000239284
      90.3000   0.000236822
      90.4000   0.000234382
      90.5000   0.000231969
      90.6000   0.000229629
      90.7000   0.000227301
      90.8000   0.000224971
      90.9000   0.000222610
      91.0000   0.000220257
      91.1000   0.000217927
      91.2000   0.000215586
      91.3000   0.000213212
      91.4000   0.000210855
      91.5000   0.000208522
      91.6000   0.000206213
      91.7000   0.000204144
      91.8000   0.000202430
      91.9000   0.000201130
      92.0000   0.000199592
      92.1000   0.000198013
      92.2000   0.000196312
      92.3000   0.000194505
      92.4000   0.000192645
      92.5000   0.000190804
      92.6000   0.000188980
      92.7000   0.000187174
      92.8000   0.000185385
      92.9000   0.000183636
      93.0000   0.000181961
      93.1000   0.000180298
      93.2000   0.000178650
      93.3000   0.000177088
      93.4000   0.000175563
      93.5000   0.000174050
      93.6000   0.000172544
      93.7000   0.000171039
      93.8000   0.000169530
      93.9000   0.000168032
      94.0000   0.000166545
      94.1000   0.000165069
      94.2000   0.000163607
      94.3000   0.000162171
      94.4000   0.000160796
      94.5000   0.000159436
      94.6000   0.000158089
      94.7000   0.000156755
      94.8000   0.000155431
      94.9000   0.000154117
      95.0000   0.000152813
      95.1000   0.000151522
      95.2000   0.000150237
      95.3000   0.000148960
      95.4000   0.000147697
      95.5000   0.000146469
      95.6000   0.000145250
      95.7000   0.000144039
      95.8000   0.000142820
      95.9000   0.000141601
      96.0000   0.000140391
      96.1000   0.000139187
      96.2000   0.000137991
      96.3000   0.000136808
      96.4000   0.000135633
      96.5000   0.000134469
      96.6000   0.000133319
      96.7000   0.000132181
      96.8000   0.000131048
      96.9000   0.000129923
      97.0000   0.000128806
      97.1000   0.000127704
      97.2000   0.000126609
      97.3000   0.000125505
      97.4000   0.000124395
      97.5000   0.000123297
      97.6000   0.000122209
      97.7000   0.000121139
      97.8000   0.000120082
      97.9000   0.000119035
      98.0000   0.000117995
      98.1000   0.000116961
      98.2000   0.000115935
      98.3000   0.000115006
      98.4000   0.000114125
      98.5000   0.000113279
      98.6000   0.000112440
      98.7000   0.000111606
      98.8000   0.000110777
      98.9000   0.000109953
      99.0000   0.000109138
      99.1000   0.000108330
      99.2000   0.000107520
      99.3000   0.000106685
      99.4000   0.000105856
      99.5000   0.000105034
      99.6000   0.000104226
      99.7000   0.000103472
      99.8000   0.000102745
      99.9000   0.000102218
      100.000   0.000101995
      100.100   0.000101736
      100.200   0.000101477
      100.300   0.000101217
      100.400   0.000100958
      100.500   0.000100712
      100.600   0.000100464
      100.700   0.000100216
      100.800   9.99668e-05
      100.900   9.97176e-05
      101.000   9.94686e-05
      101.100   9.92205e-05
      101.200   9.89734e-05
      101.300   9.87274e-05
      101.400   9.84825e-05
      101.500   9.82046e-05
      101.600   9.78844e-05
      101.700   9.75745e-05
      101.800   9.72683e-05
      101.900   9.69620e-05
      102.000   9.66578e-05
      102.100   9.63689e-05
      102.200   9.60873e-05
      102.300   9.58057e-05
      102.400   9.55243e-05
      102.500   9.52426e-05
      102.600   9.49601e-05
      102.700   9.46771e-05
      102.800   9.43935e-05
      102.900   9.41096e-05
      103.000   9.38256e-05
      103.100   9.35419e-05
      103.200   9.32589e-05
      103.300   9.29766e-05
      103.400   9.26949e-05
      103.500   9.24137e-05
      103.600   9.21330e-05
      103.700   9.18509e-05
      103.800   9.15472e-05
      103.900   9.12179e-05
      104.000   9.08877e-05
      104.100   9.05587e-05
      104.200   9.02410e-05
      104.300   8.99901e-05
      104.400   8.97419e-05
      104.500   8.94943e-05
      104.600   8.92460e-05
      104.700   8.89768e-05
      104.800   8.86988e-05
      104.900   8.84206e-05
      105.000   8.81429e-05
      105.100   8.78802e-05
      105.200   8.76548e-05
      105.300   8.74303e-05
      105.400   8.72058e-05
      105.500   8.69814e-05
      105.600   8.67658e-05
      105.700   8.65521e-05
      105.800   8.63378e-05
      105.900   8.61237e-05
      106.000   8.59221e-05
      106.100   8.57468e-05
      106.200   8.55731e-05
      106.300   8.53986e-05
      106.400   8.52237e-05
      106.500   8.50484e-05
      106.600   8.48729e-05
      106.700   8.46974e-05
      106.800   8.45216e-05
      106.900   8.43461e-05
      107.000   8.41705e-05
      107.100   8.39949e-05
      107.200   8.38195e-05
      107.300   8.36444e-05
      107.400   8.34679e-05
      107.500   8.32907e-05
      107.600   8.31141e-05
      107.700   8.29381e-05
      107.800   8.27631e-05
      107.900   8.25828e-05
      108.000   8.24026e-05
      108.100   8.22218e-05
      108.200   8.20401e-05
      108.300   8.18565e-05
      108.400   8.16654e-05
      108.500   8.14732e-05
      108.600   8.12802e-05
      108.700   8.10859e-05
      108.800   8.08708e-05
      108.900   8.06263e-05
      109.000   8.03812e-05
      109.100   8.01360e-05
      109.200   7.98908e-05
      109.300   7.96460e-05
      109.400   7.94015e-05
      109.500   7.91576e-05
      109.600   7.89144e-05
      109.700   7.86719e-05
      109.800   7.84306e-05
      109.900   7.81906e-05
      110.000   7.79517e-05
      110.100   7.77139e-05
      110.200   7.74766e-05
      110.300   7.72525e-05
      110.400   7.70297e-05
      110.500   7.68069e-05
      110.600   7.65838e-05
      110.700   7.63602e-05
      110.800   7.61360e-05
      110.900   7.59112e-05
      111.000   7.56857e-05
      111.100   7.54597e-05
      111.200   7.52346e-05
      111.300   7.50351e-05
      111.400   7.48356e-05
      111.500   7.46354e-05
      111.600   7.44350e-05
      111.700   7.42353e-05
      111.800   7.40520e-05
      111.900   7.38692e-05
      112.000   7.36865e-05
      112.100   7.35040e-05
      112.200   7.33218e-05
      112.300   7.31236e-05
      112.400   7.29254e-05
      112.500   7.27282e-05
      112.600   7.25317e-05
      112.700   7.23387e-05
      112.800   7.21622e-05
      112.900   7.19463e-05
      113.000   7.17441e-05
      113.100   7.15478e-05
      113.200   7.13435e-05
      113.300   7.11477e-05
      113.400   7.08610e-05
      113.500   7.05518e-05
      113.600   7.03212e-05
      113.700   7.00665e-05
      113.800   6.97584e-05
      113.900   6.95279e-05
      114.000   6.92969e-05
      114.100   6.90104e-05
      114.200   6.87518e-05
      114.300   6.85378e-05
      114.400   6.83121e-05
      114.500   6.80742e-05
      114.600   6.78947e-05
      114.700   6.76715e-05
      114.800   6.74781e-05
      114.900   6.73533e-05
      115.000   6.71791e-05
      115.100   6.69757e-05
      115.200   6.67694e-05
      115.300   6.66253e-05
      115.400   6.64216e-05
      115.500   6.62471e-05
      115.600   6.60475e-05
      115.700   6.58101e-05
      115.800   6.56229e-05
      115.900   6.54090e-05
      116.000   6.52386e-05
      116.100   6.51354e-05
      116.200   6.50264e-05
      116.300   6.49047e-05
      116.400   6.47609e-05
      116.500   6.46650e-05
      116.600   6.45535e-05
      116.700   6.44537e-05
      116.800   6.43391e-05
      116.900   6.41648e-05
      117.000   6.40572e-05
      117.100   6.41424e-05
      117.200   6.43640e-05
      117.300   6.44521e-05
      117.400   6.45315e-05
      117.500   6.46130e-05
      117.600   6.46157e-05
      117.700   6.45874e-05
      117.800   6.45176e-05
      117.900   6.44265e-05
      118.000   6.42954e-05
      118.100   6.41259e-05
      118.200   6.39866e-05
      118.300   6.38601e-05
      118.400   6.35821e-05
      118.500   6.33162e-05
      118.600   6.31199e-05
      118.700   6.28987e-05
      118.800   6.26436e-05
      118.900   6.24117e-05
      119.000   6.20972e-05
      119.100   6.16896e-05
      119.200   6.13647e-05
      119.300   6.11088e-05
      119.400   6.08911e-05
      119.500   6.06907e-05
      119.600   6.04354e-05
      119.700   6.01161e-05
      119.800   5.96698e-05
      119.900   5.90551e-05
      120.000   5.84953e-05
      120.100   5.79794e-05
      120.200   5.76731e-05
      120.300   5.74876e-05
      120.400   5.73005e-05
      120.500   5.69428e-05
      120.600   5.64554e-05
      120.700   5.59266e-05
      120.800   5.54257e-05
      120.900   5.51491e-05
      121.000   5.52226e-05
      121.100   5.52335e-05
      121.200   5.50681e-05
      121.300   5.47770e-05
      121.400   5.43899e-05
      121.500   5.39304e-05
      121.600   5.31898e-05
      121.700   5.25621e-05
      121.800   5.18353e-05
      121.900   5.10964e-05
      122.000   5.02906e-05
      122.100   4.95369e-05
      122.200   4.87933e-05
      122.300   4.82905e-05
      122.400   4.80486e-05
      122.500   4.78621e-05
      122.600   4.76422e-05
      122.700   4.74199e-05
      122.800   4.71380e-05
      122.900   4.68906e-05
      123.000   4.69500e-05
      123.100   4.75439e-05
      123.200   4.81759e-05
      123.300   4.90863e-05
      123.400   5.02293e-05
      123.500   5.17051e-05
      123.600   5.29988e-05
      123.700   5.37410e-05
      123.800   5.43274e-05
      123.900   5.50761e-05
      124.000   5.60875e-05
      124.100   5.79512e-05
      124.200   6.16344e-05
      124.300   6.71033e-05
      124.400   7.24105e-05
      124.500   7.40904e-05
      124.600   7.40820e-05
      124.700   7.38783e-05
      124.800   7.36943e-05
      124.900   7.35088e-05
      125.000   7.33206e-05
      125.100   7.31115e-05
      125.200   7.29000e-05
      125.300   7.26883e-05
      125.400   7.24767e-05
      125.500   7.22651e-05
      125.600   7.20535e-05
      125.700   7.18422e-05
      125.800   7.16310e-05
      125.900   7.14203e-05
      126.000   7.12102e-05
      126.100   7.10006e-05
      126.200   7.07917e-05
      126.300   7.05833e-05
      126.400   7.03755e-05
      126.500   7.01681e-05
      126.600   6.99614e-05
      126.700   6.97551e-05
      126.800   6.95492e-05
      126.900   6.93435e-05
      127.000   6.91361e-05
      127.100   6.89213e-05
      127.200   6.87030e-05
      127.300   6.84840e-05
      127.400   6.82648e-05
      127.500   6.80455e-05
      127.600   6.78263e-05
      127.700   6.76069e-05
      127.800   6.73874e-05
      127.900   6.71677e-05
      128.000   6.69482e-05
      128.100   6.67284e-05
      128.200   6.65087e-05
      128.300   6.62890e-05
      128.400   6.60694e-05
      128.500   6.58497e-05
      128.600   6.56299e-05
      128.700   6.54106e-05
      128.800   6.51913e-05
      128.900   6.49721e-05
      129.000   6.47535e-05
      129.100   6.45340e-05
      129.200   6.43109e-05
      129.300   6.40882e-05
      129.400   6.38663e-05
      129.500   6.36451e-05
      129.600   6.34247e-05
      129.700   6.32050e-05
      129.800   6.29860e-05
      129.900   6.27678e-05
      130.000   6.25503e-05
      130.100   6.23335e-05
      130.200   6.21171e-05
      130.300   6.19014e-05
      130.400   6.16863e-05
      130.500   6.14714e-05
      130.600   6.12568e-05
      130.700   6.10427e-05
      130.800   6.08290e-05
      130.900   6.06156e-05
      131.000   6.04023e-05
      131.100   6.01894e-05
      131.200   5.99763e-05
      131.300   5.97624e-05
      131.400   5.95487e-05
      131.500   5.93353e-05
      131.600   5.91222e-05
      131.700   5.89094e-05
      131.800   5.86967e-05
      131.900   5.84844e-05
      132.000   5.82723e-05
      132.100   5.80604e-05
      132.200   5.78489e-05
      132.300   5.76376e-05
      132.400   5.74268e-05
      132.500   5.72163e-05
      132.600   5.70063e-05
      132.700   5.67968e-05
      132.800   5.65877e-05
      132.900   5.63793e-05
      133.000   5.61713e-05
      133.100   5.59640e-05
      133.200   5.57571e-05
      133.300   5.55504e-05
      133.400   5.53439e-05
      133.500   5.51376e-05
      133.600   5.49317e-05
      133.700   5.47264e-05
      133.800   5.45215e-05
      133.900   5.43172e-05
      134.000   5.41132e-05
      134.100   5.39098e-05
      134.200   5.37068e-05
      134.300   5.35043e-05
      134.400   5.33023e-05
      134.500   5.31009e-05
      134.600   5.29000e-05
      134.700   5.26996e-05
      134.800   5.24998e-05
      134.900   5.23005e-05
      135.000   5.21018e-05
      135.100   5.19035e-05
      135.200   5.17059e-05
      135.300   5.15088e-05
      135.400   5.13122e-05
      135.500   5.11155e-05
      135.600   5.09187e-05
      135.700   5.07224e-05
      135.800   5.05264e-05
      135.900   5.03310e-05
      136.000   5.01361e-05
      136.100   4.99417e-05
      136.200   4.97479e-05
      136.300   4.95545e-05
      136.400   4.93616e-05
      136.500   4.91692e-05
      136.600   4.89772e-05
      136.700   4.87857e-05
      136.800   4.85947e-05
      136.900   4.84041e-05
      137.000   4.82139e-05
      137.100   4.80240e-05
      137.200   4.78345e-05
      137.300   4.76453e-05
      137.400   4.74565e-05
      137.500   4.72680e-05
      137.600   4.70885e-05
      137.700   4.69307e-05
      137.800   4.67894e-05
      137.900   4.66481e-05
      138.000   4.65069e-05
      138.100   4.63659e-05
      138.200   4.62253e-05
      138.300   4.60846e-05
      138.400   4.59443e-05
      138.500   4.58043e-05
      138.600   4.56645e-05
      138.700   4.55250e-05
      138.800   4.53858e-05
      138.900   4.52469e-05
      139.000   4.51084e-05
      139.100   4.49702e-05
      139.200   4.48324e-05
      139.300   4.46949e-05
      139.400   4.45577e-05
      139.500   4.44209e-05
      139.600   4.42844e-05
      139.700   4.41483e-05
      139.800   4.40125e-05
      139.900   4.38769e-05
      140.000   4.37412e-05
      140.100   4.36058e-05
      140.200   4.34707e-05
      140.300   4.33358e-05
      140.400   4.32012e-05
      140.500   4.30668e-05
      140.600   4.29325e-05
      140.700   4.27984e-05
      140.800   4.26644e-05
      140.900   4.25304e-05
      141.000   4.23963e-05
      141.100   4.22623e-05
      141.200   4.21284e-05
      141.300   4.19944e-05
      141.400   4.18604e-05
      141.500   4.17265e-05
      141.600   4.15926e-05
      141.700   4.14585e-05
      141.800   4.13247e-05
      141.900   4.11909e-05
      142.000   4.10573e-05
      142.100   4.09401e-05
      142.200   4.08701e-05
      142.300   4.08406e-05
      142.400   4.08107e-05
      142.500   4.07802e-05
      142.600   4.07495e-05
      142.700   4.07184e-05
      142.800   4.06870e-05
      142.900   4.06553e-05
      143.000   4.06234e-05
      143.100   4.05910e-05
      143.200   4.05585e-05
      143.300   4.05255e-05
      143.400   4.04925e-05
      143.500   4.04594e-05
      143.600   4.04260e-05
      143.700   4.03924e-05
      143.800   4.03587e-05
      143.900   4.03248e-05
      144.000   4.02907e-05
      144.100   4.02563e-05
      144.200   4.02218e-05
      144.300   4.01871e-05
      144.400   4.01567e-05
      144.500   4.01860e-05
      144.600   4.02341e-05
      144.700   4.02838e-05
      144.800   4.03327e-05
      144.900   4.03810e-05
      145.000   4.04287e-05
      145.100   4.04757e-05
      145.200   4.05218e-05
      145.300   4.05670e-05
      145.400   4.06116e-05
      145.500   4.06553e-05
      145.600   4.06982e-05
      145.700   4.07401e-05
      145.800   4.07813e-05
      145.900   4.08217e-05
      146.000   4.08612e-05
      146.100   4.08998e-05
      146.200   4.09378e-05
      146.300   4.09749e-05
      146.400   4.10112e-05
      146.500   4.10466e-05
      146.600   4.10812e-05
      146.700   4.11153e-05
      146.800   4.11460e-05
      146.900   4.11724e-05
      147.000   4.11982e-05
      147.100   4.12231e-05
      147.200   4.12475e-05
      147.300   4.12713e-05
      147.400   4.12946e-05
      147.500   4.13173e-05
      147.600   4.13396e-05
      147.700   4.13613e-05
      147.800   4.13825e-05
      147.900   4.14032e-05
      148.000   4.14234e-05
      148.100   4.14433e-05
      148.200   4.14628e-05
      148.300   4.14819e-05
      148.400   4.15005e-05
      148.500   4.15186e-05
      148.600   4.15364e-05
      148.700   4.15535e-05
      148.800   4.15701e-05
      148.900   4.15863e-05
      149.000   4.16019e-05
      149.100   4.16169e-05
      149.200   4.16311e-05
      149.300   4.16445e-05
      149.400   4.16572e-05
      149.500   4.16693e-05
      149.600   4.16806e-05
      149.700   4.16911e-05
      149.800   4.17010e-05
      149.900   4.17102e-05
      150.000   4.17188e-05
      150.100   4.17267e-05
      150.200   4.17335e-05
      150.300   4.17397e-05
      150.400   4.17452e-05
      150.500   4.17500e-05
      150.600   4.17540e-05
      150.700   4.17573e-05
      150.800   4.17598e-05
      150.900   4.17615e-05
      151.000   4.17624e-05
      151.100   4.17628e-05
      151.200   4.17624e-05
      151.300   4.17612e-05
      151.400   4.17595e-05
      151.500   4.17569e-05
      151.600   4.17543e-05
      151.700   4.17516e-05
      151.800   4.17485e-05
      151.900   4.17446e-05
      152.000   4.17401e-05
      152.100   4.17351e-05
      152.200   4.17296e-05
      152.300   4.17235e-05
      152.400   4.17168e-05
      152.500   4.17097e-05
      152.600   4.17021e-05
      152.700   4.16939e-05
      152.800   4.16852e-05
      152.900   4.16760e-05
      153.000   4.16663e-05
      153.100   4.16561e-05
      153.200   4.16454e-05
      153.300   4.16342e-05
      153.400   4.16225e-05
      153.500   4.16101e-05
      153.600   4.15972e-05
      153.700   4.15839e-05
      153.800   4.15699e-05
      153.900   4.15553e-05
      154.000   4.15247e-05
      154.100   4.14755e-05
      154.200   4.14233e-05
      154.300   4.13706e-05
      154.400   4.13175e-05
      154.500   4.12636e-05
      154.600   4.12092e-05
      154.700   4.11543e-05
      154.800   4.10988e-05
      154.900   4.10427e-05
      155.000   4.09860e-05
      155.100   4.09289e-05
      155.200   4.08710e-05
      155.300   4.08127e-05
      155.400   4.07538e-05
      155.500   4.06944e-05
      155.600   4.06343e-05
      155.700   4.05736e-05
      155.800   4.05126e-05
      155.900   4.04508e-05
      156.000   4.03886e-05
      156.100   4.03258e-05
      156.200   4.02624e-05
      156.300   4.01986e-05
      156.400   4.01342e-05
      156.500   4.00640e-05
      156.600   3.99797e-05
      156.700   3.98942e-05
      156.800   3.98082e-05
      156.900   3.97218e-05
      157.000   3.96352e-05
      157.100   3.95480e-05
      157.200   3.94604e-05
      157.300   3.93725e-05
      157.400   3.92843e-05
      157.500   3.91955e-05
      157.600   3.91064e-05
      157.700   3.90170e-05
      157.800   3.89272e-05
      157.900   3.88368e-05
      158.000   3.87461e-05
      158.100   3.86551e-05
      158.200   3.85636e-05
      158.300   3.84717e-05
      158.400   3.83795e-05
      158.500   3.82869e-05
      158.600   3.81939e-05
      158.700   3.81004e-05
      158.800   3.80068e-05
      158.900   3.79127e-05
      159.000   3.78182e-05
      159.100   3.77231e-05
      159.200   3.76278e-05
      159.300   3.75320e-05
      159.400   3.74360e-05
      159.500   3.73396e-05
      159.600   3.72431e-05
      159.700   3.71462e-05
      159.800   3.70490e-05
      159.900   3.69517e-05
      160.000   3.68540e-05
      160.100   3.67561e-05
      160.200   3.66579e-05
      160.300   3.65595e-05
      160.400   3.64610e-05
      160.500   3.63622e-05
      160.600   3.62632e-05
      160.700   3.61641e-05
      160.800   3.60648e-05
      160.900   3.59653e-05
      161.000   3.58655e-05
      161.100   3.57658e-05
      161.200   3.56658e-05
      161.300   3.55656e-05
      161.400   3.54654e-05
      161.500   3.53650e-05
      161.600   3.52643e-05
      161.700   3.51631e-05
      161.800   3.50618e-05
      161.900   3.49603e-05
      162.000   3.48586e-05
      162.100   3.47567e-05
      162.200   3.46547e-05
      162.300   3.45525e-05
      162.400   3.44500e-05
      162.500   3.43474e-05
      162.600   3.42445e-05
      162.700   3.41415e-05
      162.800   3.40381e-05
      162.900   3.39346e-05
      163.000   3.38308e-05
      163.100   3.37268e-05
      163.200   3.36225e-05
      163.300   3.35180e-05
      163.400   3.34132e-05
      163.500   3.33083e-05
      163.600   3.32031e-05
      163.700   3.30976e-05
      163.800   3.29921e-05
      163.900   3.28863e-05
      164.000   3.27803e-05
      164.100   3.26742e-05
      164.200   3.25680e-05
      164.300   3.24635e-05
      164.400   3.23589e-05
      164.500   3.22543e-05
      164.600   3.21496e-05
      164.700   3.20448e-05
      164.800   3.19399e-05
      164.900   3.18349e-05
      165.000   3.17300e-05
      165.100   3.16250e-05
      165.200   3.15200e-05
      165.300   3.14151e-05
      165.400   3.13102e-05
      165.500   3.12053e-05
      165.600   3.11005e-05
      165.700   3.09958e-05
      165.800   3.08911e-05
      165.900   3.07865e-05
      166.000   3.06820e-05
      166.100   3.05776e-05
      166.200   3.04733e-05
      166.300   3.03692e-05
      166.400   3.02651e-05
      166.500   3.01612e-05
      166.600   3.00574e-05
      166.700   2.99537e-05
      166.800   2.98476e-05
      166.900   2.97297e-05
      167.000   2.96012e-05
      167.100   2.94725e-05
      167.200   2.93441e-05
      167.300   2.92159e-05
      167.400   2.90879e-05
      167.500   2.89602e-05
      167.600   2.88327e-05
      167.700   2.87054e-05
      167.800   2.85783e-05
      167.900   2.84513e-05
      168.000   2.83246e-05
      168.100   2.81979e-05
      168.200   2.80715e-05
      168.300   2.79451e-05
      168.400   2.78190e-05
      168.500   2.76930e-05
      168.600   2.75671e-05
      168.700   2.74413e-05
      168.800   2.73157e-05
      168.900   2.71903e-05
      169.000   2.70649e-05
      169.100   2.69397e-05
      169.200   2.68148e-05
      169.300   2.66898e-05
      169.400   2.65651e-05
      169.500   2.64332e-05
      169.600   2.62697e-05
      169.700   2.60745e-05
      169.800   2.58781e-05
      169.900   2.56823e-05
      170.000   2.54874e-05
      170.100   2.52933e-05
      170.200   2.51001e-05
      170.300   3.30454e-05
      170.400   7.16877e-05
      170.500   0.000136992
      170.600   0.000203373
      170.700   0.000257605
      170.800   0.000284209
      170.900   0.000287240
      171.000   0.000284400
      171.100   0.000281568
      171.200   0.000278745
      171.300   0.000275930
      171.400   0.000273127
      171.500   0.000270334
      171.600   0.000267553
      171.700   0.000264787
      171.800   0.000262037
      171.900   0.000259306
      172.000   0.000256598
      172.100   0.000253913
      172.200   0.000251255
      172.300   0.000248614
      172.400   0.000245953
      172.500   0.000243309
      172.600   0.000240695
      172.700   0.000238112
      172.800   0.000235557
      172.900   0.000233031
      173.000   0.000230536
      173.100   0.000228070
      173.200   0.000225632
      173.300   0.000223223
      173.400   0.000220842
      173.500   0.000218489
      173.600   0.000216163
      173.700   0.000213864
      173.800   0.000211590
      173.900   0.000209344
      174.000   0.000207121
      174.100   0.000204923
      174.200   0.000202749
      174.300   0.000200598
      174.400   0.000198470
      174.500   0.000196364
      174.600   0.000194278
      174.700   0.000192215
      174.800   0.000190172
      174.900   0.000188148
      175.000   0.000186143
      175.100   0.000184157
      175.200   0.000182197
      175.300   0.000180255
      175.400   0.000178330
      175.500   0.000176424
      175.600   0.000174536
      175.700   0.000172666
      175.800   0.000170813
      175.900   0.000168978
      176.000   0.000167161
      176.100   0.000165362
      176.200   0.000163580
      176.300   0.000161815
      176.400   0.000160068
      176.500   0.000158337
      176.600   0.000156623
      176.700   0.000154926
      176.800   0.000153246
      176.900   0.000151582
      177.000   0.000149935
      177.100   0.000148303
      177.200   0.000146688
      177.300   0.000145089
      177.400   0.000143505
      177.500   0.000141936
      177.600   0.000140383
      177.700   0.000138845
      177.800   0.000137321
      177.900   0.000135811
      178.000   0.000134325
      178.100   0.000132853
      178.200   0.000131395
      178.300   0.000129951
      178.400   0.000128522
      178.500   0.000127105
      178.600   0.000125702
      178.700   0.000124312
      178.800   0.000122936
      178.900   0.000121574
      179.000   0.000120224
      179.100   0.000118887
      179.200   0.000117563
      179.300   0.000116253
      179.400   0.000114956
      179.500   0.000113672
      179.600   0.000112401
      179.700   0.000111144
      179.800   0.000109899
      179.900   0.000108668
      180.000   0.000107449
      180.100   0.000106244
      180.200   0.000105053
      180.300   0.000103874
      180.400   0.000102708
      180.500   0.000101555
      180.600   0.000100415
      180.700   9.92886e-05
      180.800   9.81487e-05
      180.900   9.69921e-05
      181.000   9.58413e-05
      181.100   9.47046e-05
      181.200   9.35811e-05
      181.300   9.24709e-05
      181.400   9.13745e-05
      181.500   9.02908e-05
      181.600   8.92201e-05
      181.700   8.81618e-05
      181.800   8.71162e-05
      181.900   8.60829e-05
      182.000   8.50621e-05
      182.100   8.40530e-05
      182.200   8.30561e-05
      182.300   8.20707e-05
      182.400   8.10969e-05
      182.500   8.01342e-05
      182.600   7.91823e-05
      182.700   7.82414e-05
      182.800   7.73114e-05
      182.900   7.63916e-05
      183.000   7.54825e-05
      183.100   7.45839e-05
      183.200   7.36953e-05
      183.300   7.28165e-05
      183.400   7.19476e-05
      183.500   7.10887e-05
      183.600   7.02395e-05
      183.700   6.93514e-05
      183.800   6.82847e-05
      183.900   6.71981e-05
      184.000   6.61278e-05
      184.100   6.50732e-05
      184.200   6.40346e-05
      184.300   6.30108e-05
      184.400   6.20024e-05
      184.500   6.10090e-05
      184.600   6.00300e-05
      184.700   5.90654e-05
      184.800   5.81151e-05
      184.900   5.71789e-05
      185.000   5.62564e-05
      185.100   5.53474e-05
      185.200   5.44516e-05
      185.300   5.35696e-05
      185.400   5.27004e-05
      185.500   5.18441e-05
      185.600   5.10003e-05
      185.700   5.01686e-05
      185.800   4.93500e-05
      185.900   4.85440e-05
      186.000   4.77493e-05
      186.100   4.69663e-05
      186.200   4.61950e-05
      186.300   4.54349e-05
      186.400   4.46859e-05
      186.500   4.39477e-05
      186.600   4.32204e-05
      186.700   4.25036e-05
      186.800   4.17971e-05
      186.900   4.11009e-05
      187.000   4.04147e-05
      187.100   3.97387e-05
      187.200   3.90726e-05
      187.300   3.84168e-05
      187.400   3.77707e-05
      187.500   3.71343e-05
      187.600   3.65073e-05
      187.700   3.58897e-05
      187.800   3.52811e-05
      187.900   3.46816e-05
      188.000   3.40914e-05
      188.100   3.35100e-05
      188.200   3.29373e-05
      188.300   3.23732e-05
      188.400   3.18177e-05
      188.500   3.12709e-05
      188.600   3.07330e-05
      188.700   3.02036e-05
      188.800   2.96827e-05
      188.900   2.91701e-05
      189.000   2.86655e-05
      189.100   2.81687e-05
      189.200   2.76799e-05
      189.300   2.71991e-05
      189.400   2.67261e-05
      189.500   2.62605e-05
      189.600   2.58021e-05
      189.700   2.53486e-05
      189.800   2.48847e-05
      189.900   2.44296e-05
      190.000   2.39820e-05
      190.100   2.35423e-05
      190.200   2.31100e-05
      190.300   2.26852e-05
      190.400   2.22675e-05
      190.500   2.18570e-05
      190.600   2.14538e-05
      190.700   2.10574e-05
      190.800   2.06678e-05
      190.900   2.02850e-05
      191.000   1.99090e-05
      191.100   1.95399e-05
      191.200   1.91771e-05
      191.300   1.88206e-05
      191.400   1.84703e-05
      191.500   1.81259e-05
      191.600   1.77875e-05
      191.700   1.74551e-05
      191.800   1.71281e-05
      191.900   1.68070e-05
      192.000   1.64916e-05
      192.100   1.61820e-05
      192.200   1.58780e-05
      192.300   1.55792e-05
      192.400   1.52855e-05
      192.500   1.49969e-05
      192.600   1.47135e-05
      192.700   1.44297e-05
      192.800   1.41233e-05
      192.900   1.37736e-05
      193.000   1.34319e-05
      193.100   1.30982e-05
      193.200   1.27723e-05
      193.300   1.24537e-05
      193.400   1.21426e-05
      193.500   1.18384e-05
      193.600   1.15409e-05
      193.700   1.12502e-05
      193.800   1.09663e-05
      193.900   1.06889e-05
      194.000   1.04177e-05
      194.100   1.01531e-05
      194.200   9.89506e-06
      194.300   9.64295e-06
      194.400   9.39660e-06
      194.500   9.15592e-06
      194.600   8.92076e-06
      194.700   8.69115e-06
      194.800   8.46694e-06
      194.900   8.24784e-06
      195.000   8.03394e-06
      195.100   7.82551e-06
      195.200   7.62204e-06
      195.300   7.42337e-06
      195.400   7.22932e-06
      195.500   7.03978e-06
      195.600   6.85469e-06
      195.700   6.67401e-06
      195.800   6.49757e-06
      195.900   6.32531e-06
      196.000   6.15636e-06
      196.100   5.99145e-06
      196.200   5.83051e-06
      196.300   5.67343e-06
      196.400   5.52011e-06
      196.500   5.37042e-06
      196.600   5.22442e-06
      196.700   5.08195e-06
      196.800   4.94314e-06
      196.900   4.80791e-06
      197.000   4.67603e-06
      197.100   4.54738e-06
      197.200   4.42190e-06
      197.300   4.29946e-06
      197.400   4.17998e-06
      197.500   4.06351e-06
      197.600   3.94995e-06
      197.700   3.83958e-06
      197.800   3.73203e-06
      197.900   3.62709e-06
      198.000   3.52481e-06
      198.100   3.42514e-06
      198.200   3.32795e-06
      198.300   3.23319e-06
      198.400   3.14091e-06
      198.500   3.05124e-06
      198.600   2.96397e-06
      198.700   2.87892e-06
      198.800   2.79605e-06
      198.900   2.71535e-06
      199.000   2.63846e-06
      199.100   2.56877e-06
      199.200   2.50804e-06
      199.300   2.44876e-06
      199.400   2.39081e-06
      199.500   2.33413e-06
      199.600   2.27866e-06
      199.700   2.22438e-06
      199.800   2.17128e-06
      199.900   2.11936e-06
      200.000   2.06856e-06
      200.100   2.01909e-06
      200.200   1.97064e-06
      200.300   1.92329e-06
      200.400   1.87699e-06
      200.500   1.83172e-06
      200.600   1.78746e-06
      200.700   1.74420e-06
      200.800   1.70189e-06
      200.900   1.66054e-06
      201.000   1.62018e-06
      201.100   1.58074e-06
      201.200   1.54219e-06
      201.300   1.50453e-06
      201.400   1.46773e-06
      201.500   1.43174e-06
      201.600   1.39659e-06
      201.700   1.36224e-06
      201.800   1.32866e-06
      201.900   1.29588e-06
      202.000   1.26391e-06
      202.100   1.23265e-06
      202.200   1.20212e-06
      202.300   1.17288e-06
      202.400   1.14514e-06
      202.500   1.11813e-06
      202.600   1.09171e-06
      202.700   1.06587e-06
      202.800   1.04062e-06
      202.900   1.01596e-06
      203.000   9.91852e-07
      203.100   9.68287e-07
      203.200   9.45242e-07
      203.300   9.22704e-07
      203.400   9.00673e-07
      203.500   8.79146e-07
      203.600   8.58097e-07
      203.700   8.37522e-07
      203.800   8.17444e-07
      203.900   7.97829e-07
      204.000   7.78655e-07
      204.100   7.59923e-07
      204.200   7.41622e-07
      204.300   7.23728e-07
      204.400   7.06251e-07
      204.500   6.89172e-07
      204.600   6.72479e-07
      204.700   6.56173e-07
      204.800   6.40263e-07
      204.900   6.24724e-07
      205.000   6.09543e-07
      205.100   5.94719e-07
      205.200   5.80227e-07
      205.300   5.66079e-07
      205.400   5.52257e-07
      205.500   5.38748e-07
      205.600   5.25602e-07
      205.700   5.12805e-07
      205.800   5.00299e-07
      205.900   4.88095e-07
      206.000   4.76189e-07
      206.100   4.64547e-07
      206.200   4.53171e-07
      206.300   4.42062e-07
      206.400   4.31212e-07
      206.500   4.20603e-07
      206.600   4.10245e-07
      206.700   4.00125e-07
      206.800   3.90233e-07
      206.900   3.80570e-07
      207.000   3.71138e-07
      207.100   3.61927e-07
      207.200   3.52936e-07
      207.300   3.44153e-07
      207.400   3.35570e-07
      207.500   3.27186e-07
      207.600   3.18999e-07
      207.700   3.10997e-07
      207.800   3.03183e-07
      207.900   2.95552e-07
      208.000   2.88097e-07
      208.100   2.80817e-07
      208.200   2.73710e-07
      208.300   2.66766e-07
      208.400   2.59994e-07
      208.500   2.53384e-07
      208.600   2.46926e-07
      208.700   2.40619e-07
      208.800   2.34453e-07
      208.900   2.28041e-07
      209.000   2.21274e-07
      209.100   2.14694e-07
      209.200   2.08294e-07
      209.300   2.02068e-07
      209.400   1.96018e-07
      209.500   1.90134e-07
      209.600   1.84411e-07
      209.700   1.78852e-07
      209.800   1.73459e-07
      209.900   1.68211e-07
      210.000   1.63112e-07
      210.100   1.58158e-07
      210.200   1.53342e-07
      210.300   1.48663e-07
      210.400   1.44117e-07
      210.500   1.39699e-07
      210.600   1.35408e-07
      210.700   1.31241e-07
      210.800   1.27192e-07
      210.900   1.23259e-07
      211.000   1.19439e-07
      211.100   1.15731e-07
      211.200   1.12130e-07
      211.300   1.08638e-07
      211.400   1.05251e-07
      211.500   1.01959e-07
      211.600   9.87651e-08
      211.700   9.56656e-08
      211.800   9.26547e-08
      211.900   8.97327e-08
      212.000   8.68988e-08
      212.100   8.41479e-08
      212.200   8.13991e-08
      212.300   7.75467e-08
      212.400   7.31531e-08
      212.500   6.89886e-08
      212.600   6.50453e-08
      212.700   6.13091e-08
      212.800   5.77715e-08
      212.900   5.44246e-08
      213.000   5.12586e-08
      213.100   4.82683e-08
      213.200   4.54391e-08
      213.300   4.27653e-08
      213.400   4.02360e-08
      213.500   3.78457e-08
      213.600   3.55875e-08
      213.700   3.34553e-08
      213.800   3.14405e-08
      213.900   2.95401e-08
      214.000   2.77461e-08
      214.100   2.60530e-08
      214.200   2.44571e-08
      214.300   2.29518e-08
      214.400   2.15324e-08
      214.500   2.01951e-08
      214.600   1.89359e-08
      214.700   1.77496e-08
      214.800   1.66326e-08
      214.900   1.55820e-08
      215.000   1.45926e-08
      215.100   1.36626e-08
      215.200   1.27895e-08
      215.300   1.19694e-08
      215.400   1.11979e-08
      215.500   1.04730e-08
      215.600   9.79281e-09
      215.700   9.15349e-09
      215.800   8.55337e-09
      215.900   7.99052e-09
      216.000   7.46214e-09
      216.100   6.96651e-09
      216.200   6.50199e-09
      216.300   6.06664e-09
      216.400   5.65866e-09
      216.500   5.27632e-09
      216.600   4.91844e-09
      216.700   4.58344e-09
      216.800   4.26979e-09
      216.900   3.97650e-09
      217.000   3.70217e-09
      217.100   3.44550e-09
      217.200   3.20581e-09
      217.300   2.98177e-09
      217.400   2.77241e-09
      217.500   2.57705e-09
      217.600   2.39456e-09
      217.700   2.22426e-09
      217.800   2.06538e-09
      217.900   1.91739e-09
      218.000   1.77948e-09
      218.100   1.65096e-09
      218.200   1.53124e-09
      218.300   1.41977e-09
      218.400   1.31594e-09
      218.500   1.21924e-09
      218.600   1.12934e-09
      218.700   1.04565e-09
      218.800   9.67826e-10
      218.900   8.95534e-10
      219.000   8.28306e-10
      219.100   7.66472e-10
      219.200   7.14141e-10
      219.300   6.72946e-10
      219.400   6.33988e-10
      219.500   5.97189e-10
      219.600   5.62420e-10
      219.700   5.29568e-10
      219.800   4.98556e-10
      219.900   4.69264e-10
      220.000   4.41598e-10
      220.100   4.15484e-10
      220.200   3.90845e-10
      220.300   3.67601e-10
      220.400   3.45663e-10
      220.500   3.24976e-10
      220.600   3.05475e-10
      220.700   2.87080e-10
      220.800   2.69732e-10
      220.900   2.53398e-10
      221.000   2.37998e-10
      221.100   2.23486e-10
      221.200   2.09827e-10
      221.300   1.96959e-10
      221.400   1.84841e-10
      221.500   1.73439e-10
      221.600   1.62705e-10
      221.700   1.52602e-10
      221.800   1.43097e-10
      221.900   1.34161e-10
      222.000   1.25757e-10
      222.100   1.17851e-10
      222.200   1.10426e-10
      222.300   1.03444e-10
      222.400   9.68832e-11
      222.500   9.07184e-11
      222.600   8.49328e-11
      222.700   7.94967e-11
      222.800   7.43930e-11
      222.900   6.96064e-11
      223.000   6.51114e-11
      223.100   6.08936e-11
      223.200   5.69369e-11
      223.300   5.32278e-11
      223.400   4.97491e-11
      223.500   4.64862e-11
      223.600   4.34306e-11
      223.700   4.05659e-11
      223.800   3.78811e-11
      223.900   3.53695e-11
      224.000   3.30148e-11
      224.100   3.08103e-11
      224.200   2.87470e-11
      224.300   2.68168e-11
      224.400   2.50097e-11
      224.500   2.33195e-11
      224.600   2.17382e-11
      224.700   2.02612e-11
      224.800   1.88798e-11
      224.900   1.75879e-11
      225.000   1.63815e-11
      225.100   1.52540e-11
      225.200   1.42008e-11
      225.300   1.32182e-11
      225.400   1.23002e-11
      225.500   1.14432e-11
      225.600   1.06435e-11
      225.700   9.89792e-12
      225.800   9.20207e-12
      225.900   8.55322e-12
      226.000   7.94864e-12
      226.100   7.38475e-12
      226.200   6.85923e-12
      226.300   6.37040e-12
      226.400   5.91530e-12
      226.500   5.49110e-12
      226.600   5.09604e-12
      226.700   4.72854e-12
      226.800   4.38628e-12
      226.900   4.06771e-12
      227.000   3.77162e-12
      227.100   3.49613e-12
      227.200   3.23999e-12
      227.300   3.00195e-12
      227.400   2.78076e-12
      227.500   2.57521e-12
      227.600   2.38430e-12
      227.700   2.20701e-12
      227.800   2.04246e-12
      227.900   1.88974e-12
      228.000   1.74800e-12
      228.100   1.61651e-12
      228.200   1.49453e-12
      228.300   1.38144e-12
      228.400   1.27663e-12
      228.500   1.17945e-12
      228.600   1.08943e-12
      228.700   1.00603e-12
      228.800   9.28783e-13
      228.900   8.57294e-13
      229.000   7.91084e-13
      229.100   7.29817e-13
      229.200   6.73139e-13
      229.300   6.20715e-13
      229.400   5.72233e-13
      229.500   5.27407e-13
      229.600   4.85973e-13
      229.700   4.47690e-13
      229.800   4.12312e-13
      229.900   3.79765e-13
      230.000   3.50714e-13
      230.100   3.25723e-13
      230.200   3.02456e-13
      230.300   2.80812e-13
      230.400   2.60659e-13
      230.500   2.41922e-13
      230.600   2.24511e-13
      230.700   2.08309e-13
      230.800   1.93243e-13
      230.900   1.79236e-13
      231.000   1.66206e-13
      231.100   1.54097e-13
      231.200   1.42841e-13
      231.300   1.32384e-13
      231.400   1.22672e-13
      231.500   1.13645e-13
      231.600   1.05261e-13
      231.700   9.74786e-14
      231.800   9.02544e-14
      231.900   8.35486e-14
      232.000   7.73254e-14
      232.100   7.15505e-14
      232.200   6.61944e-14
      232.300   6.12270e-14
      232.400   5.66200e-14
      232.500   5.23479e-14
      232.600   4.83897e-14
      232.700   4.47214e-14
      232.800   4.13223e-14
      232.900   3.81736e-14
      233.000   3.52572e-14
      233.100   3.25576e-14
      233.200   3.00571e-14
      233.300   2.77433e-14
      233.400   2.56026e-14
      233.500   2.36256e-14
      233.600   2.17990e-14
      233.700   2.01089e-14
      233.800   1.85319e-14
      233.900   1.70737e-14
      234.000   1.57258e-14
      234.100   1.44817e-14
      234.200   1.33330e-14
      234.300   1.22727e-14
      234.400   1.12941e-14
      234.500   1.03913e-14
      234.600   9.55834e-15
      234.700   8.79031e-15
      234.800   8.08232e-15
      234.900   7.42943e-15
      235.000   6.82763e-15
      235.100   6.27326e-15
      235.200   5.76253e-15
      235.300   5.29211e-15
      235.400   4.85898e-15
      235.500   4.46019e-15
      235.600   4.09326e-15
      235.700   3.75583e-15
      235.800   3.44647e-15
      235.900   3.16185e-15
      236.000   2.90005e-15
      236.100   2.65927e-15
      236.200   2.43790e-15
      236.300   2.23438e-15
      236.400   2.04740e-15
      236.500   1.87558e-15
      236.600   1.71777e-15
      236.700   1.57285e-15
      236.800   1.43977e-15
      236.900   1.31764e-15
      237.000   1.20557e-15
      237.100   1.10271e-15
      237.200   1.00842e-15
      237.300   9.21917e-16
      237.400   8.42991e-16
      237.500   7.74024e-16
      237.600   7.16471e-16
      237.700   6.63240e-16
      237.800   6.13848e-16
      237.900   5.68028e-16
      238.000   5.25548e-16
      238.100   4.86136e-16
      238.200   4.49602e-16
      238.300   4.15730e-16
      238.400   3.84338e-16
      238.500   3.55245e-16
      238.600   3.28293e-16
      238.700   3.03334e-16
      238.800   2.80211e-16
      238.900   2.58801e-16
      239.000   2.38978e-16
      239.100   2.20632e-16
      239.200   2.03658e-16
      239.300   1.87994e-16
      239.400   1.73538e-16
      239.500   1.60158e-16
      239.600   1.47781e-16
      239.700   1.36336e-16
      239.800   1.25749e-16
      239.900   1.15961e-16
      240.000   1.06914e-16
      240.100   9.85502e-17
      240.200   9.08216e-17
      240.300   8.36833e-17
      240.400   7.70871e-17
      240.500   7.09994e-17
      240.600   6.53777e-17
      240.700   6.01891e-17
      240.800   5.54142e-17
      240.900   5.10198e-17
      241.000   4.69644e-17
      241.100   4.32223e-17
      241.200   3.97701e-17
      241.300   3.67555e-17
      241.400   3.42753e-17
      241.500   3.21186e-17
      241.600   3.00940e-17
      241.700   2.81933e-17
      241.800   2.64094e-17
      241.900   2.47352e-17
      242.000   2.31644e-17
      242.100   2.16908e-17
      242.200   2.03125e-17
      242.300   1.90224e-17
      242.400   1.78118e-17
      242.500   1.66762e-17
      242.600   1.56111e-17
      242.700   1.46121e-17
      242.800   1.36755e-17
      242.900   1.27972e-17
      243.000   1.19739e-17
      243.100   1.12022e-17
      243.200   1.04786e-17
      243.300   9.80064e-18
      243.400   9.16563e-18
      243.500   8.57221e-18
      243.600   8.01800e-18
      243.700   7.49842e-18
      243.800   7.01158e-18
      243.900   6.55574e-18
      244.000   6.12856e-18
      244.100   5.72852e-18
      244.200   5.35396e-18
      244.300   5.00311e-18
      244.400   4.67476e-18
      244.500   4.36733e-18
      244.600   4.07959e-18
      244.700   3.81092e-18
      244.800   3.56048e-18
      244.900   3.32612e-18
      245.000   3.10668e-18
      245.100   2.90136e-18
      245.200   2.70934e-18
      245.300   2.52967e-18
      245.400   2.36154e-18
      245.500   2.20436e-18
      245.600   2.05735e-18
      245.700   1.91984e-18
      245.800   1.79125e-18
      245.900   1.67168e-18
      246.000   1.56010e-18
      246.100   1.45575e-18
      246.200   1.35821e-18
      246.300   1.26701e-18
      246.400   1.18180e-18
      246.500   1.10215e-18
      246.600   1.02773e-18
      246.700   9.58205e-19
      246.800   8.93232e-19
      246.900   8.32553e-19
      247.000   7.76162e-19
      247.100   7.23614e-19
      247.200   6.74533e-19
      247.300   6.28697e-19
      247.400   5.85882e-19
      247.500   5.45904e-19
      247.600   5.08583e-19
      247.700   4.73740e-19
      247.800   4.41219e-19
      247.900   4.10867e-19
      248.000   3.82552e-19
      248.100   3.56348e-19
      248.200   3.31881e-19
      248.300   3.09049e-19
      248.400   2.87745e-19
      248.500   2.67861e-19
      248.600   2.49314e-19
      248.700   2.32021e-19
      248.800   2.15892e-19
      248.900   2.00855e-19
      249.000   1.86835e-19
      249.100   1.73853e-19
      249.200   1.63227e-19
      249.300   1.54758e-19
      249.400   1.47079e-19
      249.500   1.39772e-19
      249.600   1.32818e-19
      249.700   1.26202e-19
      249.800   1.19907e-19
      249.900   1.13917e-19
      250.000   1.08222e-19
      250.100   1.02823e-19
      250.200   9.76942e-20
      250.300   9.28196e-20
      250.400   8.81826e-20
      250.500   8.37735e-20
      250.600   7.95805e-20
      250.700   7.55926e-20
      250.800   7.18007e-20
      250.900   6.81949e-20
      251.000   6.47671e-20
      251.100   6.15075e-20
      251.200   5.84141e-20
      251.300   5.54809e-20
      251.400   5.26912e-20
      251.500   5.00385e-20
      251.600   4.75172e-20
      251.700   4.51212e-20
      251.800   4.28433e-20
      251.900   4.06779e-20
      252.000   3.86193e-20
      252.100   3.66642e-20
      252.200   3.48051e-20
      252.300   3.30412e-20
      252.400   3.13682e-20
      252.500   2.97792e-20
      252.600   2.82685e-20
      252.700   2.68334e-20
      252.800   2.54697e-20
      252.900   2.41738e-20
      253.000   2.29426e-20
      253.100   2.17732e-20
      253.200   2.07599e-20
      253.300   2.02058e-20
      253.400   1.97596e-20
      253.500   1.93237e-20
      253.600   1.88976e-20
      253.700   1.84808e-20
      253.800   1.80732e-20
      253.900   1.76744e-20
      254.000   1.72843e-20
      254.100   1.69026e-20
      254.200   1.65293e-20
      254.300   1.61641e-20
      254.400   1.58069e-20
      254.500   1.54575e-20
      254.600   1.51156e-20
      254.700   1.47813e-20
      254.800   1.44547e-20
      254.900   1.41351e-20
      255.000   1.38226e-20
      255.100   1.35166e-20
      255.200   1.32175e-20
      255.300   1.29248e-20
      255.400   1.26384e-20
      255.500   1.23584e-20
      255.600   1.20844e-20
      255.700   1.18163e-20
      255.800   1.15541e-20
      255.900   1.12976e-20
      256.000   1.10465e-20
      256.100   1.08013e-20
      256.200   1.05613e-20
      256.300   1.03266e-20
      256.400   1.00972e-20
      256.500   9.87256e-21
      256.600   9.65285e-21
      256.700   9.43796e-21
      256.800   9.22774e-21
      256.900   9.02206e-21
      257.000   8.82086e-21
      257.100   8.62405e-21
      257.200   8.43160e-21
      257.300   8.24328e-21
      257.400   8.06063e-21
      257.500   7.88249e-21
      257.600   7.70841e-21
      257.700   7.53811e-21
      257.800   7.37149e-21
      257.900   7.20850e-21
      258.000   7.04902e-21
      258.100   6.89295e-21
      258.200   6.74032e-21
      258.300   6.59097e-21
      258.400   6.44483e-21
      258.500   6.30182e-21
      258.600   6.16199e-21
      258.700   6.02516e-21
      258.800   5.89127e-21
      258.900   5.76037e-21
      259.000   5.63226e-21
      259.100   5.50694e-21
      259.200   5.38442e-21
      259.300   5.26465e-21
      259.400   5.14749e-21
      259.500   5.03283e-21
      259.600   4.92075e-21
      259.700   4.81109e-21
      259.800   4.70381e-21
      259.900   4.59884e-21
      260.000   4.49621e-21
      260.100   4.39583e-21
      260.200   4.29766e-21
      260.300   4.20163e-21
      260.400   4.10771e-21
      260.500   4.01589e-21
      260.600   3.92602e-21
      260.700   3.83816e-21
      260.800   3.75229e-21
      260.900   3.66823e-21
      261.000   3.58609e-21
      261.100   3.50584e-21
      261.200   3.42729e-21
      261.300   3.35050e-21
      261.400   3.27542e-21
      261.500   3.20207e-21
      261.600   3.13061e-21
      261.700   3.06075e-21
      261.800   2.99246e-21
      261.900   2.92563e-21
      262.000   2.86029e-21
      262.100   2.79638e-21
      262.200   2.73391e-21
      262.300   2.67281e-21
      262.400   2.61307e-21
      262.500   2.55463e-21
      262.600   2.49749e-21
      262.700   2.44162e-21
      262.800   2.38699e-21
      262.900   2.33354e-21
      263.000   2.28134e-21
      263.100   2.23028e-21
      263.200   2.18039e-21
      263.300   2.13159e-21
      263.400   2.08387e-21
      263.500   2.03723e-21
      263.600   1.99163e-21
      263.700   1.94703e-21
      263.800   1.90342e-21
      263.900   1.86082e-21
      264.000   1.81914e-21
      264.100   1.77839e-21
      264.200   1.73853e-21
      264.300   1.69959e-21
      264.400   1.66152e-21
      264.500   1.62428e-21
      264.600   1.58788e-21
      264.700   1.55230e-21
      264.800   1.51749e-21
      264.900   1.48349e-21
      265.000   1.45024e-21
      265.100   1.41772e-21
      265.200   1.38594e-21
      265.300   1.35486e-21
      265.400   1.32450e-21
      265.500   1.29481e-21
      265.600   1.26578e-21
      265.700   1.24091e-21
      265.800   1.23144e-21
      265.900   1.22253e-21
      266.000   1.21368e-21
      266.100   1.20491e-21
      266.200   1.19620e-21
      266.300   1.18755e-21
      266.400   1.17897e-21
      266.500   1.17046e-21
      266.600   1.16200e-21
      266.700   1.15359e-21
      266.800   1.14527e-21
      266.900   1.13701e-21
      267.000   1.12881e-21
      267.100   1.12068e-21
      267.200   1.11261e-21
      267.300   1.10459e-21
      267.400   1.09663e-21
      267.500   1.08874e-21
      267.600   1.08091e-21
      267.700   1.07314e-21
      267.800   1.06541e-21
      267.900   1.05776e-21
      268.000   1.05017e-21
      268.100   1.04264e-21
      268.200   1.03516e-21
      268.300   1.02775e-21
      268.400   1.02038e-21
      268.500   1.01307e-21
      268.600   1.00581e-21
      268.700   9.98626e-22
      268.800   9.91488e-22
      268.900   9.84402e-22
      269.000   9.77379e-22
      269.100   9.70393e-22
      269.200   9.63477e-22
      269.300   9.56613e-22
      269.400   9.49798e-22
      269.500   9.43034e-22
      269.600   9.36332e-22
      269.700   9.29661e-22
      269.800   9.23058e-22
      269.900   9.16500e-22
      270.000   9.10000e-22
      270.100   9.03579e-22
      270.200   8.97214e-22
      270.300   8.90904e-22
      270.400   8.84630e-22
      270.500   8.78409e-22
      270.600   8.72224e-22
      270.700   8.66105e-22
      270.800   8.60019e-22
      270.900   8.53981e-22
      271.000   8.47995e-22
      271.100   8.42044e-22
      271.200   8.36140e-22
      271.300   8.30280e-22
      271.400   8.24464e-22
      271.500   8.18696e-22
      271.600   8.12965e-22
      271.700   8.07271e-22
      271.800   8.01627e-22
      271.900   7.96020e-22
      272.000   7.90454e-22
      272.100   7.84930e-22
      272.200   7.79441e-22
      272.300   7.73990e-22
      272.400   7.68581e-22
      272.500   7.63211e-22
      272.600   7.57881e-22
      272.700   7.52587e-22
      272.800   7.47323e-22
      272.900   7.42107e-22
      273.000   7.36921e-22
      273.100   7.31770e-22
      273.200   7.26662e-22
      273.300   7.21588e-22
      273.400   7.16543e-22
      273.500   7.11532e-22
      273.600   7.06558e-22
      273.700   7.01617e-22
      273.800   6.96706e-22
      273.900   6.91833e-22
      274.000   6.86994e-22
      274.100   6.82187e-22
      274.200   6.77407e-22
      274.300   6.72661e-22
      274.400   6.67804e-22
      274.500   6.62665e-22
      274.600   6.57496e-22
      274.700   6.52364e-22
      274.800   6.47271e-22
      274.900   6.42214e-22
      275.000   6.37191e-22
      275.100   6.32205e-22
      275.200   6.27253e-22
      275.300   6.22334e-22
      275.400   6.17456e-22
      275.500   6.12610e-22
      275.600   6.07799e-22
      275.700   6.03021e-22
      275.800   5.98277e-22
      275.900   5.93571e-22
      276.000   5.88898e-22
      276.100   5.84254e-22
      276.200   5.79640e-22
      276.300   5.75061e-22
      276.400   5.70517e-22
      276.500   5.66004e-22
      276.600   5.61525e-22
      276.700   5.57073e-22
      276.800   5.52653e-22
      276.900   5.48261e-22
      277.000   5.43904e-22
      277.100   5.39574e-22
      277.200   5.35278e-22
      277.300   5.31010e-22
      277.400   5.26775e-22
      277.500   5.22562e-22
      277.600   5.18384e-22
      277.700   5.14229e-22
      277.800   5.10101e-22
      277.900   5.06013e-22
      278.000   5.01952e-22
      278.100   4.97915e-22
      278.200   4.93908e-22
      278.300   4.89929e-22
      278.400   4.85978e-22
      278.500   4.82052e-22
      278.600   4.78152e-22
      278.700   4.74285e-22
      278.800   4.70635e-22
      278.900   4.67902e-22
      279.000   4.65204e-22
      279.100   4.62517e-22
      279.200   4.59834e-22
      279.300   4.57169e-22
      279.400   4.54511e-22
      279.500   4.51861e-22
      279.600   4.49227e-22
      279.700   4.46600e-22
      279.800   4.43987e-22
      279.900   4.41386e-22
      280.000   4.38793e-22
      280.100   4.36208e-22
      280.200   4.33636e-22
      280.300   4.31074e-22
      280.400   4.28526e-22
      280.500   4.25986e-22
      280.600   4.23458e-22
      280.700   4.20942e-22
      280.800   4.18433e-22
      280.900   4.15935e-22
      281.000   4.13449e-22
      281.100   4.10973e-22
      281.200   4.08508e-22
      281.300   4.06054e-22
      281.400   4.03613e-22
      281.500   4.01181e-22
      281.600   3.98755e-22
      281.700   3.96342e-22
      281.800   3.93945e-22
      281.900   3.91556e-22
      282.000   3.89175e-22
      282.100   3.86807e-22
      282.200   3.84453e-22
      282.300   3.82103e-22
      282.400   3.79766e-22
      282.500   3.77438e-22
      282.600   3.75125e-22
      282.700   3.72822e-22
      282.800   3.70526e-22
      282.900   3.68247e-22
      283.000   3.65977e-22
      283.100   3.63713e-22
      283.200   3.61465e-22
      283.300   3.59959e-22
      283.400   3.62452e-22
      283.500   3.65441e-22
      283.600   3.68445e-22
      283.700   3.71470e-22
      283.800   3.74509e-22
      283.900   3.77563e-22
      284.000   3.80635e-22
      284.100   3.83722e-22
      284.200   3.86831e-22
      284.300   3.89960e-22
      284.400   3.93101e-22
      284.500   3.96261e-22
      284.600   3.99442e-22
      284.700   4.02637e-22
      284.800   4.05850e-22
      284.900   4.09085e-22
      285.000   4.12335e-22
      285.100   4.15604e-22
      285.200   4.18886e-22
      285.300   4.22193e-22
      285.400   4.25522e-22
      285.500   4.28860e-22
      285.600   4.32225e-22
      285.700   4.35602e-22
      285.800   4.39003e-22
      285.900   4.42422e-22
      286.000   4.45855e-22
      286.100   4.49315e-22
      286.200   4.52795e-22
      286.300   4.56296e-22
      286.400   4.59808e-22
      286.500   4.63345e-22
      286.600   4.66901e-22
      286.700   4.70476e-22
      286.800   4.74074e-22
      286.900   4.77695e-22
      287.000   4.81331e-22
      287.100   4.84989e-22
      287.200   4.88668e-22
      287.300   4.92363e-22
      287.400   4.96082e-22
      287.500   4.99826e-22
      287.600   5.03590e-22
      287.700   5.07378e-22
      287.800   5.11186e-22
      287.900   5.15018e-22
      288.000   5.18875e-22
      288.100   5.22761e-22
      288.200   5.26662e-22
      288.300   5.30589e-22
      288.400   5.34551e-22
      288.500   5.38523e-22
      288.600   5.42522e-22
      288.700   5.46548e-22
      288.800   5.50592e-22
      288.900   5.54658e-22
      289.000   5.58755e-22
      289.100   5.62869e-22
      289.200   5.67003e-22
      289.300   5.71166e-22
      289.400   5.75361e-22
      289.500   5.79574e-22
      289.600   5.83808e-22
      289.700   5.88071e-22
      289.800   5.92360e-22
      289.900   5.96666e-22
      290.000   6.01013e-22
      290.100   6.05366e-22
      290.200   6.09761e-22
      290.300   6.14178e-22
      290.400   6.18615e-22
      290.500   6.23083e-22
      290.600   6.27572e-22
      290.700   6.32089e-22
      290.800   6.36635e-22
      290.900   6.41208e-22
      291.000   6.45809e-22
      291.100   6.50434e-22
      291.200   6.55082e-22
      291.300   6.59764e-22
      291.400   6.64466e-22
      291.500   6.69195e-22
      291.600   6.73958e-22
      291.700   6.78739e-22
      291.800   6.83553e-22
      291.900   6.88394e-22
      292.000   6.93271e-22
      292.100   6.98177e-22
      292.200   7.03100e-22
      292.300   7.08054e-22
      292.400   7.13036e-22
      292.500   7.18049e-22
      292.600   7.23075e-22
      292.700   7.28117e-22
      292.800   7.33185e-22
      292.900   7.38276e-22
      293.000   7.43400e-22
      293.100   7.48559e-22
      293.200   7.53737e-22
      293.300   7.58939e-22
      293.400   7.64180e-22
      293.500   7.69446e-22
      293.600   7.74742e-22
      293.700   7.80071e-22
      293.800   7.85429e-22
      293.900   7.90806e-22
      294.000   7.96212e-22
      294.100   8.01652e-22
      294.200   8.07121e-22
      294.300   8.12618e-22
      294.400   8.18148e-22
      294.500   8.23696e-22
      294.600   8.29274e-22
      294.700   8.34891e-22
      294.800   8.40530e-22
      294.900   8.46189e-22
      295.000   8.51894e-22
      295.100   8.57629e-22
      295.200   8.63385e-22
      295.300   8.69166e-22
      295.400   8.74980e-22
      295.500   8.80821e-22
      295.600   8.86688e-22
      295.700   8.92584e-22
      295.800   8.98507e-22
      295.900   9.04461e-22
      296.000   9.10453e-22
      296.100   9.16459e-22
      296.200   9.22503e-22
      296.300   9.28568e-22
      296.400   9.34666e-22
      296.500   9.40787e-22
      296.600   9.46944e-22
      296.700   9.53122e-22
      296.800   9.59327e-22
      296.900   9.65567e-22
      297.000   9.71835e-22
      297.100   9.78128e-22
      297.200   9.85037e-22
      297.300   9.96422e-22
      297.400   1.01885e-21
      297.500   1.04174e-21
      297.600   1.06512e-21
      297.700   1.08903e-21
      297.800   1.11340e-21
      297.900   1.13828e-21
      298.000   1.16365e-21
      298.100   1.18954e-21
      298.200   1.21594e-21
      298.300   1.24288e-21
      298.400   1.27037e-21
      298.500   1.29840e-21
      298.600   1.32702e-21
      298.700   1.35618e-21
      298.800   1.38592e-21
      298.900   1.41630e-21
      299.000   1.44730e-21
      299.100   1.47890e-21
      299.200   1.51114e-21
      299.300   1.54399e-21
      299.400   1.57750e-21
      299.500   1.61167e-21
      299.600   1.64648e-21
      299.700   1.68197e-21
      299.800   1.71818e-21
      299.900   1.75508e-21
      300.000   1.79267e-21
      300.100   1.83105e-21
      300.192   1.86701e-21
      300.285   1.90400e-21
      300.377   1.94124e-21
      300.470   1.97957e-21
      300.562   2.01812e-21
      300.654   2.05736e-21
      300.747   2.09777e-21
      300.839   2.13841e-21
      300.932   2.18022e-21
      301.025   2.22280e-21
      301.117   2.26562e-21
      301.210   2.30965e-21
      301.303   2.35450e-21
      301.395   2.39956e-21
      301.488   2.44598e-21
      301.581   2.49311e-21
      301.674   2.54113e-21
      301.766   2.58942e-21
      301.859   2.63912e-21
      301.952   2.68961e-21
      302.045   2.74102e-21
      302.138   2.87784e-21
      302.231   3.05629e-21
      302.324   3.24663e-21
      302.417   3.44844e-21
      302.510   3.66212e-21
      302.603   3.88817e-21
      302.696   4.12760e-21
      302.789   4.38121e-21
      302.882   4.64956e-21
      302.976   4.93660e-21
      303.069   5.23715e-21
      303.162   5.55508e-21
      303.255   5.89139e-21
      303.349   6.25100e-21
      303.442   6.62740e-21
      303.535   7.02490e-21
      303.629   7.44975e-21
      303.722   7.89422e-21
      303.816   8.36904e-21
      303.909   8.86559e-21
      304.003   9.39560e-21
      304.096   9.94993e-21
      304.190   1.05417e-20
      304.283   1.11599e-20
      304.377   1.18190e-20
      304.471   1.25156e-20
      304.564   1.32430e-20
      304.658   1.40189e-20
      304.752   1.48385e-20
      304.846   1.57025e-20
      304.939   1.66046e-20
      305.033   1.75663e-20
      305.127   1.85804e-20
      305.221   1.96498e-20
      305.315   2.07782e-20
      305.409   2.19670e-20
      305.503   2.32203e-20
      305.597   2.45419e-20
      305.691   2.59337e-20
      305.785   2.74014e-20
      305.879   2.89470e-20
      305.973   3.05735e-20
      306.067   3.22883e-20
      306.161   3.40929e-20
      306.255   3.59931e-20
      306.350   3.80153e-20
      306.444   4.01216e-20
      306.538   4.23391e-20
      306.633   4.46961e-20
      306.727   4.71516e-20
      306.821   4.97344e-20
      306.916   5.24793e-20
      307.010   5.53505e-20
      307.105   5.84148e-20
      307.199   6.16061e-20
      307.294   6.49990e-20
      307.388   6.85291e-20
      307.483   7.22802e-20
      307.577   7.61834e-20
      307.672   8.03299e-20
      307.767   8.46879e-20
      307.861   8.92169e-20
      307.956   9.40308e-20
      308.051   9.90886e-20
      308.146   1.04401e-19
      308.240   1.09919e-19
      308.335   1.15776e-19
      308.430   1.21929e-19
      308.525   1.28393e-19
      308.620   1.35173e-19
      308.715   1.42293e-19
      308.810   1.49765e-19
      308.905   1.57606e-19
      309.000   1.65829e-19
      309.095   1.74459e-19
      309.190   1.83510e-19
      309.285   1.93005e-19
      309.380   2.02961e-19
      309.476   2.13508e-19
      309.571   2.24456e-19
      309.666   2.35939e-19
      309.761   2.47966e-19
      309.857   2.60701e-19
      309.952   2.73910e-19
      310.047   2.87741e-19
      310.143   3.02392e-19
      310.238   3.17579e-19
      310.334   3.33649e-19
      310.429   3.50317e-19
      310.525   3.67934e-19
      310.620   3.86198e-19
      310.716   4.05516e-19
      310.811   4.25528e-19
      310.907   4.46675e-19
      311.003   4.68809e-19
      311.098   4.91736e-19
      311.194   5.15974e-19
      311.290   5.41333e-19
      311.386   5.67848e-19
      311.481   5.95289e-19
      311.577   6.24266e-19
      311.673   6.54589e-19
      311.769   6.86289e-19
      311.865   7.19392e-19
      311.961   7.54156e-19
      312.057   7.90771e-19
      312.153   8.29109e-19
      312.249   8.69201e-19
      312.345   9.11111e-19
      312.441   9.54921e-19
      312.537   1.00068e-18
      312.633   1.04848e-18
      312.730   1.09899e-18
      312.826   1.15120e-18
      312.922   1.20571e-18
      313.018   1.26266e-18
      313.115   1.32275e-18
      313.211   1.38488e-18
      313.307   1.44973e-18
      313.404   1.51813e-18
      313.500   1.58881e-18
      313.597   1.66333e-18
      313.693   1.74025e-18
      313.790   1.82141e-18
      313.886   1.90521e-18
      313.983   1.99357e-18
      314.079   2.08479e-18
      314.176   2.18087e-18
      314.273   2.28111e-18
      314.369   2.38457e-18
      314.466   2.49356e-18
      314.563   2.60720e-18
      314.660   2.72557e-18
      314.756   2.84777e-18
      314.853   2.97639e-18
      314.950   3.11045e-18
      315.047   3.25012e-18
      315.144   3.39571e-18
      315.241   3.54732e-18
      315.338   3.70530e-18
      315.435   3.86977e-18
      315.532   4.04105e-18
      315.629   4.21936e-18
      315.726   4.40502e-18
      315.823   4.59845e-18
      315.921   4.80167e-18
      316.018   5.01121e-18
      316.115   5.22925e-18
      316.212   5.45613e-18
      316.310   5.69460e-18
      316.407   5.94014e-18
      316.504   6.19569e-18
      316.602   6.46417e-18
      316.699   6.74060e-18
      316.796   7.02785e-18
      316.894   7.32972e-18
      316.991   7.64070e-18
      317.089   7.96922e-18
      317.187   8.31194e-18
      317.284   8.66460e-18
      317.382   9.03498e-18
      317.479   9.41620e-18
      317.577   9.81631e-18
      317.675   1.02321e-17
      317.773   1.06645e-17
      317.870   1.11091e-17
      317.968   1.15763e-17
      318.066   1.20613e-17
      318.164   1.25653e-17
      318.262   1.30888e-17
      318.360   1.36327e-17
      318.458   1.41975e-17
      318.556   1.47839e-17
      318.654   1.53928e-17
      318.752   1.60248e-17
      318.850   1.66809e-17
      318.948   1.73623e-17
      319.046   1.80695e-17
      319.144   1.88034e-17
      319.242   1.95647e-17
      319.341   2.03629e-17
      319.439   2.11827e-17
      319.537   2.20330e-17
      319.635   2.29151e-17
      319.734   2.38392e-17
      319.832   2.47880e-17
      319.930   2.57718e-17
      320.029   2.68023e-17
      320.127   2.78598e-17
      320.226   2.89676e-17
      320.324   3.01046e-17
      320.423   3.12948e-17
      320.522   3.25283e-17
      320.620   3.37933e-17
      320.719   3.51176e-17
      320.818   3.64901e-17
      320.916   3.78974e-17
      321.015   3.93704e-17
      321.114   4.08957e-17
      321.213   4.24759e-17
      321.311   4.40952e-17
      321.410   4.57881e-17
      321.509   4.75421e-17
      321.608   4.93567e-17
      321.707   5.12361e-17
      321.806   5.31819e-17
      321.905   5.51944e-17
      322.004   5.72789e-17
      322.103   5.97295e-17
      322.202   6.27888e-17
      322.301   6.62172e-17
      322.401   6.98566e-17
      322.500   7.36430e-17
      322.599   7.76187e-17
      322.698   8.17931e-17
      322.798   8.62239e-17
      322.897   9.08300e-17
      322.996   9.56616e-17
      323.096   1.00787e-16
      323.195   1.06111e-16
      323.294   1.11694e-16
      323.394   1.17609e-16
      323.493   1.23752e-16
      323.593   1.30260e-16
      323.692   1.37013e-16
      323.792   1.44162e-16
      323.892   1.51656e-16
      323.991   1.59433e-16
      324.091   1.67661e-16
      324.191   1.76285e-16
      324.291   1.85314e-16
      324.390   1.94669e-16
      324.490   2.04574e-16
      324.590   2.14932e-16
      324.690   2.25773e-16
      324.790   2.37123e-16
      324.890   2.48996e-16
      324.990   2.61424e-16
      325.090   2.74426e-16
      325.190   2.88011e-16
      325.290   3.02213e-16
      325.390   3.17073e-16
      325.490   3.32595e-16
      325.590   3.48812e-16
      325.690   3.65763e-16
      325.790   3.83469e-16
      325.891   4.02151e-16
      325.991   4.21468e-16
      326.091   4.41646e-16
      326.192   4.62920e-16
      326.292   4.84909e-16
      326.392   5.07847e-16
      326.493   5.32032e-16
      326.593   5.57017e-16
      326.694   5.83320e-16
      326.794   6.10500e-16
      326.895   6.39129e-16
      326.995   6.68687e-16
      327.096   6.99787e-16
      327.197   7.32221e-16
      327.297   7.65742e-16
      327.398   8.01122e-16
      327.499   8.38054e-16
      327.599   8.76172e-16
      327.700   9.16269e-16
      327.801   9.58017e-16
      327.902   1.00149e-15
      328.003   1.04679e-15
      328.104   1.09395e-15
      328.205   1.14304e-15
      328.306   1.19412e-15
      328.407   1.24726e-15
      328.508   1.30256e-15
      328.609   1.36009e-15
      328.710   1.41990e-15
      328.811   1.48211e-15
      328.912   1.54680e-15
      329.013   1.61402e-15
      329.115   1.68461e-15
      329.216   1.75727e-15
      329.317   1.83273e-15
      329.419   1.91189e-15
      329.520   1.99337e-15
      329.621   2.07797e-15
      329.723   2.16675e-15
      329.824   2.25787e-15
      329.926   2.35346e-15
      330.027   2.45176e-15
      330.129   2.55477e-15
      330.230   2.66054e-15
      330.332   2.77144e-15
      330.434   2.88643e-15
      330.535   3.00457e-15
      330.637   3.12826e-15
      330.739   3.25640e-15
      330.840   3.38801e-15
      330.942   3.52580e-15
      331.044   3.66859e-15
      331.146   3.81652e-15
      331.248   3.96979e-15
      331.350   4.12855e-15
      331.452   4.29311e-15
      331.554   4.46582e-15
      331.656   4.64874e-15
      331.758   4.83833e-15
      331.860   5.03498e-15
      331.962   5.23874e-15
      332.064   5.44988e-15
      332.166   5.66860e-15
      332.268   5.89529e-15
      332.371   6.13231e-15
      332.473   6.37548e-15
      332.575   6.61718e-15
      332.677   6.83318e-15
      332.780   7.03015e-15
      332.882   7.23021e-15
      332.985   7.43717e-15
      333.087   7.64734e-15
      333.190   7.86478e-15
      333.292   8.08298e-15
      333.395   8.30220e-15
      333.497   8.52162e-15
      333.600   8.74828e-15
      333.702   8.97777e-15
      333.805   9.21457e-15
      333.908   9.45708e-15
      334.011   9.70479e-15
      334.113   9.95547e-15
      334.216   1.02143e-14
      334.319   1.04789e-14
      334.422   1.07492e-14
      334.525   1.10255e-14
      334.628   1.13078e-14
      334.731   1.15961e-14
      334.834   1.18907e-14
      334.937   1.21918e-14
      335.040   1.24994e-14
      335.143   1.28132e-14
      335.246   1.31338e-14
      335.349   1.34610e-14
      335.452   1.37951e-14
      335.555   1.41362e-14
      335.659   1.44880e-14
      335.762   1.48437e-14
      335.865   1.52065e-14
      335.969   1.55804e-14
      336.072   1.59585e-14
      336.175   1.63438e-14
      336.279   1.67409e-14
      336.382   1.71422e-14
      336.486   1.75557e-14
      336.589   1.79731e-14
      336.693   1.84031e-14
      336.796   1.88371e-14
      336.900   1.92844e-14
      337.004   1.97407e-14
      337.107   2.02007e-14
      337.211   2.06748e-14
      337.315   2.11578e-14
      337.419   2.16503e-14
      337.523   2.21519e-14
      337.626   2.26583e-14
      337.730   2.31795e-14
      337.834   2.37104e-14
      337.938   2.42503e-14
      338.042   2.47968e-14
      338.146   2.53525e-14
      338.250   2.59183e-14
      338.354   2.64947e-14
      338.458   2.70817e-14
      338.562   2.76794e-14
      338.667   2.82936e-14
      338.771   2.89131e-14
      338.875   2.95435e-14
      338.979   3.01853e-14
      339.084   3.08445e-14
      339.188   3.15088e-14
      339.292   3.21854e-14
      339.397   3.28803e-14
      339.501   3.35805e-14
      339.606   3.43004e-14
      339.710   3.50249e-14
      339.815   3.57697e-14
      339.919   3.65193e-14
      340.024   3.72899e-14
      340.128   3.80650e-14
      340.233   3.88620e-14
      340.338   3.96716e-14
      340.442   4.04872e-14
      340.547   4.13244e-14
      340.652   4.21758e-14
      340.757   4.30410e-14
      340.862   4.39207e-14
      340.966   4.48061e-14
      341.071   4.57139e-14
      341.176   4.66371e-14
      341.281   4.75752e-14
      341.386   4.85283e-14
      341.491   4.94971e-14
      341.596   5.04813e-14
      341.702   5.14909e-14
      341.807   5.25060e-14
      341.912   5.35377e-14
      342.017   5.45859e-14
      342.122   5.56502e-14
      342.228   5.67405e-14
      342.333   5.78381e-14
      342.438   5.89528e-14
      342.544   6.00946e-14
      342.649   6.12430e-14
      342.754   6.24090e-14
      342.860   6.36037e-14
      342.965   6.48061e-14
      343.071   6.60362e-14
      343.176   6.72742e-14
      343.282   6.85430e-14
      343.388   6.98300e-14
      343.493   7.11305e-14
      343.599   7.25179e-14
      343.705   7.39341e-14
      343.810   7.53579e-14
      343.916   7.68173e-14
      344.022   7.83004e-14
      344.128   7.98055e-14
      344.234   8.13351e-14
      344.340   8.28873e-14
      344.446   8.44635e-14
      344.552   8.60640e-14
      344.658   8.76901e-14
      344.764   8.93377e-14
      344.870   9.10130e-14
      344.976   9.27111e-14
      345.082   9.44361e-14
      345.188   9.61860e-14
      345.294   9.79624e-14
      345.401   9.97821e-14
      345.507   1.01611e-13
      345.613   1.03466e-13
      345.719   1.05349e-13
      345.826   1.07277e-13
      345.932   1.09215e-13
      346.039   1.11199e-13
      346.145   1.13193e-13
      346.252   1.15235e-13
      346.358   1.17286e-13
      346.465   1.19384e-13
      346.571   1.21494e-13
      346.678   1.23653e-13
      346.785   1.25844e-13
      346.891   1.28042e-13
      346.998   1.30291e-13
      347.105   1.32572e-13
      347.212   1.34886e-13
      347.319   1.37232e-13
      347.425   1.39586e-13
      347.532   1.41996e-13
      347.639   1.44437e-13
      347.746   1.46911e-13
      347.853   1.49422e-13
      347.960   1.51962e-13
      348.067   1.54538e-13
      348.174   1.57147e-13
      348.281   1.59790e-13
      348.389   1.62494e-13
      348.496   1.65206e-13
      348.603   1.67956e-13
      348.710   1.70739e-13
      348.818   1.73587e-13
      348.925   1.76426e-13
      349.032   1.78422e-13
      349.140   1.78315e-13
      349.247   1.78205e-13
      349.355   1.78094e-13
      349.462   1.77984e-13
      349.570   1.77871e-13
      349.677   1.77758e-13
      349.785   1.77643e-13
      349.892   1.77529e-13
      350.000   1.77414e-13
      350.100   1.77306e-13
      350.193   1.77205e-13
      350.287   1.77102e-13
      350.380   1.76999e-13
      350.473   1.76897e-13
      350.567   1.76792e-13
      350.660   1.76687e-13
      350.754   1.76582e-13
      350.847   1.76476e-13
      350.941   1.76368e-13
      351.034   1.76262e-13
      351.128   1.76154e-13
      351.221   1.76046e-13
      351.315   1.75937e-13
      351.409   1.75827e-13
      351.502   1.75717e-13
      351.596   1.75605e-13
      351.690   1.75494e-13
      351.783   1.75383e-13
      351.877   1.75270e-13
      351.971   1.75156e-13
      352.065   1.75043e-13
      352.159   1.74928e-13
      352.252   1.74815e-13
      352.346   1.74698e-13
      352.440   1.74582e-13
      352.534   1.74465e-13
      352.628   1.74349e-13
      352.722   1.74230e-13
      352.816   1.74112e-13
      352.910   1.73992e-13
      353.004   1.73873e-13
      353.098   1.73752e-13
      353.192   1.73631e-13
      353.287   1.73508e-13
      353.381   1.73387e-13
      353.475   1.73265e-13
      353.569   1.73141e-13
      353.663   1.73017e-13
      353.758   1.72892e-13
      353.852   1.72767e-13
      353.946   1.72642e-13
      354.041   1.72514e-13
      354.135   1.72387e-13
      354.229   1.72259e-13
      354.324   1.72131e-13
      354.418   1.72001e-13
      354.513   1.71871e-13
      354.607   1.71742e-13
      354.702   1.71347e-13
      354.796   1.70793e-13
      354.891   1.70221e-13
      354.985   1.69656e-13
      355.080   1.69087e-13
      355.175   1.68519e-13
      355.269   1.67959e-13
      355.364   1.67394e-13
      355.459   1.66832e-13
      355.553   1.66277e-13
      355.648   1.65717e-13
      355.743   1.65159e-13
      355.838   1.64602e-13
      355.933   1.64048e-13
      356.027   1.63500e-13
      356.122   1.62948e-13
      356.217   1.62398e-13
      356.312   1.61849e-13
      356.407   1.61301e-13
      356.502   1.60755e-13
      356.597   1.60211e-13
      356.692   1.59668e-13
      356.787   1.59127e-13
      356.882   1.58586e-13
      356.977   1.58048e-13
      357.073   1.57505e-13
      357.168   1.56968e-13
      357.263   1.56433e-13
      357.358   1.55900e-13
      357.453   1.55368e-13
      357.549   1.54832e-13
      357.644   1.54303e-13
      357.739   1.53775e-13
      357.835   1.53243e-13
      357.930   1.52717e-13
      358.025   1.52193e-13
      358.121   1.51665e-13
      358.216   1.51143e-13
      358.312   1.50618e-13
      358.407   1.50098e-13
      358.503   1.49575e-13
      358.598   1.49059e-13
      358.694   1.48538e-13
      358.790   1.48019e-13
      358.885   1.47505e-13
      358.981   1.46988e-13
      359.076   1.46477e-13
      359.172   1.45963e-13
      359.268   1.45449e-13
      359.364   1.44936e-13
      359.459   1.44430e-13
      359.555   1.43921e-13
      359.651   1.43411e-13
      359.747   1.42902e-13
      359.843   1.42395e-13
      359.939   1.41889e-13
      360.035   1.41385e-13
      360.131   1.40881e-13
      360.227   1.40379e-13
      360.323   1.39877e-13
      360.419   1.40183e-13
      360.515   1.41208e-13
      360.611   1.42373e-13
      360.707   1.43546e-13
      360.803   1.44720e-13
      360.899   1.45902e-13
      360.995   1.47088e-13
      361.092   1.48292e-13
      361.188   1.49489e-13
      361.284   1.50690e-13
      361.380   1.51896e-13
      361.477   1.53120e-13
      361.573   1.54336e-13
      361.669   1.55556e-13
      361.766   1.56793e-13
      361.862   1.58023e-13
      361.959   1.59269e-13
      362.055   1.60509e-13
      362.152   1.61765e-13
      362.248   1.63012e-13
      362.345   1.64278e-13
      362.441   1.65534e-13
      362.538   1.66808e-13
      362.635   1.68086e-13
      362.731   1.69355e-13
      362.828   1.70641e-13
      362.925   1.71931e-13
      363.021   1.73213e-13
      363.118   1.74512e-13
      363.215   1.75814e-13
      363.312   1.77121e-13
      363.409   1.78431e-13
      363.505   1.79730e-13
      363.602   1.81049e-13
      363.699   1.82372e-13
      363.796   1.83696e-13
      363.893   1.85024e-13
      363.990   1.86356e-13
      364.087   1.87691e-13
      364.184   1.89030e-13
      364.281   1.90372e-13
      364.378   1.91718e-13
      364.475   1.93066e-13
      364.573   1.94432e-13
      364.670   1.95785e-13
      364.767   1.97142e-13
      364.864   1.98503e-13
      364.961   1.99865e-13
      365.059   2.01245e-13
      365.156   2.02613e-13
      365.253   2.03984e-13
      365.351   2.05371e-13
      365.448   2.06747e-13
      365.545   2.08125e-13
      365.643   2.09520e-13
      365.740   2.10902e-13
      365.838   2.12302e-13
      365.935   2.13687e-13
      366.033   2.15091e-13
      366.130   2.16481e-13
      366.228   2.18290e-13
      366.326   2.20672e-13
      366.423   2.23225e-13
      366.521   2.25824e-13
      366.618   2.28414e-13
      366.716   2.31047e-13
      366.814   2.33697e-13
      366.912   2.36365e-13
      367.010   2.39055e-13
      367.107   2.41732e-13
      367.205   2.44455e-13
      367.303   2.47195e-13
      367.401   2.49952e-13
      367.499   2.52727e-13
      367.597   2.55520e-13
      367.695   2.58327e-13
      367.793   2.61152e-13
      367.891   2.63995e-13
      367.989   2.66859e-13
      368.087   2.69736e-13
      368.185   2.72628e-13
      368.283   2.75540e-13
      368.381   2.78469e-13
      368.480   2.81441e-13
      368.578   2.84402e-13
      368.676   2.87379e-13
      368.774   2.90371e-13
      368.873   2.93411e-13
      368.971   2.96436e-13
      369.069   2.99478e-13
      369.168   3.02568e-13
      369.266   3.05637e-13
      369.364   3.08725e-13
      369.463   3.11863e-13
      369.561   3.14981e-13
      369.660   3.18146e-13
      369.758   3.21293e-13
      369.857   3.24489e-13
      369.955   3.27667e-13
      370.054   3.30893e-13
      370.153   3.34132e-13
      370.251   3.37353e-13
      370.350   3.40623e-13
      370.449   3.43905e-13
      370.547   3.47167e-13
      370.646   3.50480e-13
      370.745   3.53804e-13
      370.844   3.57142e-13
      370.943   3.60494e-13
      371.041   3.63824e-13
      371.140   3.67201e-13
      371.239   3.70593e-13
      371.338   3.73998e-13
      371.437   3.77414e-13
      371.536   3.80839e-13
      371.635   3.84280e-13
      371.734   3.87733e-13
      371.833   3.91197e-13
      371.932   3.94673e-13
      372.032   3.98198e-13
      372.131   4.04484e-13
      372.230   4.16758e-13
      372.329   4.32388e-13
      372.428   4.48488e-13
      372.528   4.65230e-13
      372.627   4.82297e-13
      372.726   4.99862e-13
      372.826   5.18128e-13
      372.925   5.36738e-13
      373.024   5.55873e-13
      373.124   5.75752e-13
      373.223   5.95965e-13
      373.323   6.16964e-13
      373.422   6.38332e-13
      373.522   6.60498e-13
      373.621   6.83021e-13
      373.721   7.06399e-13
      373.820   7.30139e-13
      373.920   7.54754e-13
      374.020   7.80033e-13
      374.119   8.05667e-13
      374.219   8.32251e-13
      374.319   8.59493e-13
      374.419   8.87400e-13
      374.518   9.15734e-13
      374.618   9.45052e-13
      374.718   9.75103e-13
      374.818   1.00583e-12
      374.918   1.03730e-12
      375.018   1.06954e-12
      375.118   1.10251e-12
      375.218   1.13626e-12
      375.318   1.17078e-12
      375.418   1.20609e-12
      375.518   1.24217e-12
      375.618   1.27905e-12
      375.718   1.31674e-12
      375.818   1.35525e-12
      375.918   1.39459e-12
      376.019   1.43517e-12
      376.119   1.47622e-12
      376.219   1.51808e-12
      376.319   1.56084e-12
      376.420   1.60489e-12
      376.520   1.64937e-12
      376.620   1.69474e-12
      376.721   1.74149e-12
      376.821   1.78866e-12
      376.922   1.83759e-12
      377.022   1.89165e-12
      377.122   1.95208e-12
      377.223   2.01457e-12
      377.323   2.07785e-12
      377.424   2.14328e-12
      377.525   2.21015e-12
      377.625   2.27782e-12
      377.726   2.34768e-12
      377.827   2.41909e-12
      377.927   2.49133e-12
      378.028   2.56578e-12
      378.129   2.64185e-12
      378.230   2.71952e-12
      378.330   2.79798e-12
      378.431   2.87880e-12
      378.532   2.96121e-12
      378.633   3.04532e-12
      378.734   3.13108e-12
      378.835   3.21842e-12
      378.936   3.30745e-12
      379.037   3.39813e-12
      379.138   3.49046e-12
      379.239   3.58454e-12
      379.340   3.68025e-12
      379.441   3.77770e-12
      379.542   3.87684e-12
      379.643   3.97766e-12
      379.745   4.08126e-12
      379.846   4.18558e-12
      379.947   4.29156e-12
      380.048   4.39926e-12
      380.150   4.50985e-12
      380.251   4.62106e-12
      380.352   4.73396e-12
      380.454   4.84972e-12
      380.555   4.96612e-12
      380.656   5.08422e-12
      380.758   5.20528e-12
      380.859   5.32683e-12
      380.961   5.45129e-12
      381.062   5.57625e-12
      381.164   5.70428e-12
      381.266   5.83400e-12
      381.367   5.96415e-12
      381.469   6.09731e-12
      381.570   6.23079e-12
      381.672   6.36730e-12
      381.774   6.50561e-12
      381.876   6.64551e-12
      381.977   6.78749e-12
      382.079   6.93847e-12
      382.181   7.09641e-12
      382.283   7.25631e-12
      382.385   7.41829e-12
      382.487   7.58242e-12
      382.589   7.74833e-12
      382.691   7.91621e-12
      382.793   8.08608e-12
      382.895   8.25797e-12
      382.997   8.43178e-12
      383.099   8.60749e-12
      383.201   8.78497e-12
      383.303   8.96454e-12
      383.405   9.14580e-12
      383.507   9.32880e-12
      383.610   9.51553e-12
      383.712   9.70232e-12
      383.814   9.89067e-12
      383.916   1.00808e-11
      384.019   1.02746e-11
      384.121   1.04683e-11
      384.223   1.06634e-11
      384.326   1.08622e-11
      384.428   1.10605e-11
      384.531   1.12622e-11
      384.633   1.14636e-11
      384.736   1.16685e-11
      384.838   1.18729e-11
      384.941   1.20807e-11
      385.043   1.22879e-11
      385.146   1.24986e-11
      385.249   1.27107e-11
      385.351   1.29220e-11
      385.454   1.31368e-11
      385.557   1.33527e-11
      385.660   1.35701e-11
      385.762   1.37864e-11
      385.865   1.40059e-11
      385.968   1.42268e-11
      386.071   1.44488e-11
      386.174   1.46718e-11
      386.277   1.48958e-11
      386.380   1.51207e-11
      386.483   1.53467e-11
      386.586   1.55736e-11
      386.689   1.58014e-11
      386.792   1.60300e-11
      386.895   1.62595e-11
      386.998   1.64897e-11
      387.101   1.66447e-11
      387.204   1.65381e-11
      387.308   1.63427e-11
      387.411   1.61515e-11
      387.514   1.59626e-11
      387.617   1.57760e-11
      387.721   1.55899e-11
      387.824   1.54077e-11
      387.927   1.52275e-11
      388.031   1.50479e-11
      388.134   1.48722e-11
      388.238   1.46969e-11
      388.341   1.45252e-11
      388.445   1.43540e-11
      388.548   1.41863e-11
      388.652   1.40191e-11
      388.755   1.38555e-11
      388.859   1.36922e-11
      388.962   1.35324e-11
      389.066   1.33729e-11
      389.170   1.32154e-11
      389.274   1.30597e-11
      389.377   1.29072e-11
      389.481   1.27550e-11
      389.585   1.26047e-11
      389.689   1.24562e-11
      389.793   1.23093e-11
      389.897   1.21643e-11
      390.000   1.20223e-11
      390.104   1.18806e-11
      390.208   1.17405e-11
      390.312   1.16021e-11
      390.416   1.14652e-11
      390.520   1.13298e-11
      390.625   1.11946e-11
      390.729   1.10625e-11
      390.833   1.09318e-11
      390.937   1.08027e-11
      391.041   1.06751e-11
      391.145   1.05490e-11
      391.250   1.04231e-11
      391.354   1.02999e-11
      391.458   1.01780e-11
      391.563   1.00564e-11
      391.667   9.93741e-12
      391.771   9.81985e-12
      391.876   9.70254e-12
      391.980   9.58773e-12
      392.085   9.47323e-12
      392.189   9.36118e-12
      392.294   9.24938e-12
      392.398   9.14000e-12
      392.503   9.03087e-12
      392.607   8.92408e-12
      392.712   8.81758e-12
      392.817   8.71228e-12
      392.921   8.60933e-12
      393.026   8.50657e-12
      393.131   8.40510e-12
      393.236   8.30474e-12
      393.340   8.20662e-12
      393.445   8.10875e-12
      393.550   8.01204e-12
      393.655   7.91647e-12
      393.760   7.82208e-12
      393.865   7.72880e-12
      393.970   7.63671e-12
      394.075   7.54564e-12
      394.180   7.45574e-12
      394.285   7.36690e-12
      394.390   7.27914e-12
      394.495   7.19238e-12
      394.600   7.10672e-12
      394.706   7.02130e-12
      394.811   6.93771e-12
      394.916   6.85506e-12
      395.021   6.77344e-12
      395.126   6.69287e-12
      395.232   6.61243e-12
      395.337   6.53373e-12
      395.443   6.45529e-12
      395.548   6.37850e-12
      395.653   6.30266e-12
      395.759   6.22698e-12
      395.864   6.15296e-12
      395.970   6.07913e-12
      396.075   6.00688e-12
      396.181   5.93480e-12
      396.286   5.86425e-12
      396.392   5.79396e-12
      396.498   5.72450e-12
      396.603   5.65646e-12
      396.709   5.58866e-12
      396.815   5.52164e-12
      396.921   5.45541e-12
      397.026   5.39065e-12
      397.132   5.32600e-12
      397.238   5.26220e-12
      397.344   5.19908e-12
      397.450   5.13685e-12
      397.556   5.07526e-12
      397.662   5.01441e-12
      397.768   4.95431e-12
      397.874   4.89490e-12
      397.980   4.83621e-12
      398.086   4.77820e-12
      398.192   4.72092e-12
      398.298   4.66431e-12
      398.404   4.60839e-12
      398.510   4.55311e-12
      398.617   4.49805e-12
      398.723   4.44411e-12
      398.829   4.39080e-12
      398.935   4.33813e-12
      399.042   4.28564e-12
      399.148   4.23421e-12
      399.255   4.18297e-12
      399.361   4.13280e-12
      399.467   4.08318e-12
      399.574   4.03376e-12
      399.680   3.98534e-12
      399.787   3.93705e-12
      399.893       0.00000
      400.000       0.00000
