Filter Be-med
observation_date 22-Sept-2010 22:40:45
wavelength effective area 
      1.00000   2.78116e-10
      1.10000   7.93782e-10
      1.20000   2.06300e-09
      1.30000   4.93144e-09
      1.40000   1.11853e-08
      1.50000   2.38512e-08
      1.60000   4.82569e-08
      1.70000   9.36224e-08
      1.80000   1.74166e-07
      1.90000   3.12754e-07
      2.00000   5.43178e-07
      2.10000   9.16426e-07
      2.20000   1.50918e-06
      2.30000   2.42259e-06
      2.40000   3.79740e-06
      2.50000   5.79349e-06
      2.60000   8.82472e-06
      2.70000   1.31296e-05
      2.80000   1.91575e-05
      2.90000   2.76594e-05
      3.00000   3.93035e-05
      3.10000   5.51218e-05
      3.20000   7.64464e-05
      3.30000   0.000104918
      3.40000   0.000142460
      3.50000   0.000191517
      3.60000   0.000256208
      3.70000   0.000339030
      3.80000   0.000446631
      3.90000   0.000584948
      4.00000   0.000761113
      4.10000   0.000985451
      4.20000    0.00127112
      4.30000    0.00163445
      4.40000    0.00209533
      4.50000    0.00267793
      4.60000    0.00340997
      4.70000    0.00434033
      4.80000    0.00551668
      4.90000    0.00691979
      5.00000    0.00890378
      5.10000     0.0112922
      5.20000     0.0143558
      5.30000     0.0180915
      5.40000     0.0227504
      5.50000     0.0286471
      5.60000     0.0349527
      5.70000     0.0449103
      5.80000     0.0520042
      5.90000     0.0784009
      6.00000      0.104015
      6.10000      0.131138
      6.20000      0.158814
      6.30000      0.184285
      6.40000      0.205021
      6.50000      0.218907
      6.60000      0.223046
      6.70000      0.226202
      6.80000      0.222741
      6.90000      0.287180
      7.00000      0.306729
      7.10000      0.318415
      7.20000      0.325874
      7.30000      0.330280
      7.40000      0.331662
      7.50000      0.331042
      7.60000      0.328582
      7.70000      0.323540
      7.80000      0.315471
      7.90000      0.307739
      8.00000      0.434113
      8.10000      0.463526
      8.20000      0.459085
      8.30000      0.452438
      8.40000      0.443798
      8.50000      0.434297
      8.60000      0.423905
      8.70000      0.412944
      8.80000      0.401385
      8.90000      0.389447
      9.00000      0.377178
      9.10000      0.364652
      9.20000      0.351960
      9.30000      0.339167
      9.40000      0.326312
      9.50000      0.313441
      9.60000      0.300639
      9.70000      0.287910
      9.80000      0.275311
      9.90000      0.262912
      10.0000      0.250743
      10.1000      0.238796
      10.2000      0.227095
      10.3000      0.215679
      10.4000      0.204569
      10.5000      0.193753
      10.6000      0.183245
      10.7000      0.173058
      10.8000      0.163217
      10.9000      0.153750
      11.0000      0.144628
      11.1000      0.135858
      11.2000      0.127441
      11.3000      0.119379
      11.4000      0.111667
      11.5000      0.104303
      11.6000     0.0972832
      11.7000     0.0906181
      11.8000     0.0842858
      11.9000     0.0782647
      12.0000     0.0724782
      12.1000     0.0672429
      12.2000     0.0634381
      12.3000     0.0591602
      12.4000     0.0546912
      12.5000     0.0504579
      12.6000     0.0464758
      12.7000     0.0427442
      12.8000     0.0392544
      12.9000     0.0359956
      13.0000     0.0329594
      13.1000     0.0301358
      13.2000     0.0275181
      13.3000     0.0251083
      13.4000     0.0228877
      13.5000     0.0208364
      13.6000     0.0189559
      13.7000     0.0172222
      13.8000     0.0156255
      13.9000     0.0141572
      14.0000     0.0128086
      14.1000     0.0115693
      14.2000     0.0104311
      14.3000    0.00938798
      14.4000    0.00843455
      14.5000    0.00756951
      14.6000    0.00678921
      14.7000    0.00607877
      14.8000    0.00543281
      14.9000    0.00484626
      15.0000    0.00431448
      15.1000    0.00383322
      15.2000    0.00340722
      15.3000    0.00302403
      15.4000    0.00267825
      15.5000    0.00236670
      15.6000    0.00208657
      15.7000    0.00183867
      15.8000    0.00162033
      15.9000    0.00142439
      16.0000    0.00124885
      16.1000    0.00109191
      16.2000   0.000956055
      16.3000   0.000836010
      16.4000   0.000728783
      16.5000   0.000633232
      16.6000   0.000550152
      16.7000   0.000478301
      16.8000   0.000414307
      16.9000   0.000357489
      17.0000   0.000308599
      17.1000   0.000266787
      17.2000   0.000229825
      17.3000   0.000197276
      17.4000   0.000169996
      17.5000   0.000146171
      17.6000   0.000125195
      17.7000   0.000107347
      17.8000   9.28673e-05
      17.9000   7.99946e-05
      18.0000   6.85481e-05
      18.1000   5.91132e-05
      18.2000   5.06588e-05
      18.3000   4.30468e-05
      18.4000   3.65585e-05
      18.5000   3.09186e-05
      18.6000   2.58795e-05
      18.7000   2.16294e-05
      18.8000   1.80698e-05
      18.9000   1.49487e-05
      19.0000   1.24200e-05
      19.1000   1.03135e-05
      19.2000   8.46971e-06
      19.3000   7.00766e-06
      19.4000   5.78998e-06
      19.5000   4.73661e-06
      19.6000   3.94907e-06
      19.7000   3.26516e-06
      19.8000   2.67318e-06
      19.9000   2.22279e-06
      20.0000   1.82172e-06
      20.1000   1.49262e-06
      20.2000   1.22953e-06
      20.3000   9.96925e-07
      20.4000   8.19051e-07
      20.5000   6.66968e-07
      20.6000   5.37882e-07
      20.7000   4.40683e-07
      20.8000   3.53945e-07
      20.9000   2.87335e-07
      21.0000   2.31850e-07
      21.1000   1.84722e-07
      21.2000   1.50006e-07
      21.3000   1.18882e-07
      21.4000   9.57764e-08
      21.5000   7.62248e-08
      21.6000   6.02758e-08
      21.7000   4.82317e-08
      21.8000   3.74918e-08
      21.9000   3.00795e-08
      22.0000   2.34126e-08
      22.1000   1.84763e-08
      22.2000   1.44342e-08
      22.3000   1.11696e-08
      22.4000   8.64674e-09
      22.5000   6.36542e-09
      22.6000   4.58555e-09
      22.7000   3.10137e-09
      22.8000   2.96811e-09
      22.9000   2.93727e-09
      23.0000   2.98770e-09
      23.1000   2.78601e-09
      23.2000   2.34972e-09
      23.3000   1.91997e-09
      23.4000   1.49429e-09
      23.5000   1.18803e-09
      23.6000   9.11473e-10
      23.7000   7.25749e-10
      23.8000   5.50045e-10
      23.9000   4.37797e-10
      24.0000   3.31315e-10
      24.1000   2.61543e-10
      24.2000   1.97495e-10
      24.3000   1.54780e-10
      24.4000   1.16658e-10
      24.5000   9.08058e-11
      24.6000   6.82634e-11
      24.7000   5.28268e-11
      24.8000   3.95925e-11
      24.9000   3.04853e-11
      25.0000   2.27567e-11
      25.1000   1.74530e-11
      25.2000   1.29635e-11
      25.3000   9.91302e-12
      25.4000   7.31707e-12
      25.5000   5.58596e-12
      25.6000   4.09233e-12
      25.7000   3.12279e-12
      25.8000   2.26731e-12
      25.9000   1.73155e-12
      26.0000   1.24400e-12
      26.1000   9.51938e-13
      26.2000   6.75606e-13
      26.3000   5.18654e-13
      26.4000   3.63083e-13
      26.5000   2.79934e-13
      26.6000   1.97127e-13
      26.7000   1.49582e-13
      26.8000   1.06366e-13
      26.9000   7.90876e-14
      27.0000   5.68582e-14
      27.1000   4.13303e-14
      27.2000   3.00674e-14
      27.3000   2.13523e-14
      27.4000   1.58038e-14
      27.5000   1.09876e-14
      27.6000   8.21956e-15
      27.7000   5.54238e-15
      27.8000   4.20128e-15
      27.9000   2.86553e-15
      28.0000   2.11511e-15
      28.1000   1.48063e-15
      28.2000   1.04889e-15
      28.3000   7.52621e-16
      28.4000   5.11934e-16
      28.5000   3.75979e-16
      28.6000   2.45719e-16
      28.7000   1.84447e-16
      28.8000   1.23423e-16
      28.9000   8.87992e-17
      29.0000   6.17697e-17
      29.1000   4.19112e-17
      29.2000   3.01596e-17
      29.3000   1.93796e-17
      29.4000   1.43673e-17
      29.5000   9.37550e-18
      29.6000   6.67806e-18
      29.7000   4.59035e-18
      29.8000   3.02881e-18
      29.9000   2.17272e-18
      30.0000   1.34021e-18
      30.1000   9.96229e-19
      30.2000   6.53648e-19
      30.3000   4.46643e-19
      30.4000   3.17348e-19
      30.5000   2.04048e-19
      30.6000   1.48712e-19
      30.7000   9.36015e-20
      30.8000   6.48550e-20
      30.9000   4.40819e-20
      31.0000   2.73945e-20
      31.1000   1.98344e-20
      31.2000   1.23051e-20
      31.3000   8.66445e-21
      31.4000   5.86406e-21
      31.5000   3.64133e-21
      31.6000   2.62221e-21
      31.7000   1.60728e-21
      31.8000   1.11434e-21
      31.9000   7.53592e-22
      32.0000   4.54639e-22
      32.1000   3.31658e-22
      32.2000   2.09178e-22
      32.3000   1.41439e-22
      32.4000   9.79224e-23
      32.5000   5.76707e-23
      32.6000   4.25474e-23
      32.7000   2.74853e-23
      32.8000   1.74629e-23
      32.9000   1.23403e-23
      33.0000   7.23870e-24
      33.1000   5.13173e-24
      33.2000   3.43616e-24
      33.3000   2.01315e-24
      33.4000   1.46208e-24
      33.5000   9.13221e-25
      33.6000   5.77187e-25
      33.7000   4.02994e-25
      33.8000   2.29481e-25
      33.9000   1.61009e-25
      34.0000   1.07240e-25
      34.1000   5.99374e-26
      34.2000   4.36829e-26
      34.3000   2.74864e-26
      34.4000   1.62908e-26
      34.5000   1.15170e-26
      34.6000   6.76065e-27
      34.7000   4.31694e-27
      34.8000   2.95017e-27
      34.9000   1.58826e-27
      35.0000   1.11455e-27
      35.1000   7.33903e-28
      35.2000   3.84272e-28
      35.3000   2.80706e-28
      35.4000   1.77508e-28
      35.5000   9.63175e-29
      35.6000   6.90007e-29
      35.7000   4.17808e-29
      35.8000   2.35704e-29
      35.9000   1.65641e-29
      36.0000   9.58264e-30
      36.1000   5.63176e-30
      36.2000   3.88590e-30
      36.3000   2.14621e-30
      36.4000   1.31434e-30
      36.5000   8.91814e-31
      36.6000   4.70812e-31
      36.7000   2.99670e-31
      36.8000   2.00416e-31
      36.9000   1.01519e-31
      37.0000   6.67534e-32
      37.1000   4.41358e-32
      37.2000   2.15977e-32
      37.3000   1.45249e-32
      37.4000   9.52918e-33
      37.5000   4.55136e-33
      37.6000   3.08693e-33
      37.7000   2.01812e-33
      37.8000   9.53140e-34
      37.9000   6.40684e-34
      38.0000   4.19226e-34
      38.1000   1.98552e-34
      38.2000   1.29735e-34
      38.3000   8.53324e-35
      38.4000   4.10870e-35
      38.5000   2.55945e-35
      38.6000   1.69937e-35
      38.7000   8.42325e-36
      38.8000   4.91663e-36
      38.9000   3.30733e-36
      39.0000   1.70365e-36
      39.1000   9.18829e-37
      39.2000   6.27992e-37
      39.3000   3.38167e-37
      39.4000   1.66599e-37
      39.5000   1.15579e-37
      39.6000   6.47399e-38
      39.7000   2.84336e-38
      39.8000   2.01162e-38
      39.9000   1.18277e-38
      40.0000   4.68069e-39
      40.1000   3.38030e-39
      40.2000   2.08442e-39
      40.3000   7.93187e-40
      40.4000   5.48575e-40
      40.5000   3.53742e-40
      40.6000   1.59581e-40
      40.7000   8.57595e-41
      40.8000   5.76242e-41
      40.9000   2.95856e-41
      41.0000   1.28849e-41
      41.1000   8.98793e-42
      41.2000   5.10493e-42
      41.3000   1.85952e-42
      41.4000   1.33824e-42
      41.5000   8.23963e-43
      41.6000   3.12490e-43
      41.7000   1.89175e-43
      41.8000   1.24716e-43
      41.9000   5.74532e-44
      42.0000   2.52234e-44
      42.1000   2.24208e-44
      42.2000   9.80909e-45
      42.3000   2.80260e-45
      42.4000   2.80260e-45
      42.5000   2.80260e-45
      42.6000  -2.80260e-45
      42.7000       0.00000
      42.8000       0.00000
      42.9000       0.00000
      43.0000       0.00000
      43.1000       0.00000
      43.2000       0.00000
      43.3000       0.00000
      43.4000       0.00000
      43.5000       0.00000
      43.6000       0.00000
      43.7000       0.00000
      43.8000       0.00000
      43.9000       0.00000
      44.0000       0.00000
      44.1000       0.00000
      44.2000       0.00000
      44.3000       0.00000
      44.4000       0.00000
      44.5000       0.00000
      44.6000       0.00000
      44.7000       0.00000
      44.8000       0.00000
      44.9000       0.00000
      45.0000       0.00000
      45.1000       0.00000
      45.2000       0.00000
      45.3000       0.00000
      45.4000       0.00000
      45.5000       0.00000
      45.6000       0.00000
      45.7000       0.00000
      45.8000       0.00000
      45.9000       0.00000
      46.0000       0.00000
      46.1000       0.00000
      46.2000       0.00000
      46.3000       0.00000
      46.4000       0.00000
      46.5000       0.00000
      46.6000       0.00000
      46.7000       0.00000
      46.8000       0.00000
      46.9000       0.00000
      47.0000       0.00000
      47.1000       0.00000
      47.2000       0.00000
      47.3000       0.00000
      47.4000       0.00000
      47.5000       0.00000
      47.6000       0.00000
      47.7000       0.00000
      47.8000       0.00000
      47.9000       0.00000
      48.0000       0.00000
      48.1000       0.00000
      48.2000       0.00000
      48.3000       0.00000
      48.4000       0.00000
      48.5000       0.00000
      48.6000       0.00000
      48.7000       0.00000
      48.8000       0.00000
      48.9000       0.00000
      49.0000       0.00000
      49.1000       0.00000
      49.2000       0.00000
      49.3000       0.00000
      49.4000       0.00000
      49.5000       0.00000
      49.6000       0.00000
      49.7000       0.00000
      49.8000       0.00000
      49.9000       0.00000
      50.0000       0.00000
      50.1000       0.00000
      50.2000       0.00000
      50.3000       0.00000
      50.4000       0.00000
      50.5000       0.00000
      50.6000       0.00000
      50.7000       0.00000
      50.8000       0.00000
      50.9000       0.00000
      51.0000       0.00000
      51.1000       0.00000
      51.2000       0.00000
      51.3000       0.00000
      51.4000       0.00000
      51.5000       0.00000
      51.6000       0.00000
      51.7000       0.00000
      51.8000       0.00000
      51.9000       0.00000
      52.0000       0.00000
      52.1000       0.00000
      52.2000       0.00000
      52.3000       0.00000
      52.4000       0.00000
      52.5000       0.00000
      52.6000       0.00000
      52.7000       0.00000
      52.8000       0.00000
      52.9000       0.00000
      53.0000       0.00000
      53.1000       0.00000
      53.2000       0.00000
      53.3000       0.00000
      53.4000       0.00000
      53.5000       0.00000
      53.6000       0.00000
      53.7000       0.00000
      53.8000       0.00000
      53.9000       0.00000
      54.0000       0.00000
      54.1000       0.00000
      54.2000       0.00000
      54.3000       0.00000
      54.4000       0.00000
      54.5000       0.00000
      54.6000       0.00000
      54.7000       0.00000
      54.8000       0.00000
      54.9000       0.00000
      55.0000       0.00000
      55.1000       0.00000
      55.2000       0.00000
      55.3000       0.00000
      55.4000       0.00000
      55.5000       0.00000
      55.6000       0.00000
      55.7000       0.00000
      55.8000       0.00000
      55.9000       0.00000
      56.0000       0.00000
      56.1000       0.00000
      56.2000       0.00000
      56.3000       0.00000
      56.4000       0.00000
      56.5000       0.00000
      56.6000       0.00000
      56.7000       0.00000
      56.8000       0.00000
      56.9000       0.00000
      57.0000       0.00000
      57.1000       0.00000
      57.2000       0.00000
      57.3000       0.00000
      57.4000       0.00000
      57.5000       0.00000
      57.6000       0.00000
      57.7000       0.00000
      57.8000       0.00000
      57.9000       0.00000
      58.0000       0.00000
      58.1000       0.00000
      58.2000       0.00000
      58.3000       0.00000
      58.4000       0.00000
      58.5000       0.00000
      58.6000       0.00000
      58.7000       0.00000
      58.8000       0.00000
      58.9000       0.00000
      59.0000       0.00000
      59.1000       0.00000
      59.2000       0.00000
      59.3000       0.00000
      59.4000       0.00000
      59.5000       0.00000
      59.6000       0.00000
      59.7000       0.00000
      59.8000       0.00000
      59.9000       0.00000
      60.0000       0.00000
      60.1000       0.00000
      60.2000       0.00000
      60.3000       0.00000
      60.4000       0.00000
      60.5000       0.00000
      60.6000       0.00000
      60.7000       0.00000
      60.8000       0.00000
      60.9000       0.00000
      61.0000       0.00000
      61.1000       0.00000
      61.2000       0.00000
      61.3000       0.00000
      61.4000       0.00000
      61.5000       0.00000
      61.6000       0.00000
      61.7000       0.00000
      61.8000       0.00000
      61.9000       0.00000
      62.0000       0.00000
      62.1000       0.00000
      62.2000       0.00000
      62.3000       0.00000
      62.4000       0.00000
      62.5000       0.00000
      62.6000       0.00000
      62.7000       0.00000
      62.8000       0.00000
      62.9000       0.00000
      63.0000       0.00000
      63.1000       0.00000
      63.2000       0.00000
      63.3000       0.00000
      63.4000       0.00000
      63.5000       0.00000
      63.6000       0.00000
      63.7000       0.00000
      63.8000       0.00000
      63.9000       0.00000
      64.0000       0.00000
      64.1000       0.00000
      64.2000       0.00000
      64.3000       0.00000
      64.4000       0.00000
      64.5000       0.00000
      64.6000       0.00000
      64.7000       0.00000
      64.8000       0.00000
      64.9000       0.00000
      65.0000       0.00000
      65.1000       0.00000
      65.2000       0.00000
      65.3000       0.00000
      65.4000       0.00000
      65.5000       0.00000
      65.6000       0.00000
      65.7000       0.00000
      65.8000       0.00000
      65.9000       0.00000
      66.0000       0.00000
      66.1000       0.00000
      66.2000       0.00000
      66.3000       0.00000
      66.4000       0.00000
      66.5000       0.00000
      66.6000       0.00000
      66.7000       0.00000
      66.8000       0.00000
      66.9000       0.00000
      67.0000       0.00000
      67.1000       0.00000
      67.2000       0.00000
      67.3000       0.00000
      67.4000       0.00000
      67.5000       0.00000
      67.6000       0.00000
      67.7000       0.00000
      67.8000       0.00000
      67.9000       0.00000
      68.0000       0.00000
      68.1000       0.00000
      68.2000       0.00000
      68.3000       0.00000
      68.4000       0.00000
      68.5000       0.00000
      68.6000       0.00000
      68.7000       0.00000
      68.8000       0.00000
      68.9000       0.00000
      69.0000       0.00000
      69.1000       0.00000
      69.2000       0.00000
      69.3000       0.00000
      69.4000       0.00000
      69.5000       0.00000
      69.6000       0.00000
      69.7000       0.00000
      69.8000       0.00000
      69.9000       0.00000
      70.0000       0.00000
      70.1000       0.00000
      70.2000       0.00000
      70.3000       0.00000
      70.4000       0.00000
      70.5000       0.00000
      70.6000       0.00000
      70.7000       0.00000
      70.8000       0.00000
      70.9000       0.00000
      71.0000       0.00000
      71.1000       0.00000
      71.2000       0.00000
      71.3000       0.00000
      71.4000       0.00000
      71.5000       0.00000
      71.6000       0.00000
      71.7000       0.00000
      71.8000       0.00000
      71.9000       0.00000
      72.0000       0.00000
      72.1000       0.00000
      72.2000       0.00000
      72.3000       0.00000
      72.4000       0.00000
      72.5000       0.00000
      72.6000       0.00000
      72.7000       0.00000
      72.8000       0.00000
      72.9000       0.00000
      73.0000       0.00000
      73.1000       0.00000
      73.2000       0.00000
      73.3000       0.00000
      73.4000       0.00000
      73.5000       0.00000
      73.6000       0.00000
      73.7000       0.00000
      73.8000       0.00000
      73.9000       0.00000
      74.0000       0.00000
      74.1000       0.00000
      74.2000       0.00000
      74.3000       0.00000
      74.4000       0.00000
      74.5000       0.00000
      74.6000       0.00000
      74.7000       0.00000
      74.8000       0.00000
      74.9000       0.00000
      75.0000       0.00000
      75.1000       0.00000
      75.2000       0.00000
      75.3000       0.00000
      75.4000       0.00000
      75.5000       0.00000
      75.6000       0.00000
      75.7000       0.00000
      75.8000       0.00000
      75.9000       0.00000
      76.0000       0.00000
      76.1000       0.00000
      76.2000       0.00000
      76.3000       0.00000
      76.4000       0.00000
      76.5000       0.00000
      76.6000       0.00000
      76.7000       0.00000
      76.8000       0.00000
      76.9000       0.00000
      77.0000       0.00000
      77.1000       0.00000
      77.2000       0.00000
      77.3000       0.00000
      77.4000       0.00000
      77.5000       0.00000
      77.6000       0.00000
      77.7000       0.00000
      77.8000       0.00000
      77.9000       0.00000
      78.0000       0.00000
      78.1000       0.00000
      78.2000       0.00000
      78.3000       0.00000
      78.4000       0.00000
      78.5000       0.00000
      78.6000       0.00000
      78.7000       0.00000
      78.8000       0.00000
      78.9000       0.00000
      79.0000       0.00000
      79.1000       0.00000
      79.2000       0.00000
      79.3000       0.00000
      79.4000       0.00000
      79.5000       0.00000
      79.6000       0.00000
      79.7000       0.00000
      79.8000       0.00000
      79.9000       0.00000
      80.0000       0.00000
      80.1000       0.00000
      80.2000       0.00000
      80.3000       0.00000
      80.4000       0.00000
      80.5000       0.00000
      80.6000       0.00000
      80.7000       0.00000
      80.8000       0.00000
      80.9000       0.00000
      81.0000       0.00000
      81.1000       0.00000
      81.2000       0.00000
      81.3000       0.00000
      81.4000       0.00000
      81.5000       0.00000
      81.6000       0.00000
      81.7000       0.00000
      81.8000       0.00000
      81.9000       0.00000
      82.0000       0.00000
      82.1000       0.00000
      82.2000       0.00000
      82.3000       0.00000
      82.4000       0.00000
      82.5000       0.00000
      82.6000       0.00000
      82.7000       0.00000
      82.8000       0.00000
      82.9000       0.00000
      83.0000       0.00000
      83.1000       0.00000
      83.2000       0.00000
      83.3000       0.00000
      83.4000       0.00000
      83.5000       0.00000
      83.6000       0.00000
      83.7000       0.00000
      83.8000       0.00000
      83.9000       0.00000
      84.0000       0.00000
      84.1000       0.00000
      84.2000       0.00000
      84.3000       0.00000
      84.4000       0.00000
      84.5000       0.00000
      84.6000       0.00000
      84.7000       0.00000
      84.8000       0.00000
      84.9000       0.00000
      85.0000       0.00000
      85.1000       0.00000
      85.2000       0.00000
      85.3000       0.00000
      85.4000       0.00000
      85.5000       0.00000
      85.6000       0.00000
      85.7000       0.00000
      85.8000       0.00000
      85.9000       0.00000
      86.0000       0.00000
      86.1000       0.00000
      86.2000       0.00000
      86.3000       0.00000
      86.4000       0.00000
      86.5000       0.00000
      86.6000       0.00000
      86.7000       0.00000
      86.8000       0.00000
      86.9000       0.00000
      87.0000       0.00000
      87.1000       0.00000
      87.2000       0.00000
      87.3000       0.00000
      87.4000       0.00000
      87.5000       0.00000
      87.6000       0.00000
      87.7000       0.00000
      87.8000       0.00000
      87.9000       0.00000
      88.0000       0.00000
      88.1000       0.00000
      88.2000       0.00000
      88.3000       0.00000
      88.4000       0.00000
      88.5000       0.00000
      88.6000       0.00000
      88.7000       0.00000
      88.8000       0.00000
      88.9000       0.00000
      89.0000       0.00000
      89.1000       0.00000
      89.2000       0.00000
      89.3000       0.00000
      89.4000       0.00000
      89.5000       0.00000
      89.6000       0.00000
      89.7000       0.00000
      89.8000       0.00000
      89.9000       0.00000
      90.0000       0.00000
      90.1000       0.00000
      90.2000       0.00000
      90.3000       0.00000
      90.4000       0.00000
      90.5000       0.00000
      90.6000       0.00000
      90.7000       0.00000
      90.8000       0.00000
      90.9000       0.00000
      91.0000       0.00000
      91.1000       0.00000
      91.2000       0.00000
      91.3000       0.00000
      91.4000       0.00000
      91.5000       0.00000
      91.6000       0.00000
      91.7000       0.00000
      91.8000       0.00000
      91.9000       0.00000
      92.0000       0.00000
      92.1000       0.00000
      92.2000       0.00000
      92.3000       0.00000
      92.4000       0.00000
      92.5000       0.00000
      92.6000       0.00000
      92.7000       0.00000
      92.8000       0.00000
      92.9000       0.00000
      93.0000       0.00000
      93.1000       0.00000
      93.2000       0.00000
      93.3000       0.00000
      93.4000       0.00000
      93.5000       0.00000
      93.6000       0.00000
      93.7000       0.00000
      93.8000       0.00000
      93.9000       0.00000
      94.0000       0.00000
      94.1000       0.00000
      94.2000       0.00000
      94.3000       0.00000
      94.4000       0.00000
      94.5000       0.00000
      94.6000       0.00000
      94.7000       0.00000
      94.8000       0.00000
      94.9000       0.00000
      95.0000       0.00000
      95.1000       0.00000
      95.2000       0.00000
      95.3000       0.00000
      95.4000       0.00000
      95.5000       0.00000
      95.6000       0.00000
      95.7000       0.00000
      95.8000       0.00000
      95.9000       0.00000
      96.0000       0.00000
      96.1000       0.00000
      96.2000       0.00000
      96.3000       0.00000
      96.4000       0.00000
      96.5000       0.00000
      96.6000       0.00000
      96.7000       0.00000
      96.8000       0.00000
      96.9000       0.00000
      97.0000       0.00000
      97.1000       0.00000
      97.2000       0.00000
      97.3000       0.00000
      97.4000       0.00000
      97.5000       0.00000
      97.6000       0.00000
      97.7000       0.00000
      97.8000       0.00000
      97.9000       0.00000
      98.0000       0.00000
      98.1000       0.00000
      98.2000       0.00000
      98.3000       0.00000
      98.4000       0.00000
      98.5000       0.00000
      98.6000       0.00000
      98.7000       0.00000
      98.8000       0.00000
      98.9000       0.00000
      99.0000       0.00000
      99.1000       0.00000
      99.2000       0.00000
      99.3000       0.00000
      99.4000       0.00000
      99.5000       0.00000
      99.6000       0.00000
      99.7000       0.00000
      99.8000       0.00000
      99.9000       0.00000
      100.000       0.00000
      100.100       0.00000
      100.200       0.00000
      100.300       0.00000
      100.400       0.00000
      100.500       0.00000
      100.600       0.00000
      100.700       0.00000
      100.800       0.00000
      100.900       0.00000
      101.000       0.00000
      101.100       0.00000
      101.200       0.00000
      101.300       0.00000
      101.400       0.00000
      101.500       0.00000
      101.600       0.00000
      101.700       0.00000
      101.800       0.00000
      101.900       0.00000
      102.000       0.00000
      102.100       0.00000
      102.200       0.00000
      102.300       0.00000
      102.400       0.00000
      102.500       0.00000
      102.600       0.00000
      102.700       0.00000
      102.800       0.00000
      102.900       0.00000
      103.000       0.00000
      103.100       0.00000
      103.200       0.00000
      103.300       0.00000
      103.400       0.00000
      103.500       0.00000
      103.600       0.00000
      103.700       0.00000
      103.800       0.00000
      103.900       0.00000
      104.000       0.00000
      104.100       0.00000
      104.200       0.00000
      104.300       0.00000
      104.400       0.00000
      104.500       0.00000
      104.600       0.00000
      104.700       0.00000
      104.800       0.00000
      104.900       0.00000
      105.000       0.00000
      105.100       0.00000
      105.200       0.00000
      105.300       0.00000
      105.400       0.00000
      105.500       0.00000
      105.600       0.00000
      105.700       0.00000
      105.800       0.00000
      105.900       0.00000
      106.000       0.00000
      106.100       0.00000
      106.200       0.00000
      106.300       0.00000
      106.400       0.00000
      106.500       0.00000
      106.600       0.00000
      106.700       0.00000
      106.800       0.00000
      106.900       0.00000
      107.000       0.00000
      107.100       0.00000
      107.200       0.00000
      107.300       0.00000
      107.400       0.00000
      107.500       0.00000
      107.600       0.00000
      107.700       0.00000
      107.800       0.00000
      107.900       0.00000
      108.000       0.00000
      108.100       0.00000
      108.200       0.00000
      108.300       0.00000
      108.400       0.00000
      108.500       0.00000
      108.600       0.00000
      108.700       0.00000
      108.800       0.00000
      108.900       0.00000
      109.000       0.00000
      109.100       0.00000
      109.200       0.00000
      109.300       0.00000
      109.400       0.00000
      109.500       0.00000
      109.600       0.00000
      109.700       0.00000
      109.800       0.00000
      109.900       0.00000
      110.000       0.00000
      110.100       0.00000
      110.200       0.00000
      110.300       0.00000
      110.400       0.00000
      110.500       0.00000
      110.600       0.00000
      110.700       0.00000
      110.800       0.00000
      110.900   5.29611e-35
      111.000   2.84274e-28
      111.100   3.35716e-24
      111.200   4.66262e-23
      111.300   2.35154e-22
      111.400   7.77343e-22
      111.500   1.03070e-21
      111.600   1.39754e-21
      111.700   2.57990e-21
      111.800   4.68071e-21
      111.900   6.12379e-21
      112.000   9.84681e-21
      112.100   1.76453e-20
      112.200   2.68968e-20
      112.300   3.45592e-20
      112.400   4.32339e-20
      112.500   5.74862e-20
      112.600   8.17048e-20
      112.700   1.11129e-19
      112.800   1.28404e-19
      112.900   1.66518e-19
      113.000   2.13103e-19
      113.100   2.55340e-19
      113.200   2.93539e-19
      113.300   2.98880e-19
      113.400   3.73988e-19
      113.500   4.62953e-19
      113.600   4.77681e-19
      113.700   5.75457e-19
      113.800   6.55237e-19
      113.900   7.29738e-19
      114.000   7.77699e-19
      114.100   8.11877e-19
      114.200   1.04540e-18
      114.300   1.20264e-18
      114.400   1.16793e-18
      114.500   1.07059e-18
      114.600   1.06831e-18
      114.700   1.08685e-18
      114.800   1.13445e-18
      114.900   1.25389e-18
      115.000   1.37751e-18
      115.100   1.45968e-18
      115.200   1.48247e-18
      115.300   1.50697e-18
      115.400   1.53050e-18
      115.500   1.55503e-18
      115.600   1.57931e-18
      115.700   1.60300e-18
      115.800   1.62824e-18
      115.900   1.65318e-18
      116.000   1.67427e-18
      116.100   1.68344e-18
      116.200   1.69084e-18
      116.300   1.69786e-18
      116.400   1.69796e-18
      116.500   1.66179e-18
      116.600   1.62601e-18
      116.700   1.59129e-18
      116.800   1.55696e-18
      116.900   1.52195e-18
      117.000   1.48928e-18
      117.100   1.46169e-18
      117.200   1.43766e-18
      117.300   1.41109e-18
      117.400   1.38481e-18
      117.500   1.35259e-18
      117.600   1.30652e-18
      117.700   1.25787e-18
      117.800   1.21022e-18
      117.900   1.16397e-18
      118.000   1.11877e-18
      118.100   1.07469e-18
      118.200   1.03285e-18
      118.300   9.92825e-19
      118.400   9.52071e-19
      118.500   9.13150e-19
      118.600   8.76747e-19
      118.700   8.41451e-19
      118.800   8.07121e-19
      118.900   7.74458e-19
      119.000   7.42110e-19
      119.100   7.10008e-19
      119.200   6.85903e-19
      119.300   6.73125e-19
      119.400   6.63534e-19
      119.500   6.51220e-19
      119.600   6.34210e-19
      119.700   6.15678e-19
      119.800   5.96400e-19
      119.900   5.76057e-19
      120.000   5.56865e-19
      120.100   5.38672e-19
      120.200   5.22932e-19
      120.300   5.08705e-19
      120.400   4.94843e-19
      120.500   4.79916e-19
      120.600   4.64353e-19
      120.700   4.48929e-19
      120.800   4.34197e-19
      120.900   4.21634e-19
      121.000   4.12033e-19
      121.100   4.02825e-19
      121.200   3.94489e-19
      121.300   3.85519e-19
      121.400   3.76083e-19
      121.500   3.66260e-19
      121.600   3.50782e-19
      121.700   3.35603e-19
      121.800   3.20421e-19
      121.900   3.05790e-19
      122.000   2.91380e-19
      122.100   2.77868e-19
      122.200   2.64975e-19
      122.300   2.53888e-19
      122.400   2.44565e-19
      122.500   2.35849e-19
      122.600   2.27279e-19
      122.700   2.19005e-19
      122.800   2.10761e-19
      122.900   2.02966e-19
      123.000   1.96738e-19
      123.100   1.92940e-19
      123.200   1.90318e-19
      123.300   1.91841e-19
      123.400   1.94209e-19
      123.500   1.97778e-19
      123.600   2.00300e-19
      123.700   1.98838e-19
      123.800   1.94062e-19
      123.900   1.89935e-19
      124.000   1.86736e-19
      124.100   1.86498e-19
      124.200   1.93170e-19
      124.300   2.05262e-19
      124.400   2.16179e-19
      124.500   2.15847e-19
      124.600   2.10063e-19
      124.700   2.01951e-19
      124.800   1.94202e-19
      124.900   1.86744e-19
      125.000   1.79560e-19
      125.100   1.72588e-19
      125.200   1.65877e-19
      125.300   1.59421e-19
      125.400   1.53215e-19
      125.500   1.47251e-19
      125.600   1.39879e-19
      125.700   1.32503e-19
      125.800   1.26407e-19
      125.900   1.24151e-19
      126.000   1.22190e-19
      126.100   1.20261e-19
      126.200   1.18362e-19
      126.300   1.16494e-19
      126.400   1.14655e-19
      126.500   1.12845e-19
      126.600   1.11064e-19
      126.700   1.09312e-19
      126.800   1.07588e-19
      126.900   1.05891e-19
      127.000   1.04217e-19
      127.100   1.02001e-19
      127.200   9.91762e-20
      127.300   9.62115e-20
      127.400   9.33345e-20
      127.500   9.05425e-20
      127.600   8.78337e-20
      127.700   8.52053e-20
      127.800   8.26548e-20
      127.900   8.01795e-20
      128.000   7.77780e-20
      128.100   7.54470e-20
      128.200   7.31853e-20
      128.300   7.09905e-20
      128.400   6.88617e-20
      128.500   6.67955e-20
      128.600   6.47914e-20
      128.700   6.28472e-20
      128.800   6.09602e-20
      128.900   5.91307e-20
      129.000   5.73570e-20
      129.100   5.56352e-20
      129.200   5.39610e-20
      129.300   5.23364e-20
      129.400   5.07606e-20
      129.500   4.92320e-20
      129.600   4.77492e-20
      129.700   4.63108e-20
      129.800   4.49151e-20
      129.900   4.35617e-20
      130.000   4.22489e-20
      130.100   4.09755e-20
      130.200   3.97400e-20
      130.300   3.85420e-20
      130.400   3.73799e-20
      130.500   3.62518e-20
      130.600   3.51538e-20
      130.700   3.40874e-20
      130.800   3.30530e-20
      130.900   3.20511e-20
      131.000   3.10796e-20
      131.100   3.01376e-20
      131.200   2.92238e-20
      131.300   2.83366e-20
      131.400   2.74763e-20
      131.500   2.66418e-20
      131.600   2.58323e-20
      131.700   2.50473e-20
      131.800   2.42857e-20
      131.900   2.35469e-20
      132.000   2.28303e-20
      132.100   2.21352e-20
      132.200   2.14611e-20
      132.300   2.08071e-20
      132.400   2.01729e-20
      132.500   1.95586e-20
      132.600   1.89632e-20
      132.700   1.83509e-20
      132.800   1.77463e-20
      132.900   1.71597e-20
      133.000   1.65920e-20
      133.100   1.60430e-20
      133.200   1.55120e-20
      133.300   1.49980e-20
      133.400   1.45009e-20
      133.500   1.40200e-20
      133.600   1.35549e-20
      133.700   1.31051e-20
      133.800   1.26700e-20
      133.900   1.22504e-20
      134.000   1.18446e-20
      134.100   1.14521e-20
      134.200   1.10725e-20
      134.300   1.07052e-20
      134.400   1.03501e-20
      134.500   1.00066e-20
      134.600   9.67439e-21
      134.700   9.35305e-21
      134.800   9.04234e-21
      134.900   8.74201e-21
      135.000   8.45146e-21
      135.100   8.17120e-21
      135.200   7.90026e-21
      135.300   7.63822e-21
      135.400   7.38473e-21
      135.500   7.13930e-21
      135.600   6.90174e-21
      135.700   6.67198e-21
      135.800   6.44971e-21
      135.900   6.23476e-21
      136.000   6.02681e-21
      136.100   5.82565e-21
      136.200   5.63168e-21
      136.300   5.44412e-21
      136.400   5.26278e-21
      136.500   5.08738e-21
      136.600   4.91766e-21
      136.700   4.75351e-21
      136.800   4.59475e-21
      136.900   4.44124e-21
      137.000   4.29287e-21
      137.100   4.14961e-21
      137.200   4.01126e-21
      137.300   3.87781e-21
      137.400   3.74872e-21
      137.500   3.62381e-21
      137.600   3.50296e-21
      137.700   3.38602e-21
      137.800   3.27288e-21
      137.900   3.16345e-21
      138.000   3.05763e-21
      138.100   2.95527e-21
      138.200   2.85664e-21
      138.300   2.76130e-21
      138.400   2.66912e-21
      138.500   2.57995e-21
      138.600   2.49369e-21
      138.700   2.41029e-21
      138.800   2.32963e-21
      138.900   2.25160e-21
      139.000   2.17614e-21
      139.100   2.10340e-21
      139.200   2.03349e-21
      139.300   1.96624e-21
      139.400   1.90128e-21
      139.500   1.83843e-21
      139.600   1.77759e-21
      139.700   1.71873e-21
      139.800   1.66179e-21
      139.900   1.60669e-21
      140.000   1.55360e-21
      140.100   1.50223e-21
      140.200   1.45254e-21
      140.300   1.40445e-21
      140.400   1.35791e-21
      140.500   1.31286e-21
      140.600   1.26927e-21
      140.700   1.22709e-21
      140.800   1.18644e-21
      140.900   1.14716e-21
      141.000   1.10913e-21
      141.100   1.07233e-21
      141.200   1.03672e-21
      141.300   1.00226e-21
      141.400   9.69024e-22
      141.500   9.37389e-22
      141.600   9.07201e-22
      141.700   8.77998e-22
      141.800   8.49713e-22
      141.900   8.22314e-22
      142.000   7.95774e-22
      142.100   7.70364e-22
      142.200   7.46613e-22
      142.300   7.24313e-22
      142.400   7.02763e-22
      142.500   6.81829e-22
      142.600   6.61494e-22
      142.700   6.41746e-22
      142.800   6.22572e-22
      142.900   6.03955e-22
      143.000   5.85874e-22
      143.100   5.68377e-22
      143.200   5.51419e-22
      143.300   5.34946e-22
      143.400   5.18955e-22
      143.500   5.03425e-22
      143.600   4.88343e-22
      143.700   4.73804e-22
      143.800   4.61128e-22
      143.900   4.49053e-22
      144.000   4.37306e-22
      144.100   4.25856e-22
      144.200   4.14698e-22
      144.300   4.03820e-22
      144.400   3.93258e-22
      144.500   3.83568e-22
      144.600   3.74303e-22
      144.700   3.65272e-22
      144.800   3.56446e-22
      144.900   3.47823e-22
      145.000   3.39396e-22
      145.100   3.31165e-22
      145.200   3.23150e-22
      145.300   3.15330e-22
      145.400   3.07687e-22
      145.500   3.00216e-22
      145.600   2.92917e-22
      145.700   2.85785e-22
      145.800   2.78826e-22
      145.900   2.72054e-22
      146.000   2.65430e-22
      146.100   2.58884e-22
      146.200   2.52438e-22
      146.300   2.46143e-22
      146.400   2.39993e-22
      146.500   2.34019e-22
      146.600   2.28188e-22
      146.700   2.22494e-22
      146.800   2.16920e-22
      146.900   2.11460e-22
      147.000   2.06130e-22
      147.100   2.00940e-22
      147.200   1.95888e-22
      147.300   1.90956e-22
      147.400   1.86142e-22
      147.500   1.81443e-22
      147.600   1.76854e-22
      147.700   1.72387e-22
      147.800   1.68041e-22
      147.900   1.63797e-22
      148.000   1.59655e-22
      148.100   1.55612e-22
      148.200   1.51668e-22
      148.300   1.47825e-22
      148.400   1.44679e-22
      148.500   1.42052e-22
      148.600   1.39627e-22
      148.700   1.37240e-22
      148.800   1.34891e-22
      148.900   1.32586e-22
      149.000   1.30321e-22
      149.100   1.28093e-22
      149.200   1.25900e-22
      149.300   1.23741e-22
      149.400   1.21617e-22
      149.500   1.19533e-22
      149.600   1.17484e-22
      149.700   1.15467e-22
      149.800   1.13483e-22
      149.900   1.11531e-22
      150.000   1.09610e-22
      150.100   1.07725e-22
      150.200   1.05870e-22
      150.300   1.04047e-22
      150.400   1.02254e-22
      150.500   1.00490e-22
      150.600   9.87550e-23
      150.700   9.70483e-23
      150.800   9.53709e-23
      150.900   9.37233e-23
      151.000   9.21007e-23
      151.100   9.05060e-23
      151.200   8.89372e-23
      151.300   8.73941e-23
      151.400   8.58764e-23
      151.500   8.43869e-23
      151.600   8.29220e-23
      151.700   8.14833e-23
      151.800   8.00680e-23
      151.900   7.86756e-23
      152.000   7.73861e-23
      152.100   7.69308e-23
      152.200   7.65820e-23
      152.300   7.62319e-23
      152.400   7.58824e-23
      152.500   7.55349e-23
      152.600   7.51881e-23
      152.700   7.40450e-23
      152.800   7.26345e-23
      152.900   7.12488e-23
      153.000   6.98885e-23
      153.100   6.85535e-23
      153.200   6.72425e-23
      153.300   6.61905e-23
      153.400   6.53795e-23
      153.500   6.46027e-23
      153.600   6.38360e-23
      153.700   6.30789e-23
      153.800   6.23294e-23
      153.900   6.15881e-23
      154.000   6.08632e-23
      154.100   6.01622e-23
      154.200   5.94735e-23
      154.300   5.87921e-23
      154.400   5.81196e-23
      154.500   5.74535e-23
      154.600   5.67947e-23
      154.700   5.61438e-23
      154.800   5.55000e-23
      154.900   5.48627e-23
      155.000   5.42321e-23
      155.100   5.36088e-23
      155.200   5.29918e-23
      155.300   5.23818e-23
      155.400   5.17785e-23
      155.500   5.11820e-23
      155.600   5.05909e-23
      155.700   5.00062e-23
      155.800   4.94284e-23
      155.900   4.88559e-23
      156.000   4.82903e-23
      156.100   4.77305e-23
      156.200   4.71770e-23
      156.300   4.66293e-23
      156.400   4.60872e-23
      156.500   4.55488e-23
      156.600   4.50064e-23
      156.700   4.44694e-23
      156.800   4.39381e-23
      156.900   4.34128e-23
      157.000   4.28944e-23
      157.100   4.23433e-23
      157.200   4.15383e-23
      157.300   4.04706e-23
      157.400   3.94302e-23
      157.500   3.84151e-23
      157.600   3.74258e-23
      157.700   3.64609e-23
      157.800   3.55205e-23
      157.900   3.51250e-23
      158.000   3.47803e-23
      158.100   3.44392e-23
      158.200   3.41007e-23
      158.300   3.37653e-23
      158.400   3.34333e-23
      158.500   3.31041e-23
      158.600   3.27776e-23
      158.700   3.24537e-23
      158.800   3.21336e-23
      158.900   3.18161e-23
      159.000   3.15014e-23
      159.100   3.11756e-23
      159.200   3.06838e-23
      159.300   2.99241e-23
      159.400   2.91829e-23
      159.500   2.84599e-23
      159.600   2.77540e-23
      159.700   2.70657e-23
      159.800   2.63936e-23
      159.900   2.60399e-23
      160.000   2.58977e-23
      160.100   2.57627e-23
      160.200   2.56281e-23
      160.300   2.54943e-23
      160.400   2.53611e-23
      160.500   2.51946e-23
      160.600   2.48361e-23
      160.700   2.43412e-23
      160.800   2.38558e-23
      160.900   2.33796e-23
      161.000   2.29128e-23
      161.100   2.24551e-23
      161.200   2.20067e-23
      161.300   2.15671e-23
      161.400   2.11360e-23
      161.500   2.07135e-23
      161.600   2.02991e-23
      161.700   1.98924e-23
      161.800   1.94937e-23
      161.900   1.91099e-23
      162.000   1.87935e-23
      162.100   1.85182e-23
      162.200   1.82469e-23
      162.300   1.79793e-23
      162.400   1.77156e-23
      162.500   1.74553e-23
      162.600   1.71991e-23
      162.700   1.69462e-23
      162.800   1.66969e-23
      162.900   1.64513e-23
      163.000   1.62091e-23
      163.100   1.59703e-23
      163.200   1.57347e-23
      163.300   1.55024e-23
      163.400   1.52735e-23
      163.500   1.50478e-23
      163.600   1.48253e-23
      163.700   1.46058e-23
      163.800   1.43897e-23
      163.900   1.41766e-23
      164.000   1.39664e-23
      164.100   1.37152e-23
      164.200   1.33506e-23
      164.300   1.29961e-23
      164.400   1.26509e-23
      164.500   1.23148e-23
      164.600   1.19876e-23
      164.700   1.16687e-23
      164.800   1.13945e-23
      164.900   1.12058e-23
      165.000   1.10520e-23
      165.100   1.09002e-23
      165.200   1.07504e-23
      165.300   1.06027e-23
      165.400   1.04570e-23
      165.500   1.03132e-23
      165.600   1.00768e-23
      165.700   9.80536e-24
      165.800   9.53809e-24
      165.900   9.27806e-24
      166.000   9.02543e-24
      166.100   8.77953e-24
      166.200   8.54029e-24
      166.300   8.30754e-24
      166.400   8.08104e-24
      166.500   7.86055e-24
      166.600   7.64602e-24
      166.700   7.43731e-24
      166.800   7.23412e-24
      166.900   7.03646e-24
      167.000   6.84425e-24
      167.100   6.65708e-24
      167.200   6.47495e-24
      167.300   6.29775e-24
      167.400   6.12535e-24
      167.500   5.95757e-24
      167.600   5.79433e-24
      167.700   5.63552e-24
      167.800   5.48101e-24
      167.900   5.33065e-24
      168.000   5.18435e-24
      168.100   5.04199e-24
      168.200   4.90348e-24
      168.300   4.76872e-24
      168.400   4.63764e-24
      168.500   4.51123e-24
      168.600   4.41449e-24
      168.700   4.33357e-24
      168.800   4.25413e-24
      168.900   4.17610e-24
      169.000   4.09952e-24
      169.100   4.02422e-24
      169.200   3.95034e-24
      169.300   3.87776e-24
      169.400   3.80648e-24
      169.500   3.73626e-24
      169.600   3.66642e-24
      169.700   3.59690e-24
      169.800   3.52838e-24
      169.900   3.46109e-24
      170.000   3.39502e-24
      170.100   3.29960e-24
      170.200   3.16264e-24
      170.300   3.99157e-24
      170.400   8.31212e-24
      170.500   1.53386e-23
      170.600   2.19664e-23
      170.700   2.68212e-23
      170.800   2.85275e-23
      170.900   2.80071e-23
      171.000   2.71224e-23
      171.100   2.62943e-23
      171.200   2.54900e-23
      171.300   2.47087e-23
      171.400   2.39499e-23
      171.500   2.32129e-23
      171.600   2.24971e-23
      171.700   2.18026e-23
      171.800   2.11285e-23
      171.900   2.04745e-23
      172.000   1.98406e-23
      172.100   1.92258e-23
      172.200   1.86302e-23
      172.300   1.80524e-23
      172.400   1.74888e-23
      172.500   1.69423e-23
      172.600   1.64132e-23
      172.700   1.59008e-23
      172.800   1.54045e-23
      172.900   1.49237e-23
      173.000   1.44584e-23
      173.100   1.40079e-23
      173.200   1.35715e-23
      173.300   1.31490e-23
      173.400   1.27397e-23
      173.500   1.23435e-23
      173.600   1.19599e-23
      173.700   1.15882e-23
      173.800   1.12285e-23
      173.900   1.08801e-23
      174.000   1.05426e-23
      174.100   1.02157e-23
      174.200   9.89915e-24
      174.300   9.59237e-24
      174.400   9.29526e-24
      174.500   9.00730e-24
      174.600   8.72825e-24
      174.700   8.45797e-24
      174.800   8.19610e-24
      174.900   7.94224e-24
      175.000   7.69613e-24
      175.100   7.45761e-24
      175.200   7.22678e-24
      175.300   7.00295e-24
      175.400   6.78599e-24
      175.500   6.57584e-24
      175.600   6.37205e-24
      175.700   6.17459e-24
      175.800   5.98315e-24
      175.900   5.79762e-24
      176.000   5.61778e-24
      176.100   5.44356e-24
      176.200   5.27471e-24
      176.300   5.11102e-24
      176.400   4.95243e-24
      176.500   4.79829e-24
      176.600   4.57762e-24
      176.700   4.33379e-24
      176.800   4.10281e-24
      176.900   3.88407e-24
      177.000   3.67685e-24
      177.100   3.48056e-24
      177.200   3.29471e-24
      177.300   3.11869e-24
      177.400   2.95191e-24
      177.500   2.79393e-24
      177.600   2.64435e-24
      177.700   2.50272e-24
      177.800   2.36860e-24
      177.900   2.24152e-24
      178.000   2.12136e-24
      178.100   2.00759e-24
      178.200   1.89981e-24
      178.300   1.79776e-24
      178.400   1.70117e-24
      178.500   1.60970e-24
      178.600   1.52490e-24
      178.700   1.45428e-24
      178.800   1.40205e-24
      178.900   1.35168e-24
      179.000   1.30308e-24
      179.100   1.25621e-24
      179.200   1.21102e-24
      179.300   1.16744e-24
      179.400   1.12541e-24
      179.500   1.08490e-24
      179.600   1.04587e-24
      179.700   1.00824e-24
      179.800   9.71956e-25
      179.900   9.36972e-25
      180.000   9.03232e-25
      180.100   8.70713e-25
      180.200   8.39374e-25
      180.300   8.09157e-25
      180.400   7.80027e-25
      180.500   7.51954e-25
      180.600   7.24886e-25
      180.700   6.98796e-25
      180.800   6.73651e-25
      180.900   6.49408e-25
      181.000   6.26034e-25
      181.100   6.03506e-25
      181.200   5.81795e-25
      181.300   5.60865e-25
      181.400   5.40694e-25
      181.500   5.21247e-25
      181.600   5.02501e-25
      181.700   4.84430e-25
      181.800   4.67010e-25
      181.900   4.50218e-25
      182.000   4.34038e-25
      182.100   4.18433e-25
      182.200   4.03540e-25
      182.300   3.90364e-25
      182.400   3.77701e-25
      182.500   3.65447e-25
      182.600   3.53590e-25
      182.700   3.42117e-25
      182.800   3.31016e-25
      182.900   3.20273e-25
      183.000   3.09880e-25
      183.100   2.99825e-25
      183.200   2.90093e-25
      183.300   2.80673e-25
      183.400   2.71559e-25
      183.500   2.62741e-25
      183.600   2.54207e-25
      183.700   2.45948e-25
      183.800   2.37961e-25
      183.900   2.30233e-25
      184.000   2.22754e-25
      184.100   2.15524e-25
      184.200   2.08532e-25
      184.300   2.01767e-25
      184.400   1.95223e-25
      184.500   1.88890e-25
      184.600   1.82760e-25
      184.700   1.76829e-25
      184.800   1.71090e-25
      184.900   1.65536e-25
      185.000   1.60161e-25
      185.100   1.55024e-25
      185.200   1.50365e-25
      185.300   1.46256e-25
      185.400   1.42259e-25
      185.500   1.38368e-25
      185.600   1.34584e-25
      185.700   1.30903e-25
      185.800   1.27328e-25
      185.900   1.23850e-25
      186.000   1.20468e-25
      186.100   1.17176e-25
      186.200   1.13973e-25
      186.300   1.10856e-25
      186.400   1.07824e-25
      186.500   1.04875e-25
      186.600   1.02004e-25
      186.700   9.92092e-26
      186.800   9.64901e-26
      186.900   9.38453e-26
      187.000   9.12716e-26
      187.100   8.87651e-26
      187.200   8.63286e-26
      187.300   8.39614e-26
      187.400   8.16578e-26
      187.500   7.94166e-26
      187.600   7.72358e-26
      187.700   7.51138e-26
      187.800   7.30494e-26
      187.900   7.10406e-26
      188.000   6.90865e-26
      188.100   6.70793e-26
      188.200   6.47625e-26
      188.300   6.20681e-26
      188.400   5.94846e-26
      188.500   5.70074e-26
      188.600   5.46356e-26
      188.700   5.23654e-26
      188.800   5.01892e-26
      188.900   4.81026e-26
      189.000   4.61013e-26
      189.100   4.41819e-26
      189.200   4.23415e-26
      189.300   4.05771e-26
      189.400   3.88857e-26
      189.500   3.72729e-26
      189.600   3.58537e-26
      189.700   3.49796e-26
      189.800   3.41304e-26
      189.900   3.33028e-26
      190.000   3.24961e-26
      190.100   3.17090e-26
      190.200   3.09410e-26
      190.300   3.01918e-26
      190.400   2.94604e-26
      190.500   2.87470e-26
      190.600   2.80510e-26
      190.700   2.73718e-26
      190.800   2.67092e-26
      190.900   2.60627e-26
      191.000   2.54329e-26
      191.100   2.48190e-26
      191.200   2.42195e-26
      191.300   2.36348e-26
      191.400   2.30643e-26
      191.500   2.25075e-26
      191.600   2.19642e-26
      191.700   2.14340e-26
      191.800   2.09164e-26
      191.900   2.04112e-26
      192.000   1.99186e-26
      192.100   1.94382e-26
      192.200   1.89704e-26
      192.300   1.85135e-26
      192.400   1.80676e-26
      192.500   1.75994e-26
      192.600   1.70377e-26
      192.700   1.64098e-26
      192.800   1.58047e-26
      192.900   1.52214e-26
      193.000   1.46595e-26
      193.100   1.41191e-26
      193.200   1.35995e-26
      193.300   1.30990e-26
      193.400   1.26168e-26
      193.500   1.21520e-26
      193.600   1.17041e-26
      193.700   1.12725e-26
      193.800   1.08567e-26
      193.900   1.04562e-26
      194.000   1.00781e-26
      194.100   9.86917e-27
      194.200   9.71702e-27
      194.300   9.57097e-27
      194.400   9.42719e-27
      194.500   9.28571e-27
      194.600   9.14635e-27
      194.700   9.00910e-27
      194.800   8.87397e-27
      194.900   8.74082e-27
      195.000   8.60976e-27
      195.100   8.48096e-27
      195.200   8.35404e-27
      195.300   8.22898e-27
      195.400   8.10577e-27
      195.500   7.98184e-27
      195.600   7.79387e-27
      195.700   7.50017e-27
      195.800   7.21733e-27
      195.900   6.94504e-27
      196.000   6.68260e-27
      196.100   6.42986e-27
      196.200   6.18653e-27
      196.300   5.95219e-27
      196.400   5.72650e-27
      196.500   5.50911e-27
      196.600   5.29984e-27
      196.700   5.09831e-27
      196.800   4.90462e-27
      196.900   4.71872e-27
      197.000   4.53972e-27
      197.100   4.36732e-27
      197.200   4.20131e-27
      197.300   4.04141e-27
      197.400   3.88739e-27
      197.500   3.73911e-27
      197.600   3.59633e-27
      197.700   3.45957e-27
      197.800   3.32796e-27
      197.900   3.20118e-27
      198.000   3.07909e-27
      198.100   2.96156e-27
      198.200   2.84839e-27
      198.300   2.73938e-27
      198.400   2.63450e-27
      198.500   2.53394e-27
      198.600   2.43726e-27
      198.700   2.35372e-27
      198.800   2.28638e-27
      198.900   2.22745e-27
      199.000   2.16998e-27
      199.100   2.11396e-27
      199.200   2.05936e-27
      199.300   2.00632e-27
      199.400   1.95466e-27
      199.500   1.90430e-27
      199.600   1.85520e-27
      199.700   1.80734e-27
      199.800   1.76071e-27
      199.900   1.71524e-27
      200.000   1.67091e-27
      200.100   1.62791e-27
      200.200   1.58596e-27
      200.300   1.54512e-27
      200.400   1.50530e-27
      200.500   1.46649e-27
      200.600   1.42870e-27
      200.700   1.39187e-27
      200.800   1.35596e-27
      200.900   1.32100e-27
      201.000   1.28694e-27
      201.100   1.25381e-27
      201.200   1.22153e-27
      201.300   1.19007e-27
      201.400   1.15942e-27
      201.500   1.12956e-27
      201.600   1.10045e-27
      201.700   1.07210e-27
      201.800   1.04447e-27
      201.900   1.01675e-27
      202.000   9.76634e-28
      202.100   9.32006e-28
      202.200   8.89411e-28
      202.300   8.48802e-28
      202.400   8.10128e-28
      202.500   7.73230e-28
      202.600   7.37982e-28
      202.700   7.04337e-28
      202.800   6.72246e-28
      202.900   6.41666e-28
      203.000   6.12468e-28
      203.100   5.84604e-28
      203.200   5.57977e-28
      203.300   5.32544e-28
      203.400   5.08261e-28
      203.500   4.85078e-28
      203.600   4.63783e-28
      203.700   4.45728e-28
      203.800   4.28693e-28
      203.900   4.12330e-28
      204.000   3.96585e-28
      204.100   3.81438e-28
      204.200   3.66871e-28
      204.300   3.52854e-28
      204.400   3.39371e-28
      204.500   3.26401e-28
      204.600   3.13923e-28
      204.700   3.01919e-28
      204.800   2.90390e-28
      204.900   2.79315e-28
      205.000   2.68661e-28
      205.100   2.58414e-28
      205.200   2.48552e-28
      205.300   2.39070e-28
      205.400   2.29947e-28
      205.500   2.21169e-28
      205.600   2.12705e-28
      205.700   2.04455e-28
      205.800   1.96500e-28
      205.900   1.88860e-28
      206.000   1.81529e-28
      206.100   1.74478e-28
      206.200   1.67698e-28
      206.300   1.61181e-28
      206.400   1.54918e-28
      206.500   1.48893e-28
      206.600   1.43102e-28
      206.700   1.37535e-28
      206.800   1.32181e-28
      206.900   1.27033e-28
      207.000   1.22085e-28
      207.100   1.17336e-28
      207.200   1.12775e-28
      207.300   1.08387e-28
      207.400   1.04168e-28
      207.500   1.00112e-28
      207.600   9.62125e-29
      207.700   9.24618e-29
      207.800   8.88558e-29
      207.900   8.53889e-29
      208.000   8.20557e-29
      208.100   7.88517e-29
      208.200   7.57706e-29
      208.300   7.28096e-29
      208.400   6.99682e-29
      208.500   6.72371e-29
      208.600   6.46102e-29
      208.700   6.20841e-29
      208.800   5.96559e-29
      208.900   5.72333e-29
      209.000   5.45361e-29
      209.100   5.17148e-29
      209.200   4.90377e-29
      209.300   4.64964e-29
      209.400   4.40865e-29
      209.500   4.17993e-29
      209.600   3.96288e-29
      209.700   3.75725e-29
      209.800   3.56262e-29
      209.900   3.37780e-29
      210.000   3.20254e-29
      210.100   3.03625e-29
      210.200   2.87848e-29
      210.300   2.72884e-29
      210.400   2.58689e-29
      210.500   2.45222e-29
      210.600   2.32449e-29
      210.700   2.20336e-29
      210.800   2.08846e-29
      210.900   1.97947e-29
      211.000   1.87612e-29
      211.100   1.77812e-29
      211.200   1.68519e-29
      211.300   1.59727e-29
      211.400   1.51396e-29
      211.500   1.43491e-29
      211.600   1.35996e-29
      211.700   1.28890e-29
      211.800   1.22147e-29
      211.900   1.15754e-29
      212.000   1.09697e-29
      212.100   1.03951e-29
      212.200   9.85019e-30
      212.300   9.31047e-30
      212.400   8.73435e-30
      212.500   8.16809e-30
      212.600   7.63820e-30
      212.700   7.14232e-30
      212.800   6.67826e-30
      212.900   6.24422e-30
      213.000   5.83836e-30
      213.100   5.45941e-30
      213.200   5.10478e-30
      213.300   4.77303e-30
      213.400   4.46254e-30
      213.500   4.17208e-30
      213.600   3.90032e-30
      213.700   3.64615e-30
      213.800   3.40832e-30
      213.900   3.18598e-30
      214.000   2.97795e-30
      214.100   2.78681e-30
      214.200   2.64803e-30
      214.300   2.54263e-30
      214.400   2.44141e-30
      214.500   2.34419e-30
      214.600   2.25085e-30
      214.700   2.16122e-30
      214.800   2.07515e-30
      214.900   1.99252e-30
      215.000   1.91314e-30
      215.100   1.83694e-30
      215.200   1.76386e-30
      215.300   1.69371e-30
      215.400   1.62633e-30
      215.500   1.56163e-30
      215.600   1.49954e-30
      215.700   1.43988e-30
      215.800   1.38259e-30
      215.900   1.32760e-30
      216.000   1.26951e-30
      216.100   1.20145e-30
      216.200   1.13245e-30
      216.300   1.06740e-30
      216.400   1.00607e-30
      216.500   9.48219e-31
      216.600   8.93698e-31
      216.700   8.42308e-31
      216.800   7.93848e-31
      216.900   7.48174e-31
      217.000   7.05117e-31
      217.100   6.64511e-31
      217.200   6.26245e-31
      217.300   5.90175e-31
      217.400   5.56165e-31
      217.500   5.24123e-31
      217.600   4.93899e-31
      217.700   4.65407e-31
      217.800   4.38562e-31
      217.900   4.13159e-31
      218.000   3.86631e-31
      218.100   3.61793e-31
      218.200   3.38543e-31
      218.300   3.16791e-31
      218.400   2.96448e-31
      218.500   2.77395e-31
      218.600   2.59564e-31
      218.700   2.42869e-31
      218.800   2.27239e-31
      218.900   2.12617e-31
      219.000   1.98921e-31
      219.100   1.86099e-31
      219.200   1.74103e-31
      219.300   1.62875e-31
      219.400   1.52363e-31
      219.500   1.42526e-31
      219.600   1.33320e-31
      219.700   1.24703e-31
      219.800   1.16642e-31
      219.900   1.09097e-31
      220.000   1.02034e-31
      220.100   9.54253e-32
      220.200   8.92420e-32
      220.300   8.34575e-32
      220.400   7.80434e-32
      220.500   7.29797e-32
      220.600   6.82427e-32
      220.700   6.38087e-32
      220.800   5.96602e-32
      220.900   5.57819e-32
      221.000   5.21524e-32
      221.100   4.87563e-32
      221.200   4.55815e-32
      221.300   4.26114e-32
      221.400   3.98327e-32
      221.500   3.72347e-32
      221.600   3.48046e-32
      221.700   3.25316e-32
      221.800   3.05578e-32
      221.900   2.90937e-32
      222.000   2.78089e-32
      222.100   2.65799e-32
      222.200   2.54052e-32
      222.300   2.42819e-32
      222.400   2.32082e-32
      222.500   2.21815e-32
      222.600   2.12001e-32
      222.700   2.02617e-32
      222.800   1.93645e-32
      222.900   1.85071e-32
      223.000   1.76873e-32
      223.100   1.69034e-32
      223.200   1.61542e-32
      223.300   1.54379e-32
      223.400   1.47533e-32
      223.500   1.40987e-32
      223.600   1.34732e-32
      223.700   1.28751e-32
      223.800   1.22913e-32
      223.900   1.16521e-32
      224.000   1.10341e-32
      224.100   1.04487e-32
      224.200   9.89419e-33
      224.300   9.36896e-33
      224.400   8.87122e-33
      224.500   8.40000e-33
      224.600   7.95345e-33
      224.700   7.53074e-33
      224.800   7.13016e-33
      224.900   6.75068e-33
      225.000   6.39135e-33
      225.100   6.05096e-33
      225.200   5.72853e-33
      225.300   5.42339e-33
      225.400   5.13417e-33
      225.500   4.86030e-33
      225.600   4.60093e-33
      225.700   4.35541e-33
      225.800   4.12278e-33
      225.900   3.96223e-33
      226.000   3.83221e-33
      226.100   3.70894e-33
      226.200   3.58958e-33
      226.300   3.47433e-33
      226.400   3.36293e-33
      226.500   3.25497e-33
      226.600   3.15038e-33
      226.700   3.04912e-33
      226.800   2.95106e-33
      226.900   2.85616e-33
      227.000   2.76424e-33
      227.100   2.67527e-33
      227.200   2.58920e-33
      227.300   2.50588e-33
      227.400   2.42522e-33
      227.500   2.34716e-33
      227.600   2.27159e-33
      227.700   2.19847e-33
      227.800   2.12770e-33
      227.900   2.05232e-33
      228.000   1.96211e-33
      228.100   1.86602e-33
      228.200   1.77459e-33
      228.300   1.68764e-33
      228.400   1.60495e-33
      228.500   1.52627e-33
      228.600   1.45146e-33
      228.700   1.38030e-33
      228.800   1.31260e-33
      228.900   1.24824e-33
      229.000   1.18701e-33
      229.100   1.12878e-33
      229.200   1.07340e-33
      229.300   1.02073e-33
      229.400   9.70636e-34
      229.500   9.22996e-34
      229.600   8.77684e-34
      229.700   8.34594e-34
      229.800   7.93616e-34
      229.900   7.54649e-34
      230.000   7.17139e-34
      230.100   6.78058e-34
      230.200   6.39069e-34
      230.300   6.02336e-34
      230.400   5.67691e-34
      230.500   5.35054e-34
      230.600   5.04317e-34
      230.700   4.75331e-34
      230.800   4.48010e-34
      230.900   4.22258e-34
      231.000   3.97973e-34
      231.100   3.75077e-34
      231.200   3.53499e-34
      231.300   3.33160e-34
      231.400   3.13991e-34
      231.500   2.95911e-34
      231.600   2.78865e-34
      231.700   2.62801e-34
      231.800   2.47662e-34
      231.900   2.33387e-34
      232.000   2.19931e-34
      232.100   2.07247e-34
      232.200   1.97036e-34
      232.300   1.89786e-34
      232.400   1.83447e-34
      232.500   1.77320e-34
      232.600   1.71399e-34
      232.700   1.65676e-34
      232.800   1.60145e-34
      232.900   1.54794e-34
      233.000   1.49617e-34
      233.100   1.44614e-34
      233.200   1.39779e-34
      233.300   1.35106e-34
      233.400   1.30590e-34
      233.500   1.26228e-34
      233.600   1.22013e-34
      233.700   1.17940e-34
      233.800   1.13961e-34
      233.900   1.10110e-34
      234.000   1.06388e-34
      234.100   1.02792e-34
      234.200   9.93191e-35
      234.300   9.59622e-35
      234.400   9.27185e-35
      234.500   8.95846e-35
      234.600   8.65560e-35
      234.700   8.36306e-35
      234.800   8.08043e-35
      234.900   7.80727e-35
      235.000   7.54329e-35
      235.100   7.28824e-35
      235.200   7.04183e-35
      235.300   6.80375e-35
      235.400   6.57360e-35
      235.500   6.35133e-35
      235.600   6.13659e-35
      235.700   5.92903e-35
      235.800   5.72879e-35
      235.900   5.53529e-35
      236.000   5.34839e-35
      236.100   5.16770e-35
      236.200   4.99311e-35
      236.300   4.82439e-35
      236.400   4.66142e-35
      236.500   4.50389e-35
      236.600   4.35993e-35
      236.700   4.23855e-35
      236.800   4.13186e-35
      236.900   4.02783e-35
      237.000   3.92639e-35
      237.100   3.82753e-35
      237.200   3.73112e-35
      237.300   3.63715e-35
      237.400   3.54553e-35
      237.500   3.45623e-35
      237.600   3.36907e-35
      237.700   3.28426e-35
      237.800   3.20160e-35
      237.900   3.12094e-35
      238.000   3.04234e-35
      238.100   2.96568e-35
      238.200   2.89096e-35
      238.300   2.81809e-35
      238.400   2.74703e-35
      238.500   2.67773e-35
      238.600   2.61019e-35
      238.700   2.54434e-35
      238.800   2.48013e-35
      238.900   2.42260e-35
      239.000   2.38425e-35
      239.100   2.34854e-35
      239.200   2.31336e-35
      239.300   2.27870e-35
      239.400   2.24455e-35
      239.500   2.21092e-35
      239.600   2.17774e-35
      239.700   2.14505e-35
      239.800   2.11288e-35
      239.900   2.08115e-35
      240.000   2.04987e-35
      240.100   2.01905e-35
      240.200   1.98869e-35
      240.300   1.95876e-35
      240.400   1.92928e-35
      240.500   1.90021e-35
      240.600   1.87160e-35
      240.700   1.84336e-35
      240.800   1.81553e-35
      240.900   1.78815e-35
      241.000   1.76115e-35
      241.100   1.73456e-35
      241.200   1.70836e-35
      241.300   1.68253e-35
      241.400   1.65708e-35
      241.500   1.63202e-35
      241.600   1.60732e-35
      241.700   1.58299e-35
      241.800   1.55899e-35
      241.900   1.53536e-35
      242.000   1.51208e-35
      242.100   1.48916e-35
      242.200   1.46658e-35
      242.300   1.44436e-35
      242.400   1.42246e-35
      242.500   1.40089e-35
      242.600   1.37964e-35
      242.700   1.35870e-35
      242.800   1.33809e-35
      242.900   1.31778e-35
      243.000   1.29777e-35
      243.100   1.27806e-35
      243.200   1.25865e-35
      243.300   1.23953e-35
      243.400   1.22070e-35
      243.500   1.20217e-35
      243.600   1.18393e-35
      243.700   1.16596e-35
      243.800   1.14827e-35
      243.900   1.13084e-35
      244.000   1.11368e-35
      244.100   1.09678e-35
      244.200   1.08014e-35
      244.300   1.06375e-35
      244.400   1.04760e-35
      244.500   1.03172e-35
      244.600   1.01606e-35
      244.700   1.00066e-35
      244.800   9.85508e-36
      244.900   9.70579e-36
      245.000   9.55879e-36
      245.100   9.41406e-36
      245.200   9.27157e-36
      245.300   9.13125e-36
      245.400   8.99302e-36
      245.500   8.85696e-36
      245.600   8.72300e-36
      245.700   8.59107e-36
      245.800   8.46119e-36
      245.900   8.33337e-36
      246.000   8.20764e-36
      246.100   8.08383e-36
      246.200   7.96184e-36
      246.300   7.84177e-36
      246.400   7.72363e-36
      246.500   7.60722e-36
      246.600   7.49256e-36
      246.700   7.37970e-36
      246.800   7.26858e-36
      246.900   7.15920e-36
      247.000   7.05153e-36
      247.100   6.94547e-36
      247.200   6.84122e-36
      247.300   6.73850e-36
      247.400   6.63737e-36
      247.500   6.53777e-36
      247.600   6.43965e-36
      247.700   6.34307e-36
      247.800   6.24801e-36
      247.900   6.15433e-36
      248.000   6.06216e-36
      248.100   5.97156e-36
      248.200   5.88235e-36
      248.300   5.79441e-36
      248.400   5.70780e-36
      248.500   5.58591e-36
      248.600   5.40662e-36
      248.700   5.19497e-36
      248.800   4.99149e-36
      248.900   4.79597e-36
      249.000   4.60800e-36
      249.100   4.42802e-36
      249.200   4.25517e-36
      249.300   4.08897e-36
      249.400   3.92918e-36
      249.500   3.77557e-36
      249.600   3.62789e-36
      249.700   3.48594e-36
      249.800   3.34946e-36
      249.900   3.21827e-36
      250.000   3.09218e-36
      250.100   2.97134e-36
      250.200   2.85526e-36
      250.300   2.74382e-36
      250.400   2.63665e-36
      250.500   2.53365e-36
      250.600   2.43467e-36
      250.700   2.33950e-36
      250.800   2.24804e-36
      250.900   2.16014e-36
      251.000   2.07565e-36
      251.100   1.99444e-36
      251.200   1.91648e-36
      251.300   1.84169e-36
      251.400   1.76982e-36
      251.500   1.70071e-36
      251.600   1.60404e-36
      251.700   1.45615e-36
      251.800   1.31404e-36
      251.900   1.18560e-36
      252.000   1.06954e-36
      252.100   9.64732e-37
      252.200   8.70025e-37
      252.300   7.84692e-37
      252.400   7.07973e-37
      252.500   6.38694e-37
      252.600   5.79476e-37
      252.700   5.45544e-37
      252.800   5.33893e-37
      252.900   5.22498e-37
      253.000   5.11343e-37
      253.100   5.00426e-37
      253.200   4.89746e-37
      253.300   4.79390e-37
      253.400   4.69295e-37
      253.500   4.59428e-37
      253.600   4.49774e-37
      253.700   4.40109e-37
      253.800   4.29632e-37
      253.900   4.19207e-37
      254.000   4.09033e-37
      254.100   3.99103e-37
      254.200   3.89412e-37
      254.300   3.79957e-37
      254.400   3.70733e-37
      254.500   3.61732e-37
      254.600   3.52943e-37
      254.700   3.44373e-37
      254.800   3.36020e-37
      254.900   3.27868e-37
      255.000   3.19914e-37
      255.100   3.12144e-37
      255.200   3.04568e-37
      255.300   2.97172e-37
      255.400   2.89955e-37
      255.500   2.82911e-37
      255.600   2.76038e-37
      255.700   2.69330e-37
      255.800   2.62781e-37
      255.900   2.56392e-37
      256.000   2.50153e-37
      256.100   2.44073e-37
      256.200   2.38141e-37
      256.300   2.32350e-37
      256.400   2.26706e-37
      256.500   2.21192e-37
      256.600   2.15810e-37
      256.700   2.10557e-37
      256.800   2.05433e-37
      256.900   1.99191e-37
      257.000   1.91177e-37
      257.100   1.82884e-37
      257.200   1.74951e-37
      257.300   1.67357e-37
      257.400   1.60110e-37
      257.500   1.53181e-37
      257.600   1.46563e-37
      257.700   1.40232e-37
      257.800   1.34170e-37
      257.900   1.28369e-37
      258.000   1.22817e-37
      258.100   1.17502e-37
      258.200   1.12415e-37
      258.300   1.07549e-37
      258.400   1.02887e-37
      258.500   9.84269e-38
      258.600   9.41591e-38
      258.700   9.00740e-38
      258.800   8.61642e-38
      258.900   8.24244e-38
      259.000   7.88438e-38
      259.100   7.54182e-38
      259.200   7.21424e-38
      259.300   6.90129e-38
      259.400   6.60166e-38
      259.500   6.31492e-38
      259.600   6.04058e-38
      259.700   5.77812e-38
      259.800   5.52690e-38
      259.900   5.28642e-38
      260.000   5.05640e-38
      260.100   4.81955e-38
      260.200   4.57308e-38
      260.300   4.33550e-38
      260.400   4.11020e-38
      260.500   3.89654e-38
      260.600   3.69380e-38
      260.700   3.50154e-38
      260.800   3.31934e-38
      260.900   3.14643e-38
      261.000   2.98262e-38
      261.100   2.82744e-38
      261.200   2.67944e-38
      261.300   2.53905e-38
      261.400   2.40598e-38
      261.500   2.27989e-38
      261.600   2.16052e-38
      261.700   2.04742e-38
      261.800   1.94019e-38
      261.900   1.83851e-38
      262.000   1.74213e-38
      262.100   1.65076e-38
      262.200   1.56420e-38
      262.300   1.48212e-38
      262.400   1.40432e-38
      262.500   1.33056e-38
      262.600   1.26065e-38
      262.700   1.19441e-38
      262.800   1.13163e-38
      262.900   1.07209e-38
      263.000   1.01573e-38
      263.100   9.62286e-39
      263.200   9.11726e-39
      263.300   8.63813e-39
      263.400   8.18395e-39
      263.500   7.75370e-39
      263.600   7.34591e-39
      263.700   6.95941e-39
      263.800   6.59307e-39
      263.900   6.24620e-39
      264.000   5.91732e-39
      264.100   5.60556e-39
      264.200   5.31013e-39
      264.300   5.03041e-39
      264.400   4.76531e-39
      264.500   4.51401e-39
      264.600   4.27589e-39
      264.700   4.05034e-39
      264.800   3.83654e-39
      264.900   3.63410e-39
      265.000   3.44227e-39
      265.100   3.26043e-39
      265.200   3.08820e-39
      265.300   2.92502e-39
      265.400   2.76824e-39
      265.500   2.61898e-39
      265.600   2.47777e-39
      265.700   2.34404e-39
      265.800   2.21766e-39
      265.900   2.09812e-39
      266.000   1.98507e-39
      266.100   1.87808e-39
      266.200   1.77686e-39
      266.300   1.68102e-39
      266.400   1.59038e-39
      266.500   1.50457e-39
      266.600   1.42339e-39
      266.700   1.34656e-39
      266.800   1.27392e-39
      266.900   1.20514e-39
      267.000   1.14005e-39
      267.100   1.07847e-39
      267.200   1.02025e-39
      267.300   9.65133e-40
      267.400   9.12973e-40
      267.500   8.63633e-40
      267.600   8.16954e-40
      267.700   7.72788e-40
      267.800   7.30992e-40
      267.900   6.91457e-40
      268.000   6.54066e-40
      268.100   6.18675e-40
      268.200   5.85221e-40
      268.300   5.53556e-40
      268.400   5.23599e-40
      268.500   4.95244e-40
      268.600   4.68439e-40
      268.700   4.43077e-40
      268.800   4.19084e-40
      268.900   3.96385e-40
      269.000   3.74929e-40
      269.100   3.54608e-40
      269.200   3.35406e-40
      269.300   3.17227e-40
      269.400   3.00039e-40
      269.500   2.83763e-40
      269.600   2.68392e-40
      269.700   2.51548e-40
      269.800   2.35229e-40
      269.900   2.19938e-40
      270.000   2.05650e-40
      270.100   1.92282e-40
      270.200   1.79789e-40
      270.300   1.68110e-40
      270.400   1.57185e-40
      270.500   1.46961e-40
      270.600   1.37399e-40
      270.700   1.28463e-40
      270.800   1.20095e-40
      270.900   1.12287e-40
      271.000   1.04974e-40
      271.100   9.81399e-41
      271.200   9.17332e-41
      271.300   8.57553e-41
      271.400   8.01739e-41
      271.500   7.49513e-41
      271.600   7.00565e-41
      271.700   6.54813e-41
      271.800   6.12087e-41
      271.900   5.72052e-41
      272.000   5.34735e-41
      272.100   4.99759e-41
      272.200   4.67193e-41
      272.300   4.36659e-41
      272.400   4.08058e-41
      272.500   3.81349e-41
      272.600   3.56364e-41
      272.700   3.33145e-41
      272.800   3.12279e-41
      272.900   2.95632e-41
      273.000   2.81086e-41
      273.100   2.67284e-41
      273.200   2.54125e-41
      273.300   2.41640e-41
      273.400   2.29715e-41
      273.500   2.18434e-41
      273.600   2.07700e-41
      273.700   1.97485e-41
      273.800   1.87774e-41
      273.900   1.77068e-41
      274.000   1.63868e-41
      274.100   1.51564e-41
      274.200   1.40228e-41
      274.300   1.29746e-41
      274.400   1.20035e-41
      274.500   1.11053e-41
      274.600   1.02743e-41
      274.700   9.49520e-42
      274.800   8.78614e-42
      274.900   8.12193e-42
      275.000   7.50535e-42
      275.100   6.94904e-42
      275.200   6.42215e-42
      275.300   5.93590e-42
      275.400   5.49169e-42
      275.500   5.07971e-42
      275.600   4.68314e-42
      275.700   4.33281e-42
      275.800   4.00631e-42
      275.900   3.70924e-42
      276.000   3.44719e-42
      276.100   3.24961e-42
      276.200   3.08986e-42
      276.300   2.92591e-42
      276.400   2.77037e-42
      276.500   2.62323e-42
      276.600   2.49852e-42
      276.700   2.36399e-42
      276.800   2.23927e-42
      276.900   2.12157e-42
      277.000   2.00666e-42
      277.100   1.90156e-42
      277.200   1.81188e-42
      277.300   1.71519e-42
      277.400   1.62691e-42
      277.500   1.53722e-42
      277.600   1.45315e-42
      277.700   1.37327e-42
      277.800   1.30741e-42
      277.900   1.23314e-42
      278.000   1.18270e-42
      278.100   1.12104e-42
      278.200   1.03836e-42
      278.300   9.61291e-43
      278.400   8.91226e-43
      278.500   8.23963e-43
      278.600   7.63708e-43
      278.700   7.09057e-43
      278.800   6.54406e-43
      278.900   6.01157e-43
      279.000   5.66125e-43
      279.100   5.21283e-43
      279.200   4.79244e-43
      279.300   4.49817e-43
      279.400   4.21791e-43
      279.500   3.96567e-43
      279.600   3.67140e-43
      279.700   3.57331e-43
      279.800   3.32108e-43
      279.900   3.12490e-43
      280.000   2.90069e-43
      280.100   2.71852e-43
      280.200   2.55036e-43
      280.300   2.36819e-43
      280.400   2.20004e-43
      280.500   2.07392e-43
      280.600   1.94780e-43
      280.700   1.82169e-43
      280.800   1.69557e-43
      280.900   1.69557e-43
      281.000   1.59748e-43
      281.100   1.49939e-43
      281.200   1.40130e-43
      281.300   1.30321e-43
      281.400   1.21913e-43
      281.500   1.21913e-43
      281.600   1.12104e-43
      281.700   1.05097e-43
      281.800   1.02295e-43
      281.900   9.52883e-44
      282.000   9.24857e-44
      282.100   8.96831e-44
      282.200   8.26766e-44
      282.300   7.98740e-44
      282.400   7.70714e-44
      282.500   7.00649e-44
      282.600   7.00649e-44
      282.700   6.72623e-44
      282.800   6.44597e-44
      282.900   5.74532e-44
      283.000   5.74532e-44
      283.100   5.74532e-44
      283.200   5.46506e-44
      283.300   5.04467e-44
      283.400   4.76441e-44
      283.500   4.48416e-44
      283.600   4.48416e-44
      283.700   3.78351e-44
      283.800   3.78351e-44
      283.900   3.50325e-44
      284.000   3.50325e-44
      284.100   3.22299e-44
      284.200   2.94273e-44
      284.300   2.94273e-44
      284.400   2.52234e-44
      284.500   2.52234e-44
      284.600   2.52234e-44
      284.700   2.52234e-44
      284.800   2.24208e-44
      284.900   2.24208e-44
      285.000   1.96182e-44
      285.100   1.54143e-44
      285.200   1.54143e-44
      285.300   1.54143e-44
      285.400   1.54143e-44
      285.500   1.54143e-44
      285.600   1.26117e-44
      285.700   1.26117e-44
      285.800   1.26117e-44
      285.900   9.80909e-45
      286.000   9.80909e-45
      286.100   9.80909e-45
      286.200   9.80909e-45
      286.300   7.00649e-45
      286.400   7.00649e-45
      286.500   7.00649e-45
      286.600   7.00649e-45
      286.700   7.00649e-45
      286.800   7.00649e-45
      286.900   7.00649e-45
      287.000   7.00649e-45
      287.100   7.00649e-45
      287.200   7.00649e-45
      287.300   7.00649e-45
      287.400   7.00649e-45
      287.500   7.00649e-45
      287.600   7.00649e-45
      287.700   7.00649e-45
      287.800   2.80260e-45
      287.900   2.80260e-45
      288.000   2.80260e-45
      288.100   2.80260e-45
      288.200   2.80260e-45
      288.300   2.80260e-45
      288.400   2.80260e-45
      288.500   2.80260e-45
      288.600   2.80260e-45
      288.700   2.80260e-45
      288.800   2.80260e-45
      288.900   2.80260e-45
      289.000   2.80260e-45
      289.100   2.80260e-45
      289.200   2.80260e-45
      289.300   2.80260e-45
      289.400   2.80260e-45
      289.500   2.80260e-45
      289.600   2.80260e-45
      289.700   2.80260e-45
      289.800   2.80260e-45
      289.900   2.80260e-45
      290.000   2.80260e-45
      290.100   2.80260e-45
      290.200   2.80260e-45
      290.300   2.80260e-45
      290.400   2.80260e-45
      290.500   2.80260e-45
      290.600   2.80260e-45
      290.700   2.80260e-45
      290.800       0.00000
      290.900       0.00000
      291.000       0.00000
      291.100       0.00000
      291.200       0.00000
      291.300       0.00000
      291.400       0.00000
      291.500       0.00000
      291.600       0.00000
      291.700       0.00000
      291.800       0.00000
      291.900       0.00000
      292.000       0.00000
      292.100       0.00000
      292.200       0.00000
      292.300       0.00000
      292.400       0.00000
      292.500       0.00000
      292.600       0.00000
      292.700       0.00000
      292.800       0.00000
      292.900       0.00000
      293.000       0.00000
      293.100       0.00000
      293.200       0.00000
      293.300       0.00000
      293.400       0.00000
      293.500       0.00000
      293.600       0.00000
      293.700       0.00000
      293.800       0.00000
      293.900       0.00000
      294.000       0.00000
      294.100       0.00000
      294.200       0.00000
      294.300       0.00000
      294.400       0.00000
      294.500       0.00000
      294.600       0.00000
      294.700       0.00000
      294.800       0.00000
      294.900       0.00000
      295.000       0.00000
      295.100       0.00000
      295.200       0.00000
      295.300       0.00000
      295.400       0.00000
      295.500       0.00000
      295.600       0.00000
      295.700       0.00000
      295.800       0.00000
      295.900       0.00000
      296.000       0.00000
      296.100       0.00000
      296.200       0.00000
      296.300       0.00000
      296.400       0.00000
      296.500       0.00000
      296.600       0.00000
      296.700       0.00000
      296.800       0.00000
      296.900       0.00000
      297.000       0.00000
      297.100       0.00000
      297.200       0.00000
      297.300       0.00000
      297.400       0.00000
      297.500       0.00000
      297.600       0.00000
      297.700       0.00000
      297.800       0.00000
      297.900       0.00000
      298.000       0.00000
      298.100       0.00000
      298.200       0.00000
      298.300       0.00000
      298.400       0.00000
      298.500       0.00000
      298.600       0.00000
      298.700       0.00000
      298.800       0.00000
      298.900       0.00000
      299.000       0.00000
      299.100       0.00000
      299.200       0.00000
      299.300       0.00000
      299.400       0.00000
      299.500       0.00000
      299.600       0.00000
      299.700       0.00000
      299.800       0.00000
      299.900       0.00000
      300.000       0.00000
      300.100       0.00000
      300.192       0.00000
      300.285       0.00000
      300.377       0.00000
      300.470       0.00000
      300.562       0.00000
      300.654       0.00000
      300.747       0.00000
      300.839       0.00000
      300.932       0.00000
      301.025       0.00000
      301.117       0.00000
      301.210       0.00000
      301.303       0.00000
      301.395       0.00000
      301.488       0.00000
      301.581       0.00000
      301.674       0.00000
      301.766       0.00000
      301.859       0.00000
      301.952       0.00000
      302.045       0.00000
      302.138       0.00000
      302.231       0.00000
      302.324       0.00000
      302.417       0.00000
      302.510       0.00000
      302.603       0.00000
      302.696       0.00000
      302.789       0.00000
      302.882       0.00000
      302.976       0.00000
      303.069       0.00000
      303.162       0.00000
      303.255       0.00000
      303.349       0.00000
      303.442       0.00000
      303.535       0.00000
      303.629       0.00000
      303.722       0.00000
      303.816       0.00000
      303.909       0.00000
      304.003       0.00000
      304.096       0.00000
      304.190       0.00000
      304.283       0.00000
      304.377       0.00000
      304.471       0.00000
      304.564       0.00000
      304.658       0.00000
      304.752       0.00000
      304.846       0.00000
      304.939       0.00000
      305.033       0.00000
      305.127       0.00000
      305.221       0.00000
      305.315       0.00000
      305.409       0.00000
      305.503       0.00000
      305.597       0.00000
      305.691       0.00000
      305.785       0.00000
      305.879       0.00000
      305.973       0.00000
      306.067       0.00000
      306.161       0.00000
      306.255       0.00000
      306.350       0.00000
      306.444       0.00000
      306.538       0.00000
      306.633       0.00000
      306.727       0.00000
      306.821       0.00000
      306.916       0.00000
      307.010       0.00000
      307.105       0.00000
      307.199       0.00000
      307.294       0.00000
      307.388       0.00000
      307.483       0.00000
      307.577       0.00000
      307.672       0.00000
      307.767       0.00000
      307.861       0.00000
      307.956       0.00000
      308.051       0.00000
      308.146       0.00000
      308.240       0.00000
      308.335       0.00000
      308.430       0.00000
      308.525       0.00000
      308.620       0.00000
      308.715       0.00000
      308.810       0.00000
      308.905       0.00000
      309.000       0.00000
      309.095       0.00000
      309.190       0.00000
      309.285       0.00000
      309.380       0.00000
      309.476       0.00000
      309.571       0.00000
      309.666       0.00000
      309.761       0.00000
      309.857       0.00000
      309.952       0.00000
      310.047       0.00000
      310.143       0.00000
      310.238       0.00000
      310.334       0.00000
      310.429       0.00000
      310.525       0.00000
      310.620       0.00000
      310.716       0.00000
      310.811       0.00000
      310.907       0.00000
      311.003       0.00000
      311.098       0.00000
      311.194       0.00000
      311.290       0.00000
      311.386       0.00000
      311.481       0.00000
      311.577       0.00000
      311.673       0.00000
      311.769       0.00000
      311.865       0.00000
      311.961       0.00000
      312.057       0.00000
      312.153       0.00000
      312.249       0.00000
      312.345       0.00000
      312.441       0.00000
      312.537       0.00000
      312.633       0.00000
      312.730       0.00000
      312.826       0.00000
      312.922       0.00000
      313.018       0.00000
      313.115       0.00000
      313.211       0.00000
      313.307       0.00000
      313.404       0.00000
      313.500       0.00000
      313.597       0.00000
      313.693       0.00000
      313.790       0.00000
      313.886       0.00000
      313.983       0.00000
      314.079       0.00000
      314.176       0.00000
      314.273       0.00000
      314.369       0.00000
      314.466       0.00000
      314.563       0.00000
      314.660       0.00000
      314.756       0.00000
      314.853       0.00000
      314.950       0.00000
      315.047       0.00000
      315.144       0.00000
      315.241       0.00000
      315.338       0.00000
      315.435       0.00000
      315.532       0.00000
      315.629       0.00000
      315.726       0.00000
      315.823       0.00000
      315.921       0.00000
      316.018       0.00000
      316.115       0.00000
      316.212       0.00000
      316.310       0.00000
      316.407       0.00000
      316.504       0.00000
      316.602       0.00000
      316.699       0.00000
      316.796       0.00000
      316.894       0.00000
      316.991       0.00000
      317.089       0.00000
      317.187       0.00000
      317.284       0.00000
      317.382       0.00000
      317.479       0.00000
      317.577       0.00000
      317.675       0.00000
      317.773       0.00000
      317.870       0.00000
      317.968       0.00000
      318.066       0.00000
      318.164       0.00000
      318.262       0.00000
      318.360       0.00000
      318.458       0.00000
      318.556       0.00000
      318.654       0.00000
      318.752       0.00000
      318.850       0.00000
      318.948       0.00000
      319.046       0.00000
      319.144       0.00000
      319.242       0.00000
      319.341       0.00000
      319.439       0.00000
      319.537       0.00000
      319.635       0.00000
      319.734       0.00000
      319.832       0.00000
      319.930       0.00000
      320.029       0.00000
      320.127       0.00000
      320.226       0.00000
      320.324       0.00000
      320.423       0.00000
      320.522       0.00000
      320.620       0.00000
      320.719       0.00000
      320.818       0.00000
      320.916       0.00000
      321.015       0.00000
      321.114       0.00000
      321.213       0.00000
      321.311       0.00000
      321.410       0.00000
      321.509       0.00000
      321.608       0.00000
      321.707       0.00000
      321.806       0.00000
      321.905       0.00000
      322.004       0.00000
      322.103       0.00000
      322.202       0.00000
      322.301       0.00000
      322.401       0.00000
      322.500       0.00000
      322.599       0.00000
      322.698       0.00000
      322.798       0.00000
      322.897       0.00000
      322.996       0.00000
      323.096       0.00000
      323.195       0.00000
      323.294       0.00000
      323.394       0.00000
      323.493       0.00000
      323.593       0.00000
      323.692       0.00000
      323.792       0.00000
      323.892       0.00000
      323.991       0.00000
      324.091       0.00000
      324.191       0.00000
      324.291       0.00000
      324.390       0.00000
      324.490       0.00000
      324.590       0.00000
      324.690       0.00000
      324.790       0.00000
      324.890       0.00000
      324.990       0.00000
      325.090       0.00000
      325.190       0.00000
      325.290       0.00000
      325.390       0.00000
      325.490       0.00000
      325.590       0.00000
      325.690       0.00000
      325.790       0.00000
      325.891       0.00000
      325.991       0.00000
      326.091       0.00000
      326.192       0.00000
      326.292       0.00000
      326.392       0.00000
      326.493       0.00000
      326.593       0.00000
      326.694       0.00000
      326.794       0.00000
      326.895       0.00000
      326.995       0.00000
      327.096       0.00000
      327.197       0.00000
      327.297       0.00000
      327.398       0.00000
      327.499       0.00000
      327.599       0.00000
      327.700       0.00000
      327.801       0.00000
      327.902       0.00000
      328.003       0.00000
      328.104       0.00000
      328.205       0.00000
      328.306       0.00000
      328.407       0.00000
      328.508       0.00000
      328.609       0.00000
      328.710       0.00000
      328.811       0.00000
      328.912       0.00000
      329.013       0.00000
      329.115       0.00000
      329.216       0.00000
      329.317       0.00000
      329.419       0.00000
      329.520       0.00000
      329.621       0.00000
      329.723       0.00000
      329.824       0.00000
      329.926       0.00000
      330.027       0.00000
      330.129       0.00000
      330.230       0.00000
      330.332       0.00000
      330.434       0.00000
      330.535       0.00000
      330.637       0.00000
      330.739       0.00000
      330.840       0.00000
      330.942       0.00000
      331.044       0.00000
      331.146       0.00000
      331.248       0.00000
      331.350       0.00000
      331.452       0.00000
      331.554       0.00000
      331.656       0.00000
      331.758       0.00000
      331.860       0.00000
      331.962       0.00000
      332.064       0.00000
      332.166       0.00000
      332.268       0.00000
      332.371       0.00000
      332.473       0.00000
      332.575       0.00000
      332.677       0.00000
      332.780       0.00000
      332.882       0.00000
      332.985       0.00000
      333.087       0.00000
      333.190       0.00000
      333.292       0.00000
      333.395       0.00000
      333.497       0.00000
      333.600       0.00000
      333.702       0.00000
      333.805       0.00000
      333.908       0.00000
      334.011       0.00000
      334.113       0.00000
      334.216       0.00000
      334.319       0.00000
      334.422       0.00000
      334.525       0.00000
      334.628       0.00000
      334.731       0.00000
      334.834       0.00000
      334.937       0.00000
      335.040       0.00000
      335.143       0.00000
      335.246       0.00000
      335.349       0.00000
      335.452       0.00000
      335.555       0.00000
      335.659       0.00000
      335.762       0.00000
      335.865       0.00000
      335.969       0.00000
      336.072       0.00000
      336.175       0.00000
      336.279       0.00000
      336.382       0.00000
      336.486       0.00000
      336.589       0.00000
      336.693       0.00000
      336.796       0.00000
      336.900       0.00000
      337.004       0.00000
      337.107       0.00000
      337.211       0.00000
      337.315       0.00000
      337.419       0.00000
      337.523       0.00000
      337.626       0.00000
      337.730       0.00000
      337.834       0.00000
      337.938       0.00000
      338.042       0.00000
      338.146       0.00000
      338.250       0.00000
      338.354       0.00000
      338.458       0.00000
      338.562       0.00000
      338.667       0.00000
      338.771       0.00000
      338.875       0.00000
      338.979       0.00000
      339.084       0.00000
      339.188       0.00000
      339.292       0.00000
      339.397       0.00000
      339.501       0.00000
      339.606       0.00000
      339.710       0.00000
      339.815       0.00000
      339.919       0.00000
      340.024       0.00000
      340.128       0.00000
      340.233       0.00000
      340.338       0.00000
      340.442       0.00000
      340.547       0.00000
      340.652       0.00000
      340.757       0.00000
      340.862       0.00000
      340.966       0.00000
      341.071       0.00000
      341.176       0.00000
      341.281       0.00000
      341.386       0.00000
      341.491       0.00000
      341.596       0.00000
      341.702       0.00000
      341.807       0.00000
      341.912       0.00000
      342.017       0.00000
      342.122       0.00000
      342.228       0.00000
      342.333       0.00000
      342.438       0.00000
      342.544       0.00000
      342.649       0.00000
      342.754       0.00000
      342.860       0.00000
      342.965       0.00000
      343.071       0.00000
      343.176       0.00000
      343.282       0.00000
      343.388       0.00000
      343.493       0.00000
      343.599       0.00000
      343.705       0.00000
      343.810       0.00000
      343.916       0.00000
      344.022       0.00000
      344.128       0.00000
      344.234       0.00000
      344.340       0.00000
      344.446       0.00000
      344.552       0.00000
      344.658       0.00000
      344.764       0.00000
      344.870       0.00000
      344.976       0.00000
      345.082       0.00000
      345.188       0.00000
      345.294       0.00000
      345.401       0.00000
      345.507       0.00000
      345.613       0.00000
      345.719       0.00000
      345.826       0.00000
      345.932       0.00000
      346.039       0.00000
      346.145       0.00000
      346.252       0.00000
      346.358       0.00000
      346.465       0.00000
      346.571       0.00000
      346.678       0.00000
      346.785       0.00000
      346.891       0.00000
      346.998       0.00000
      347.105       0.00000
      347.212       0.00000
      347.319       0.00000
      347.425       0.00000
      347.532       0.00000
      347.639       0.00000
      347.746       0.00000
      347.853       0.00000
      347.960       0.00000
      348.067       0.00000
      348.174       0.00000
      348.281       0.00000
      348.389       0.00000
      348.496       0.00000
      348.603       0.00000
      348.710       0.00000
      348.818       0.00000
      348.925       0.00000
      349.032       0.00000
      349.140       0.00000
      349.247       0.00000
      349.355       0.00000
      349.462       0.00000
      349.570       0.00000
      349.677       0.00000
      349.785       0.00000
      349.892       0.00000
      350.000       0.00000
      350.100       0.00000
      350.193       0.00000
      350.287       0.00000
      350.380       0.00000
      350.473       0.00000
      350.567       0.00000
      350.660       0.00000
      350.754       0.00000
      350.847       0.00000
      350.941       0.00000
      351.034       0.00000
      351.128       0.00000
      351.221       0.00000
      351.315       0.00000
      351.409       0.00000
      351.502       0.00000
      351.596       0.00000
      351.690       0.00000
      351.783       0.00000
      351.877       0.00000
      351.971       0.00000
      352.065       0.00000
      352.159       0.00000
      352.252       0.00000
      352.346       0.00000
      352.440       0.00000
      352.534       0.00000
      352.628       0.00000
      352.722       0.00000
      352.816       0.00000
      352.910       0.00000
      353.004       0.00000
      353.098       0.00000
      353.192       0.00000
      353.287       0.00000
      353.381       0.00000
      353.475       0.00000
      353.569       0.00000
      353.663       0.00000
      353.758       0.00000
      353.852       0.00000
      353.946       0.00000
      354.041       0.00000
      354.135       0.00000
      354.229       0.00000
      354.324       0.00000
      354.418       0.00000
      354.513       0.00000
      354.607       0.00000
      354.702       0.00000
      354.796       0.00000
      354.891       0.00000
      354.985       0.00000
      355.080       0.00000
      355.175       0.00000
      355.269       0.00000
      355.364       0.00000
      355.459       0.00000
      355.553       0.00000
      355.648       0.00000
      355.743       0.00000
      355.838       0.00000
      355.933       0.00000
      356.027       0.00000
      356.122       0.00000
      356.217       0.00000
      356.312       0.00000
      356.407       0.00000
      356.502       0.00000
      356.597       0.00000
      356.692       0.00000
      356.787       0.00000
      356.882       0.00000
      356.977       0.00000
      357.073       0.00000
      357.168       0.00000
      357.263       0.00000
      357.358       0.00000
      357.453       0.00000
      357.549       0.00000
      357.644       0.00000
      357.739       0.00000
      357.835       0.00000
      357.930       0.00000
      358.025       0.00000
      358.121       0.00000
      358.216       0.00000
      358.312       0.00000
      358.407       0.00000
      358.503       0.00000
      358.598       0.00000
      358.694       0.00000
      358.790       0.00000
      358.885       0.00000
      358.981       0.00000
      359.076       0.00000
      359.172       0.00000
      359.268       0.00000
      359.364       0.00000
      359.459       0.00000
      359.555       0.00000
      359.651       0.00000
      359.747       0.00000
      359.843       0.00000
      359.939       0.00000
      360.035       0.00000
      360.131       0.00000
      360.227       0.00000
      360.323       0.00000
      360.419       0.00000
      360.515       0.00000
      360.611       0.00000
      360.707       0.00000
      360.803       0.00000
      360.899       0.00000
      360.995       0.00000
      361.092       0.00000
      361.188       0.00000
      361.284       0.00000
      361.380       0.00000
      361.477       0.00000
      361.573       0.00000
      361.669       0.00000
      361.766       0.00000
      361.862       0.00000
      361.959       0.00000
      362.055       0.00000
      362.152       0.00000
      362.248       0.00000
      362.345       0.00000
      362.441       0.00000
      362.538       0.00000
      362.635       0.00000
      362.731       0.00000
      362.828       0.00000
      362.925       0.00000
      363.021       0.00000
      363.118       0.00000
      363.215       0.00000
      363.312       0.00000
      363.409       0.00000
      363.505       0.00000
      363.602       0.00000
      363.699       0.00000
      363.796       0.00000
      363.893       0.00000
      363.990       0.00000
      364.087       0.00000
      364.184       0.00000
      364.281       0.00000
      364.378       0.00000
      364.475       0.00000
      364.573       0.00000
      364.670       0.00000
      364.767       0.00000
      364.864       0.00000
      364.961       0.00000
      365.059       0.00000
      365.156       0.00000
      365.253       0.00000
      365.351       0.00000
      365.448       0.00000
      365.545       0.00000
      365.643       0.00000
      365.740       0.00000
      365.838       0.00000
      365.935       0.00000
      366.033       0.00000
      366.130       0.00000
      366.228       0.00000
      366.326       0.00000
      366.423       0.00000
      366.521       0.00000
      366.618       0.00000
      366.716       0.00000
      366.814       0.00000
      366.912       0.00000
      367.010       0.00000
      367.107       0.00000
      367.205       0.00000
      367.303       0.00000
      367.401       0.00000
      367.499       0.00000
      367.597       0.00000
      367.695       0.00000
      367.793       0.00000
      367.891       0.00000
      367.989       0.00000
      368.087       0.00000
      368.185       0.00000
      368.283       0.00000
      368.381       0.00000
      368.480       0.00000
      368.578       0.00000
      368.676       0.00000
      368.774       0.00000
      368.873       0.00000
      368.971       0.00000
      369.069       0.00000
      369.168       0.00000
      369.266       0.00000
      369.364       0.00000
      369.463       0.00000
      369.561       0.00000
      369.660       0.00000
      369.758       0.00000
      369.857       0.00000
      369.955       0.00000
      370.054       0.00000
      370.153       0.00000
      370.251       0.00000
      370.350       0.00000
      370.449       0.00000
      370.547       0.00000
      370.646       0.00000
      370.745       0.00000
      370.844       0.00000
      370.943       0.00000
      371.041       0.00000
      371.140       0.00000
      371.239       0.00000
      371.338       0.00000
      371.437       0.00000
      371.536       0.00000
      371.635       0.00000
      371.734       0.00000
      371.833       0.00000
      371.932       0.00000
      372.032       0.00000
      372.131       0.00000
      372.230       0.00000
      372.329       0.00000
      372.428       0.00000
      372.528       0.00000
      372.627       0.00000
      372.726       0.00000
      372.826       0.00000
      372.925       0.00000
      373.024       0.00000
      373.124       0.00000
      373.223       0.00000
      373.323       0.00000
      373.422       0.00000
      373.522       0.00000
      373.621       0.00000
      373.721       0.00000
      373.820       0.00000
      373.920       0.00000
      374.020       0.00000
      374.119       0.00000
      374.219       0.00000
      374.319       0.00000
      374.419       0.00000
      374.518       0.00000
      374.618       0.00000
      374.718       0.00000
      374.818       0.00000
      374.918       0.00000
      375.018       0.00000
      375.118       0.00000
      375.218       0.00000
      375.318       0.00000
      375.418       0.00000
      375.518       0.00000
      375.618       0.00000
      375.718       0.00000
      375.818       0.00000
      375.918       0.00000
      376.019       0.00000
      376.119       0.00000
      376.219       0.00000
      376.319       0.00000
      376.420       0.00000
      376.520       0.00000
      376.620       0.00000
      376.721       0.00000
      376.821       0.00000
      376.922       0.00000
      377.022       0.00000
      377.122       0.00000
      377.223       0.00000
      377.323       0.00000
      377.424       0.00000
      377.525       0.00000
      377.625       0.00000
      377.726       0.00000
      377.827       0.00000
      377.927       0.00000
      378.028       0.00000
      378.129       0.00000
      378.230       0.00000
      378.330       0.00000
      378.431       0.00000
      378.532       0.00000
      378.633       0.00000
      378.734       0.00000
      378.835       0.00000
      378.936       0.00000
      379.037       0.00000
      379.138       0.00000
      379.239       0.00000
      379.340       0.00000
      379.441       0.00000
      379.542       0.00000
      379.643       0.00000
      379.745       0.00000
      379.846       0.00000
      379.947       0.00000
      380.048       0.00000
      380.150       0.00000
      380.251       0.00000
      380.352       0.00000
      380.454       0.00000
      380.555       0.00000
      380.656       0.00000
      380.758       0.00000
      380.859       0.00000
      380.961       0.00000
      381.062       0.00000
      381.164       0.00000
      381.266       0.00000
      381.367       0.00000
      381.469       0.00000
      381.570       0.00000
      381.672       0.00000
      381.774       0.00000
      381.876       0.00000
      381.977       0.00000
      382.079       0.00000
      382.181       0.00000
      382.283       0.00000
      382.385       0.00000
      382.487       0.00000
      382.589       0.00000
      382.691       0.00000
      382.793       0.00000
      382.895       0.00000
      382.997       0.00000
      383.099       0.00000
      383.201       0.00000
      383.303       0.00000
      383.405       0.00000
      383.507       0.00000
      383.610       0.00000
      383.712       0.00000
      383.814       0.00000
      383.916       0.00000
      384.019       0.00000
      384.121       0.00000
      384.223       0.00000
      384.326       0.00000
      384.428       0.00000
      384.531       0.00000
      384.633       0.00000
      384.736       0.00000
      384.838       0.00000
      384.941       0.00000
      385.043       0.00000
      385.146       0.00000
      385.249       0.00000
      385.351       0.00000
      385.454       0.00000
      385.557       0.00000
      385.660       0.00000
      385.762       0.00000
      385.865       0.00000
      385.968       0.00000
      386.071       0.00000
      386.174       0.00000
      386.277       0.00000
      386.380       0.00000
      386.483       0.00000
      386.586       0.00000
      386.689       0.00000
      386.792       0.00000
      386.895       0.00000
      386.998       0.00000
      387.101       0.00000
      387.204       0.00000
      387.308       0.00000
      387.411       0.00000
      387.514       0.00000
      387.617       0.00000
      387.721       0.00000
      387.824       0.00000
      387.927       0.00000
      388.031       0.00000
      388.134       0.00000
      388.238       0.00000
      388.341       0.00000
      388.445       0.00000
      388.548       0.00000
      388.652       0.00000
      388.755       0.00000
      388.859       0.00000
      388.962       0.00000
      389.066       0.00000
      389.170       0.00000
      389.274       0.00000
      389.377       0.00000
      389.481       0.00000
      389.585       0.00000
      389.689       0.00000
      389.793       0.00000
      389.897       0.00000
      390.000       0.00000
      390.104       0.00000
      390.208       0.00000
      390.312       0.00000
      390.416       0.00000
      390.520       0.00000
      390.625       0.00000
      390.729       0.00000
      390.833       0.00000
      390.937       0.00000
      391.041       0.00000
      391.145       0.00000
      391.250       0.00000
      391.354       0.00000
      391.458       0.00000
      391.563       0.00000
      391.667       0.00000
      391.771       0.00000
      391.876       0.00000
      391.980       0.00000
      392.085       0.00000
      392.189       0.00000
      392.294       0.00000
      392.398       0.00000
      392.503       0.00000
      392.607       0.00000
      392.712       0.00000
      392.817       0.00000
      392.921       0.00000
      393.026       0.00000
      393.131       0.00000
      393.236       0.00000
      393.340       0.00000
      393.445       0.00000
      393.550       0.00000
      393.655       0.00000
      393.760       0.00000
      393.865       0.00000
      393.970       0.00000
      394.075       0.00000
      394.180       0.00000
      394.285       0.00000
      394.390       0.00000
      394.495       0.00000
      394.600       0.00000
      394.706       0.00000
      394.811       0.00000
      394.916       0.00000
      395.021       0.00000
      395.126       0.00000
      395.232       0.00000
      395.337       0.00000
      395.443       0.00000
      395.548       0.00000
      395.653       0.00000
      395.759       0.00000
      395.864       0.00000
      395.970       0.00000
      396.075       0.00000
      396.181       0.00000
      396.286       0.00000
      396.392       0.00000
      396.498       0.00000
      396.603       0.00000
      396.709       0.00000
      396.815       0.00000
      396.921       0.00000
      397.026       0.00000
      397.132       0.00000
      397.238       0.00000
      397.344       0.00000
      397.450       0.00000
      397.556       0.00000
      397.662       0.00000
      397.768       0.00000
      397.874       0.00000
      397.980       0.00000
      398.086       0.00000
      398.192       0.00000
      398.298       0.00000
      398.404       0.00000
      398.510       0.00000
      398.617       0.00000
      398.723       0.00000
      398.829       0.00000
      398.935       0.00000
      399.042       0.00000
      399.148       0.00000
      399.255       0.00000
      399.361       0.00000
      399.467       0.00000
      399.574       0.00000
      399.680       0.00000
      399.787       0.00000
      399.893       0.00000
      400.000       0.00000
