Filter Be-med
observation_date 22-Sept-2019 22:40:45
wavelength effective area 
      1.00000   2.78114e-10
      1.10000   7.93776e-10
      1.20000   2.06298e-09
      1.30000   4.93138e-09
      1.40000   1.11851e-08
      1.50000   2.38507e-08
      1.60000   4.82558e-08
      1.70000   9.36196e-08
      1.80000   1.74160e-07
      1.90000   3.12741e-07
      2.00000   5.43152e-07
      2.10000   9.16374e-07
      2.20000   1.50908e-06
      2.30000   2.42241e-06
      2.40000   3.79708e-06
      2.50000   5.79294e-06
      2.60000   8.82377e-06
      2.70000   1.31280e-05
      2.80000   1.91549e-05
      2.90000   2.76553e-05
      3.00000   3.92969e-05
      3.10000   5.51116e-05
      3.20000   7.64308e-05
      3.30000   0.000104895
      3.40000   0.000142425
      3.50000   0.000191466
      3.60000   0.000256133
      3.70000   0.000338923
      3.80000   0.000446478
      3.90000   0.000584732
      4.00000   0.000760810
      4.10000   0.000985029
      4.20000    0.00127054
      4.30000    0.00163364
      4.40000    0.00209423
      4.50000    0.00267642
      4.60000    0.00340792
      4.70000    0.00433755
      4.80000    0.00551292
      4.90000    0.00691477
      5.00000    0.00889693
      5.10000     0.0112829
      5.20000     0.0143435
      5.30000     0.0180750
      5.40000     0.0227285
      5.50000     0.0286180
      5.60000     0.0349152
      5.70000     0.0448596
      5.80000     0.0519425
      5.90000     0.0783032
      6.00000      0.103879
      6.10000      0.130958
      6.20000      0.158586
      6.30000      0.184007
      6.40000      0.204698
      6.50000      0.218546
      6.60000      0.222662
      6.70000      0.225794
      6.80000      0.222322
      6.90000      0.286617
      7.00000      0.306103
      7.10000      0.317738
      7.20000      0.325152
      7.30000      0.329519
      7.40000      0.330868
      7.50000      0.330218
      7.60000      0.327733
      7.70000      0.322672
      7.80000      0.314593
      7.90000      0.306851
      8.00000      0.432814
      8.10000      0.462089
      8.20000      0.457611
      8.30000      0.450935
      8.40000      0.442273
      8.50000      0.432754
      8.60000      0.422348
      8.70000      0.411378
      8.80000      0.399812
      8.90000      0.387872
      9.00000      0.375604
      9.10000      0.363082
      9.20000      0.350397
      9.30000      0.337615
      9.40000      0.324772
      9.50000      0.311918
      9.60000      0.299134
      9.70000      0.286426
      9.80000      0.273850
      9.90000      0.261477
      10.0000      0.249336
      10.1000      0.237419
      10.2000      0.225749
      10.3000      0.214366
      10.4000      0.203290
      10.5000      0.192508
      10.6000      0.182037
      10.7000      0.171887
      10.8000      0.162083
      10.9000      0.152655
      11.0000      0.143572
      11.1000      0.134841
      11.2000      0.126463
      11.3000      0.118440
      11.4000      0.110767
      11.5000      0.103441
      11.6000     0.0964606
      11.7000     0.0898334
      11.8000     0.0835386
      11.9000     0.0775546
      12.0000     0.0718054
      12.1000     0.0666045
      12.2000     0.0628223
      12.3000     0.0585731
      12.4000     0.0541363
      12.5000     0.0499347
      12.6000     0.0459833
      12.7000     0.0422814
      12.8000     0.0388202
      12.9000     0.0355890
      13.0000     0.0325792
      13.1000     0.0297808
      13.2000     0.0271872
      13.3000     0.0248001
      13.4000     0.0226011
      13.5000     0.0205703
      13.6000     0.0187090
      13.7000     0.0169935
      13.8000     0.0154140
      13.9000     0.0139619
      14.0000     0.0126284
      14.1000     0.0114035
      14.2000     0.0102788
      14.3000    0.00924833
      14.4000    0.00830673
      14.5000    0.00745267
      14.6000    0.00668248
      14.7000    0.00598146
      14.8000    0.00534425
      14.9000    0.00476583
      15.0000    0.00424158
      15.1000    0.00376729
      15.2000    0.00334757
      15.3000    0.00297015
      15.4000    0.00262969
      15.5000    0.00232305
      15.6000    0.00204742
      15.7000    0.00180357
      15.8000    0.00158888
      15.9000    0.00139627
      16.0000    0.00122378
      16.1000    0.00106963
      16.2000   0.000936224
      16.3000   0.000818384
      16.4000   0.000713169
      16.5000   0.000619446
      16.6000   0.000537984
      16.7000   0.000467553
      16.8000   0.000404850
      16.9000   0.000349200
      17.0000   0.000301332
      17.1000   0.000260407
      17.2000   0.000224245
      17.3000   0.000192412
      17.4000   0.000165741
      17.5000   0.000142460
      17.6000   0.000121971
      17.7000   0.000104544
      17.8000   9.04106e-05
      17.9000   7.78508e-05
      18.0000   6.66870e-05
      18.1000   5.74872e-05
      18.2000   4.92472e-05
      18.3000   4.18314e-05
      18.4000   3.55127e-05
      18.5000   3.00223e-05
      18.6000   2.51192e-05
      18.7000   2.09853e-05
      18.8000   1.75244e-05
      18.9000   1.44915e-05
      19.0000   1.20351e-05
      19.1000   9.98957e-06
      19.2000   8.20019e-06
      19.3000   6.78175e-06
      19.4000   5.60090e-06
      19.5000   4.57995e-06
      19.6000   3.81679e-06
      19.7000   3.15441e-06
      19.8000   2.58137e-06
      19.9000   2.14551e-06
      20.0000   1.75759e-06
      20.1000   1.43944e-06
      20.2000   1.18519e-06
      20.3000   9.60532e-07
      20.4000   7.88791e-07
      20.5000   6.42030e-07
      20.6000   5.17530e-07
      20.7000   4.23811e-07
      20.8000   3.40233e-07
      20.9000   2.76073e-07
      21.0000   2.22656e-07
      21.1000   1.77311e-07
      21.2000   1.43919e-07
      21.3000   1.14002e-07
      21.4000   9.17994e-08
      21.5000   7.30235e-08
      21.6000   5.77154e-08
      21.7000   4.61597e-08
      21.8000   3.58630e-08
      21.9000   2.87579e-08
      22.0000   2.23724e-08
      22.1000   1.76462e-08
      22.2000   1.37785e-08
      22.3000   1.06566e-08
      22.4000   8.24523e-09
      22.5000   6.06660e-09
      22.6000   4.36793e-09
      22.7000   2.95657e-09
      22.8000   2.84849e-09
      22.9000   2.83445e-09
      23.0000   2.88159e-09
      23.1000   2.68661e-09
      23.2000   2.26389e-09
      23.3000   1.84908e-09
      23.4000   1.43853e-09
      23.5000   1.14323e-09
      23.6000   8.76738e-10
      23.7000   6.97800e-10
      23.8000   5.28641e-10
      23.9000   4.20582e-10
      24.0000   3.18152e-10
      24.1000   2.51044e-10
      24.2000   1.89485e-10
      24.3000   1.48438e-10
      24.4000   1.11829e-10
      24.5000   8.70090e-11
      24.6000   6.53802e-11
      24.7000   5.05731e-11
      24.8000   3.78865e-11
      24.9000   2.91585e-11
      25.0000   2.17565e-11
      25.1000   1.66782e-11
      25.2000   1.23824e-11
      25.3000   9.46426e-12
      25.4000   6.98258e-12
      25.5000   5.32812e-12
      25.6000   3.90162e-12
      25.7000   2.97588e-12
      25.8000   2.15964e-12
      25.9000   1.64854e-12
      26.0000   1.18381e-12
      26.1000   9.05449e-13
      26.2000   6.42306e-13
      26.3000   4.92854e-13
      26.4000   3.44855e-13
      26.5000   2.65751e-13
      26.6000   1.87048e-13
      26.7000   1.41864e-13
      26.8000   1.00828e-13
      26.9000   7.49330e-14
      27.0000   5.38446e-14
      27.1000   3.91200e-14
      27.2000   2.84451e-14
      27.3000   2.01900e-14
      27.4000   1.49359e-14
      27.5000   1.03788e-14
      27.6000   7.76019e-15
      27.7000   5.22992e-15
      27.8000   3.96236e-15
      27.9000   2.70116e-15
      28.0000   1.99273e-15
      28.1000   1.39423e-15
      28.2000   9.87160e-16
      28.3000   7.07946e-16
      28.4000   4.81286e-16
      28.5000   3.53279e-16
      28.6000   2.30758e-16
      28.7000   1.73123e-16
      28.8000   1.15782e-16
      28.9000   8.32555e-17
      29.0000   5.78813e-17
      29.1000   3.92509e-17
      29.2000   2.82295e-17
      29.3000   1.81291e-17
      29.4000   1.34326e-17
      29.5000   8.76062e-18
      29.6000   6.23652e-18
      29.7000   4.28438e-18
      29.8000   2.82529e-18
      29.9000   2.02555e-18
      30.0000   1.24871e-18
      30.1000   9.27665e-19
      30.2000   6.08304e-19
      30.3000   4.15413e-19
      30.4000   2.94983e-19
      30.5000   1.89554e-19
      30.6000   1.38066e-19
      30.7000   8.68483e-20
      30.8000   6.01393e-20
      30.9000   4.08518e-20
      31.0000   2.53716e-20
      31.1000   1.83585e-20
      31.2000   1.13824e-20
      31.3000   8.00977e-21
      31.4000   5.41759e-21
      31.5000   3.36198e-21
      31.6000   2.41952e-21
      31.7000   1.48210e-21
      31.8000   1.02690e-21
      31.9000   6.94017e-22
      32.0000   4.18429e-22
      32.1000   3.05046e-22
      32.2000   1.92269e-22
      32.3000   1.29921e-22
      32.4000   8.98898e-23
      32.5000   5.29054e-23
      32.6000   3.90067e-23
      32.7000   2.51821e-23
      32.8000   1.59895e-23
      32.9000   1.12918e-23
      33.0000   6.61941e-24
      33.1000   4.68976e-24
      33.2000   3.13833e-24
      33.3000   1.83756e-24
      33.4000   1.33374e-24
      33.5000   8.32552e-25
      33.6000   5.25878e-25
      33.7000   3.66943e-25
      33.8000   2.08822e-25
      33.9000   1.46424e-25
      34.0000   9.74642e-26
      34.1000   5.44393e-26
      34.2000   3.96509e-26
      34.3000   2.49336e-26
      34.4000   1.47684e-26
      34.5000   1.04341e-26
      34.6000   6.12106e-27
      34.7000   3.90604e-27
      34.8000   2.66764e-27
      34.9000   1.43523e-27
      35.0000   1.00651e-27
      35.1000   6.62331e-28
      35.2000   3.46571e-28
      35.3000   2.53000e-28
      35.4000   1.59883e-28
      35.5000   8.66970e-29
      35.6000   6.20677e-29
      35.7000   3.75578e-29
      35.8000   2.11740e-29
      35.9000   1.48701e-29
      36.0000   8.59682e-30
      36.1000   5.04900e-30
      36.2000   3.48144e-30
      36.3000   1.92152e-30
      36.4000   1.17594e-30
      36.5000   7.97366e-31
      36.6000   4.20663e-31
      36.7000   2.67566e-31
      36.8000   1.78822e-31
      36.9000   9.05178e-32
      37.0000   5.94785e-32
      37.1000   3.92984e-32
      37.2000   1.92172e-32
      37.3000   1.29149e-32
      37.4000   8.46695e-33
      37.5000   4.04116e-33
      37.6000   2.73896e-33
      37.7000   1.78936e-33
      37.8000   8.44497e-34
      37.9000   5.67250e-34
      38.0000   3.70909e-34
      38.1000   1.75543e-34
      38.2000   1.14617e-34
      38.3000   7.53343e-35
      38.4000   3.62467e-35
      38.5000   2.25629e-35
      38.6000   1.49699e-35
      38.7000   7.41469e-36
      38.8000   4.32475e-36
      38.9000   2.90704e-36
      39.0000   1.49635e-36
      39.1000   8.06427e-37
      39.2000   5.50758e-37
      39.3000   2.96356e-37
      39.4000   1.45891e-37
      39.5000   1.01137e-37
      39.6000   5.66076e-38
      39.7000   2.48431e-38
      39.8000   1.75627e-38
      39.9000   1.03185e-38
      40.0000   4.08033e-39
      40.1000   2.94448e-39
      40.2000   1.81428e-39
      40.3000   6.89862e-40
      40.4000   4.76743e-40
      40.5000   3.07186e-40
      40.6000   1.38472e-40
      40.7000   7.43557e-41
      40.8000   4.99241e-41
      40.9000   2.56143e-41
      41.0000   1.11445e-41
      41.1000   7.76740e-42
      41.2000   4.40848e-42
      41.3000   1.60449e-42
      41.4000   1.15327e-42
      41.5000   7.09057e-43
      41.6000   2.69049e-43
      41.7000   1.62551e-43
      41.8000   1.05097e-43
      41.9000   4.76441e-44
      42.0000   2.24208e-44
      42.1000   1.96182e-44
      42.2000   7.00649e-45
      42.3000   2.80260e-45
      42.4000   2.80260e-45
      42.5000   2.80260e-45
      42.6000  -2.80260e-45
      42.7000       0.00000
      42.8000       0.00000
      42.9000       0.00000
      43.0000       0.00000
      43.1000       0.00000
      43.2000       0.00000
      43.3000       0.00000
      43.4000       0.00000
      43.5000       0.00000
      43.6000       0.00000
      43.7000       0.00000
      43.8000       0.00000
      43.9000       0.00000
      44.0000       0.00000
      44.1000       0.00000
      44.2000       0.00000
      44.3000       0.00000
      44.4000       0.00000
      44.5000       0.00000
      44.6000       0.00000
      44.7000       0.00000
      44.8000       0.00000
      44.9000       0.00000
      45.0000       0.00000
      45.1000       0.00000
      45.2000       0.00000
      45.3000       0.00000
      45.4000       0.00000
      45.5000       0.00000
      45.6000       0.00000
      45.7000       0.00000
      45.8000       0.00000
      45.9000       0.00000
      46.0000       0.00000
      46.1000       0.00000
      46.2000       0.00000
      46.3000       0.00000
      46.4000       0.00000
      46.5000       0.00000
      46.6000       0.00000
      46.7000       0.00000
      46.8000       0.00000
      46.9000       0.00000
      47.0000       0.00000
      47.1000       0.00000
      47.2000       0.00000
      47.3000       0.00000
      47.4000       0.00000
      47.5000       0.00000
      47.6000       0.00000
      47.7000       0.00000
      47.8000       0.00000
      47.9000       0.00000
      48.0000       0.00000
      48.1000       0.00000
      48.2000       0.00000
      48.3000       0.00000
      48.4000       0.00000
      48.5000       0.00000
      48.6000       0.00000
      48.7000       0.00000
      48.8000       0.00000
      48.9000       0.00000
      49.0000       0.00000
      49.1000       0.00000
      49.2000       0.00000
      49.3000       0.00000
      49.4000       0.00000
      49.5000       0.00000
      49.6000       0.00000
      49.7000       0.00000
      49.8000       0.00000
      49.9000       0.00000
      50.0000       0.00000
      50.1000       0.00000
      50.2000       0.00000
      50.3000       0.00000
      50.4000       0.00000
      50.5000       0.00000
      50.6000       0.00000
      50.7000       0.00000
      50.8000       0.00000
      50.9000       0.00000
      51.0000       0.00000
      51.1000       0.00000
      51.2000       0.00000
      51.3000       0.00000
      51.4000       0.00000
      51.5000       0.00000
      51.6000       0.00000
      51.7000       0.00000
      51.8000       0.00000
      51.9000       0.00000
      52.0000       0.00000
      52.1000       0.00000
      52.2000       0.00000
      52.3000       0.00000
      52.4000       0.00000
      52.5000       0.00000
      52.6000       0.00000
      52.7000       0.00000
      52.8000       0.00000
      52.9000       0.00000
      53.0000       0.00000
      53.1000       0.00000
      53.2000       0.00000
      53.3000       0.00000
      53.4000       0.00000
      53.5000       0.00000
      53.6000       0.00000
      53.7000       0.00000
      53.8000       0.00000
      53.9000       0.00000
      54.0000       0.00000
      54.1000       0.00000
      54.2000       0.00000
      54.3000       0.00000
      54.4000       0.00000
      54.5000       0.00000
      54.6000       0.00000
      54.7000       0.00000
      54.8000       0.00000
      54.9000       0.00000
      55.0000       0.00000
      55.1000       0.00000
      55.2000       0.00000
      55.3000       0.00000
      55.4000       0.00000
      55.5000       0.00000
      55.6000       0.00000
      55.7000       0.00000
      55.8000       0.00000
      55.9000       0.00000
      56.0000       0.00000
      56.1000       0.00000
      56.2000       0.00000
      56.3000       0.00000
      56.4000       0.00000
      56.5000       0.00000
      56.6000       0.00000
      56.7000       0.00000
      56.8000       0.00000
      56.9000       0.00000
      57.0000       0.00000
      57.1000       0.00000
      57.2000       0.00000
      57.3000       0.00000
      57.4000       0.00000
      57.5000       0.00000
      57.6000       0.00000
      57.7000       0.00000
      57.8000       0.00000
      57.9000       0.00000
      58.0000       0.00000
      58.1000       0.00000
      58.2000       0.00000
      58.3000       0.00000
      58.4000       0.00000
      58.5000       0.00000
      58.6000       0.00000
      58.7000       0.00000
      58.8000       0.00000
      58.9000       0.00000
      59.0000       0.00000
      59.1000       0.00000
      59.2000       0.00000
      59.3000       0.00000
      59.4000       0.00000
      59.5000       0.00000
      59.6000       0.00000
      59.7000       0.00000
      59.8000       0.00000
      59.9000       0.00000
      60.0000       0.00000
      60.1000       0.00000
      60.2000       0.00000
      60.3000       0.00000
      60.4000       0.00000
      60.5000       0.00000
      60.6000       0.00000
      60.7000       0.00000
      60.8000       0.00000
      60.9000       0.00000
      61.0000       0.00000
      61.1000       0.00000
      61.2000       0.00000
      61.3000       0.00000
      61.4000       0.00000
      61.5000       0.00000
      61.6000       0.00000
      61.7000       0.00000
      61.8000       0.00000
      61.9000       0.00000
      62.0000       0.00000
      62.1000       0.00000
      62.2000       0.00000
      62.3000       0.00000
      62.4000       0.00000
      62.5000       0.00000
      62.6000       0.00000
      62.7000       0.00000
      62.8000       0.00000
      62.9000       0.00000
      63.0000       0.00000
      63.1000       0.00000
      63.2000       0.00000
      63.3000       0.00000
      63.4000       0.00000
      63.5000       0.00000
      63.6000       0.00000
      63.7000       0.00000
      63.8000       0.00000
      63.9000       0.00000
      64.0000       0.00000
      64.1000       0.00000
      64.2000       0.00000
      64.3000       0.00000
      64.4000       0.00000
      64.5000       0.00000
      64.6000       0.00000
      64.7000       0.00000
      64.8000       0.00000
      64.9000       0.00000
      65.0000       0.00000
      65.1000       0.00000
      65.2000       0.00000
      65.3000       0.00000
      65.4000       0.00000
      65.5000       0.00000
      65.6000       0.00000
      65.7000       0.00000
      65.8000       0.00000
      65.9000       0.00000
      66.0000       0.00000
      66.1000       0.00000
      66.2000       0.00000
      66.3000       0.00000
      66.4000       0.00000
      66.5000       0.00000
      66.6000       0.00000
      66.7000       0.00000
      66.8000       0.00000
      66.9000       0.00000
      67.0000       0.00000
      67.1000       0.00000
      67.2000       0.00000
      67.3000       0.00000
      67.4000       0.00000
      67.5000       0.00000
      67.6000       0.00000
      67.7000       0.00000
      67.8000       0.00000
      67.9000       0.00000
      68.0000       0.00000
      68.1000       0.00000
      68.2000       0.00000
      68.3000       0.00000
      68.4000       0.00000
      68.5000       0.00000
      68.6000       0.00000
      68.7000       0.00000
      68.8000       0.00000
      68.9000       0.00000
      69.0000       0.00000
      69.1000       0.00000
      69.2000       0.00000
      69.3000       0.00000
      69.4000       0.00000
      69.5000       0.00000
      69.6000       0.00000
      69.7000       0.00000
      69.8000       0.00000
      69.9000       0.00000
      70.0000       0.00000
      70.1000       0.00000
      70.2000       0.00000
      70.3000       0.00000
      70.4000       0.00000
      70.5000       0.00000
      70.6000       0.00000
      70.7000       0.00000
      70.8000       0.00000
      70.9000       0.00000
      71.0000       0.00000
      71.1000       0.00000
      71.2000       0.00000
      71.3000       0.00000
      71.4000       0.00000
      71.5000       0.00000
      71.6000       0.00000
      71.7000       0.00000
      71.8000       0.00000
      71.9000       0.00000
      72.0000       0.00000
      72.1000       0.00000
      72.2000       0.00000
      72.3000       0.00000
      72.4000       0.00000
      72.5000       0.00000
      72.6000       0.00000
      72.7000       0.00000
      72.8000       0.00000
      72.9000       0.00000
      73.0000       0.00000
      73.1000       0.00000
      73.2000       0.00000
      73.3000       0.00000
      73.4000       0.00000
      73.5000       0.00000
      73.6000       0.00000
      73.7000       0.00000
      73.8000       0.00000
      73.9000       0.00000
      74.0000       0.00000
      74.1000       0.00000
      74.2000       0.00000
      74.3000       0.00000
      74.4000       0.00000
      74.5000       0.00000
      74.6000       0.00000
      74.7000       0.00000
      74.8000       0.00000
      74.9000       0.00000
      75.0000       0.00000
      75.1000       0.00000
      75.2000       0.00000
      75.3000       0.00000
      75.4000       0.00000
      75.5000       0.00000
      75.6000       0.00000
      75.7000       0.00000
      75.8000       0.00000
      75.9000       0.00000
      76.0000       0.00000
      76.1000       0.00000
      76.2000       0.00000
      76.3000       0.00000
      76.4000       0.00000
      76.5000       0.00000
      76.6000       0.00000
      76.7000       0.00000
      76.8000       0.00000
      76.9000       0.00000
      77.0000       0.00000
      77.1000       0.00000
      77.2000       0.00000
      77.3000       0.00000
      77.4000       0.00000
      77.5000       0.00000
      77.6000       0.00000
      77.7000       0.00000
      77.8000       0.00000
      77.9000       0.00000
      78.0000       0.00000
      78.1000       0.00000
      78.2000       0.00000
      78.3000       0.00000
      78.4000       0.00000
      78.5000       0.00000
      78.6000       0.00000
      78.7000       0.00000
      78.8000       0.00000
      78.9000       0.00000
      79.0000       0.00000
      79.1000       0.00000
      79.2000       0.00000
      79.3000       0.00000
      79.4000       0.00000
      79.5000       0.00000
      79.6000       0.00000
      79.7000       0.00000
      79.8000       0.00000
      79.9000       0.00000
      80.0000       0.00000
      80.1000       0.00000
      80.2000       0.00000
      80.3000       0.00000
      80.4000       0.00000
      80.5000       0.00000
      80.6000       0.00000
      80.7000       0.00000
      80.8000       0.00000
      80.9000       0.00000
      81.0000       0.00000
      81.1000       0.00000
      81.2000       0.00000
      81.3000       0.00000
      81.4000       0.00000
      81.5000       0.00000
      81.6000       0.00000
      81.7000       0.00000
      81.8000       0.00000
      81.9000       0.00000
      82.0000       0.00000
      82.1000       0.00000
      82.2000       0.00000
      82.3000       0.00000
      82.4000       0.00000
      82.5000       0.00000
      82.6000       0.00000
      82.7000       0.00000
      82.8000       0.00000
      82.9000       0.00000
      83.0000       0.00000
      83.1000       0.00000
      83.2000       0.00000
      83.3000       0.00000
      83.4000       0.00000
      83.5000       0.00000
      83.6000       0.00000
      83.7000       0.00000
      83.8000       0.00000
      83.9000       0.00000
      84.0000       0.00000
      84.1000       0.00000
      84.2000       0.00000
      84.3000       0.00000
      84.4000       0.00000
      84.5000       0.00000
      84.6000       0.00000
      84.7000       0.00000
      84.8000       0.00000
      84.9000       0.00000
      85.0000       0.00000
      85.1000       0.00000
      85.2000       0.00000
      85.3000       0.00000
      85.4000       0.00000
      85.5000       0.00000
      85.6000       0.00000
      85.7000       0.00000
      85.8000       0.00000
      85.9000       0.00000
      86.0000       0.00000
      86.1000       0.00000
      86.2000       0.00000
      86.3000       0.00000
      86.4000       0.00000
      86.5000       0.00000
      86.6000       0.00000
      86.7000       0.00000
      86.8000       0.00000
      86.9000       0.00000
      87.0000       0.00000
      87.1000       0.00000
      87.2000       0.00000
      87.3000       0.00000
      87.4000       0.00000
      87.5000       0.00000
      87.6000       0.00000
      87.7000       0.00000
      87.8000       0.00000
      87.9000       0.00000
      88.0000       0.00000
      88.1000       0.00000
      88.2000       0.00000
      88.3000       0.00000
      88.4000       0.00000
      88.5000       0.00000
      88.6000       0.00000
      88.7000       0.00000
      88.8000       0.00000
      88.9000       0.00000
      89.0000       0.00000
      89.1000       0.00000
      89.2000       0.00000
      89.3000       0.00000
      89.4000       0.00000
      89.5000       0.00000
      89.6000       0.00000
      89.7000       0.00000
      89.8000       0.00000
      89.9000       0.00000
      90.0000       0.00000
      90.1000       0.00000
      90.2000       0.00000
      90.3000       0.00000
      90.4000       0.00000
      90.5000       0.00000
      90.6000       0.00000
      90.7000       0.00000
      90.8000       0.00000
      90.9000       0.00000
      91.0000       0.00000
      91.1000       0.00000
      91.2000       0.00000
      91.3000       0.00000
      91.4000       0.00000
      91.5000       0.00000
      91.6000       0.00000
      91.7000       0.00000
      91.8000       0.00000
      91.9000       0.00000
      92.0000       0.00000
      92.1000       0.00000
      92.2000       0.00000
      92.3000       0.00000
      92.4000       0.00000
      92.5000       0.00000
      92.6000       0.00000
      92.7000       0.00000
      92.8000       0.00000
      92.9000       0.00000
      93.0000       0.00000
      93.1000       0.00000
      93.2000       0.00000
      93.3000       0.00000
      93.4000       0.00000
      93.5000       0.00000
      93.6000       0.00000
      93.7000       0.00000
      93.8000       0.00000
      93.9000       0.00000
      94.0000       0.00000
      94.1000       0.00000
      94.2000       0.00000
      94.3000       0.00000
      94.4000       0.00000
      94.5000       0.00000
      94.6000       0.00000
      94.7000       0.00000
      94.8000       0.00000
      94.9000       0.00000
      95.0000       0.00000
      95.1000       0.00000
      95.2000       0.00000
      95.3000       0.00000
      95.4000       0.00000
      95.5000       0.00000
      95.6000       0.00000
      95.7000       0.00000
      95.8000       0.00000
      95.9000       0.00000
      96.0000       0.00000
      96.1000       0.00000
      96.2000       0.00000
      96.3000       0.00000
      96.4000       0.00000
      96.5000       0.00000
      96.6000       0.00000
      96.7000       0.00000
      96.8000       0.00000
      96.9000       0.00000
      97.0000       0.00000
      97.1000       0.00000
      97.2000       0.00000
      97.3000       0.00000
      97.4000       0.00000
      97.5000       0.00000
      97.6000       0.00000
      97.7000       0.00000
      97.8000       0.00000
      97.9000       0.00000
      98.0000       0.00000
      98.1000       0.00000
      98.2000       0.00000
      98.3000       0.00000
      98.4000       0.00000
      98.5000       0.00000
      98.6000       0.00000
      98.7000       0.00000
      98.8000       0.00000
      98.9000       0.00000
      99.0000       0.00000
      99.1000       0.00000
      99.2000       0.00000
      99.3000       0.00000
      99.4000       0.00000
      99.5000       0.00000
      99.6000       0.00000
      99.7000       0.00000
      99.8000       0.00000
      99.9000       0.00000
      100.000       0.00000
      100.100       0.00000
      100.200       0.00000
      100.300       0.00000
      100.400       0.00000
      100.500       0.00000
      100.600       0.00000
      100.700       0.00000
      100.800       0.00000
      100.900       0.00000
      101.000       0.00000
      101.100       0.00000
      101.200       0.00000
      101.300       0.00000
      101.400       0.00000
      101.500       0.00000
      101.600       0.00000
      101.700       0.00000
      101.800       0.00000
      101.900       0.00000
      102.000       0.00000
      102.100       0.00000
      102.200       0.00000
      102.300       0.00000
      102.400       0.00000
      102.500       0.00000
      102.600       0.00000
      102.700       0.00000
      102.800       0.00000
      102.900       0.00000
      103.000       0.00000
      103.100       0.00000
      103.200       0.00000
      103.300       0.00000
      103.400       0.00000
      103.500       0.00000
      103.600       0.00000
      103.700       0.00000
      103.800       0.00000
      103.900       0.00000
      104.000       0.00000
      104.100       0.00000
      104.200       0.00000
      104.300       0.00000
      104.400       0.00000
      104.500       0.00000
      104.600       0.00000
      104.700       0.00000
      104.800       0.00000
      104.900       0.00000
      105.000       0.00000
      105.100       0.00000
      105.200       0.00000
      105.300       0.00000
      105.400       0.00000
      105.500       0.00000
      105.600       0.00000
      105.700       0.00000
      105.800       0.00000
      105.900       0.00000
      106.000       0.00000
      106.100       0.00000
      106.200       0.00000
      106.300       0.00000
      106.400       0.00000
      106.500       0.00000
      106.600       0.00000
      106.700       0.00000
      106.800       0.00000
      106.900       0.00000
      107.000       0.00000
      107.100       0.00000
      107.200       0.00000
      107.300       0.00000
      107.400       0.00000
      107.500       0.00000
      107.600       0.00000
      107.700       0.00000
      107.800       0.00000
      107.900       0.00000
      108.000       0.00000
      108.100       0.00000
      108.200       0.00000
      108.300       0.00000
      108.400       0.00000
      108.500       0.00000
      108.600       0.00000
      108.700       0.00000
      108.800       0.00000
      108.900       0.00000
      109.000       0.00000
      109.100       0.00000
      109.200       0.00000
      109.300       0.00000
      109.400       0.00000
      109.500       0.00000
      109.600       0.00000
      109.700       0.00000
      109.800       0.00000
      109.900       0.00000
      110.000       0.00000
      110.100       0.00000
      110.200       0.00000
      110.300       0.00000
      110.400       0.00000
      110.500       0.00000
      110.600       0.00000
      110.700       0.00000
      110.800       0.00000
      110.900   4.78657e-35
      111.000   2.56871e-28
      111.100   3.03292e-24
      111.200   4.21143e-23
      111.300   2.12355e-22
      111.400   7.01833e-22
      111.500   9.30387e-22
      111.600   1.26126e-21
      111.700   2.32785e-21
      111.800   4.22255e-21
      111.900   5.52324e-21
      112.000   8.87931e-21
      112.100   1.59083e-20
      112.200   2.42440e-20
      112.300   3.11443e-20
      112.400   3.89538e-20
      112.500   5.17844e-20
      112.600   7.35857e-20
      112.700   1.00066e-19
      112.800   1.15596e-19
      112.900   1.49878e-19
      113.000   1.91769e-19
      113.100   2.29730e-19
      113.200   2.64043e-19
      113.300   2.68792e-19
      113.400   3.36270e-19
      113.500   4.16178e-19
      113.600   4.29330e-19
      113.700   5.17103e-19
      113.800   5.88672e-19
      113.900   6.55471e-19
      114.000   6.98408e-19
      114.100   7.28953e-19
      114.200   9.38437e-19
      114.300   1.07936e-18
      114.400   1.04800e-18
      114.500   9.60459e-19
      114.600   9.58219e-19
      114.700   9.74647e-19
      114.800   1.01713e-18
      114.900   1.12399e-18
      115.000   1.23455e-18
      115.100   1.30793e-18
      115.200   1.32808e-18
      115.300   1.34976e-18
      115.400   1.37055e-18
      115.500   1.39223e-18
      115.600   1.41368e-18
      115.700   1.43461e-18
      115.800   1.45689e-18
      115.900   1.47891e-18
      116.000   1.49748e-18
      116.100   1.50537e-18
      116.200   1.51168e-18
      116.300   1.51764e-18
      116.400   1.51743e-18
      116.500   1.48480e-18
      116.600   1.45254e-18
      116.700   1.42123e-18
      116.800   1.39028e-18
      116.900   1.35874e-18
      117.000   1.32930e-18
      117.100   1.30441e-18
      117.200   1.28271e-18
      117.300   1.25874e-18
      117.400   1.23504e-18
      117.500   1.20606e-18
      117.600   1.16474e-18
      117.700   1.12113e-18
      117.800   1.07844e-18
      117.900   1.03701e-18
      118.000   9.96531e-19
      118.100   9.57064e-19
      118.200   9.19611e-19
      118.300   8.83791e-19
      118.400   8.47335e-19
      118.500   8.12524e-19
      118.600   7.79967e-19
      118.700   7.48408e-19
      118.800   7.17722e-19
      118.900   6.88530e-19
      119.000   6.59630e-19
      119.100   6.30961e-19
      119.200   6.09409e-19
      119.300   5.97927e-19
      119.400   5.89280e-19
      119.500   5.78219e-19
      119.600   5.62994e-19
      119.700   5.46424e-19
      119.800   5.29200e-19
      119.900   5.11037e-19
      120.000   4.93903e-19
      120.100   4.77662e-19
      120.200   4.63603e-19
      120.300   4.50891e-19
      120.400   4.38508e-19
      120.500   4.25186e-19
      120.600   4.11306e-19
      120.700   3.97556e-19
      120.800   3.84424e-19
      120.900   3.73218e-19
      121.000   3.64638e-19
      121.100   3.56410e-19
      121.200   3.48955e-19
      121.300   3.40945e-19
      121.400   3.32525e-19
      121.500   3.23766e-19
      121.600   3.10014e-19
      121.700   2.96533e-19
      121.800   2.83054e-19
      121.900   2.70068e-19
      122.000   2.57283e-19
      122.100   2.45297e-19
      122.200   2.33862e-19
      122.300   2.24026e-19
      122.400   2.15750e-19
      122.500   2.08014e-19
      122.600   2.00410e-19
      122.700   1.93070e-19
      122.800   1.85760e-19
      122.900   1.78849e-19
      123.000   1.73321e-19
      123.100   1.69936e-19
      123.200   1.67589e-19
      123.300   1.68891e-19
      123.400   1.70937e-19
      123.500   1.74038e-19
      123.600   1.76218e-19
      123.700   1.74891e-19
      123.800   1.70652e-19
      123.900   1.66985e-19
      124.000   1.64135e-19
      124.100   1.63888e-19
      124.200   1.69713e-19
      124.300   1.80295e-19
      124.400   1.89841e-19
      124.500   1.89506e-19
      124.600   1.84386e-19
      124.700   1.77225e-19
      124.800   1.70387e-19
      124.900   1.63806e-19
      125.000   1.57469e-19
      125.100   1.51322e-19
      125.200   1.45407e-19
      125.300   1.39717e-19
      125.400   1.34250e-19
      125.500   1.28996e-19
      125.600   1.22512e-19
      125.700   1.16027e-19
      125.800   1.10665e-19
      125.900   1.08667e-19
      126.000   1.06928e-19
      126.100   1.05217e-19
      126.200   1.03534e-19
      126.300   1.01878e-19
      126.400   1.00249e-19
      126.500   9.86446e-20
      126.600   9.70675e-20
      126.700   9.55157e-20
      126.800   9.39895e-20
      126.900   9.24870e-20
      127.000   9.10063e-20
      127.100   8.90526e-20
      127.200   8.65680e-20
      127.300   8.39628e-20
      127.400   8.14351e-20
      127.500   7.89827e-20
      127.600   7.66038e-20
      127.700   7.42960e-20
      127.800   7.20570e-20
      127.900   6.98846e-20
      128.000   6.77773e-20
      128.100   6.57323e-20
      128.200   6.37486e-20
      128.300   6.18239e-20
      128.400   5.99574e-20
      128.500   5.81463e-20
      128.600   5.63899e-20
      128.700   5.46863e-20
      128.800   5.30333e-20
      128.900   5.14309e-20
      129.000   4.98776e-20
      129.100   4.83702e-20
      129.200   4.69047e-20
      129.300   4.54830e-20
      129.400   4.41042e-20
      129.500   4.27670e-20
      129.600   4.14701e-20
      129.700   4.02123e-20
      129.800   3.89921e-20
      129.900   3.78091e-20
      130.000   3.66618e-20
      130.100   3.55492e-20
      130.200   3.44699e-20
      130.300   3.34236e-20
      130.400   3.24089e-20
      130.500   3.14240e-20
      130.600   3.04657e-20
      130.700   2.95351e-20
      130.800   2.86326e-20
      130.900   2.77586e-20
      131.000   2.69113e-20
      131.100   2.60900e-20
      131.200   2.52933e-20
      131.300   2.45201e-20
      131.400   2.37704e-20
      131.500   2.30433e-20
      131.600   2.23382e-20
      131.700   2.16547e-20
      131.800   2.09915e-20
      131.900   2.03484e-20
      132.000   1.97247e-20
      132.100   1.91199e-20
      132.200   1.85334e-20
      132.300   1.79646e-20
      132.400   1.74131e-20
      132.500   1.68790e-20
      132.600   1.63615e-20
      132.700   1.58296e-20
      132.800   1.53046e-20
      132.900   1.47953e-20
      133.000   1.43026e-20
      133.100   1.38261e-20
      133.200   1.33654e-20
      133.300   1.29196e-20
      133.400   1.24885e-20
      133.500   1.20715e-20
      133.600   1.16684e-20
      133.700   1.12785e-20
      133.800   1.09015e-20
      133.900   1.05381e-20
      134.000   1.01866e-20
      134.100   9.84670e-21
      134.200   9.51810e-21
      134.300   9.20025e-21
      134.400   8.89291e-21
      134.500   8.59581e-21
      134.600   8.30844e-21
      134.700   8.03058e-21
      134.800   7.76197e-21
      134.900   7.50239e-21
      135.000   7.25132e-21
      135.100   7.00919e-21
      135.200   6.77517e-21
      135.300   6.54889e-21
      135.400   6.33005e-21
      135.500   6.11821e-21
      135.600   5.91322e-21
      135.700   5.71500e-21
      135.800   5.52329e-21
      135.900   5.33794e-21
      136.000   5.15866e-21
      136.100   4.98529e-21
      136.200   4.81815e-21
      136.300   4.65657e-21
      136.400   4.50038e-21
      136.500   4.34935e-21
      136.600   4.20324e-21
      136.700   4.06196e-21
      136.800   3.92536e-21
      136.900   3.79330e-21
      137.000   3.66570e-21
      137.100   3.54252e-21
      137.200   3.42359e-21
      137.300   3.30889e-21
      137.400   3.19797e-21
      137.500   3.09068e-21
      137.600   2.98689e-21
      137.700   2.88648e-21
      137.800   2.78937e-21
      137.900   2.69545e-21
      138.000   2.60466e-21
      138.100   2.51687e-21
      138.200   2.43229e-21
      138.300   2.35055e-21
      138.400   2.27153e-21
      138.500   2.19512e-21
      138.600   2.12123e-21
      138.700   2.04979e-21
      138.800   1.98072e-21
      138.900   1.91392e-21
      139.000   1.84934e-21
      139.100   1.78709e-21
      139.200   1.72729e-21
      139.300   1.66976e-21
      139.400   1.61422e-21
      139.500   1.56048e-21
      139.600   1.50848e-21
      139.700   1.45819e-21
      139.800   1.40954e-21
      139.900   1.36248e-21
      140.000   1.31715e-21
      140.100   1.27330e-21
      140.200   1.23088e-21
      140.300   1.18985e-21
      140.400   1.15015e-21
      140.500   1.11173e-21
      140.600   1.07456e-21
      140.700   1.03861e-21
      140.800   1.00397e-21
      140.900   9.70492e-22
      141.000   9.38095e-22
      141.100   9.06755e-22
      141.200   8.76442e-22
      141.300   8.47108e-22
      141.400   8.18822e-22
      141.500   7.91904e-22
      141.600   7.66219e-22
      141.700   7.41379e-22
      141.800   7.17325e-22
      141.900   6.94030e-22
      142.000   6.71472e-22
      142.100   6.49877e-22
      142.200   6.29691e-22
      142.300   6.10739e-22
      142.400   5.92427e-22
      142.500   5.74643e-22
      142.600   5.57373e-22
      142.700   5.40604e-22
      142.800   5.24328e-22
      142.900   5.08527e-22
      143.000   4.93186e-22
      143.100   4.78343e-22
      143.200   4.63961e-22
      143.300   4.49993e-22
      143.400   4.36437e-22
      143.500   4.23276e-22
      143.600   4.10497e-22
      143.700   3.98180e-22
      143.800   3.87433e-22
      143.900   3.77198e-22
      144.000   3.67242e-22
      144.100   3.57540e-22
      144.200   3.48089e-22
      144.300   3.38876e-22
      144.400   3.29932e-22
      144.500   3.21725e-22
      144.600   3.13878e-22
      144.700   3.06230e-22
      144.800   2.98758e-22
      144.900   2.91460e-22
      145.000   2.84329e-22
      145.100   2.77365e-22
      145.200   2.70586e-22
      145.300   2.63973e-22
      145.400   2.57511e-22
      145.500   2.51198e-22
      145.600   2.45029e-22
      145.700   2.39004e-22
      145.800   2.33127e-22
      145.900   2.27408e-22
      146.000   2.21816e-22
      146.100   2.16291e-22
      146.200   2.10853e-22
      146.300   2.05544e-22
      146.400   2.00358e-22
      146.500   1.95321e-22
      146.600   1.90407e-22
      146.700   1.85609e-22
      146.800   1.80913e-22
      146.900   1.76315e-22
      147.000   1.71827e-22
      147.100   1.67459e-22
      147.200   1.63207e-22
      147.300   1.59057e-22
      147.400   1.55007e-22
      147.500   1.51055e-22
      147.600   1.47197e-22
      147.700   1.43442e-22
      147.800   1.39790e-22
      147.900   1.36224e-22
      148.000   1.32745e-22
      148.100   1.29350e-22
      148.200   1.26038e-22
      148.300   1.22813e-22
      148.400   1.20168e-22
      148.500   1.17955e-22
      148.600   1.15911e-22
      148.700   1.13900e-22
      148.800   1.11921e-22
      148.900   1.09979e-22
      149.000   1.08072e-22
      149.100   1.06196e-22
      149.200   1.04350e-22
      149.300   1.02534e-22
      149.400   1.00747e-22
      149.500   9.89946e-23
      149.600   9.72715e-23
      149.700   9.55763e-23
      149.800   9.39086e-23
      149.900   9.22686e-23
      150.000   9.06554e-23
      150.100   8.90724e-23
      150.200   8.75148e-23
      150.300   8.59850e-23
      150.400   8.44802e-23
      150.500   8.30005e-23
      150.600   8.15454e-23
      150.700   8.01144e-23
      150.800   7.87084e-23
      150.900   7.73277e-23
      151.000   7.59683e-23
      151.100   7.46326e-23
      151.200   7.33190e-23
      151.300   7.20272e-23
      151.400   7.07571e-23
      151.500   6.95109e-23
      151.600   6.82856e-23
      151.700   6.70825e-23
      151.800   6.58994e-23
      151.900   6.47356e-23
      152.000   6.36571e-23
      152.100   6.32653e-23
      152.200   6.29612e-23
      152.300   6.26562e-23
      152.400   6.23518e-23
      152.500   6.20492e-23
      152.600   6.17474e-23
      152.700   6.07920e-23
      152.800   5.96176e-23
      152.900   5.84641e-23
      153.000   5.73321e-23
      153.100   5.62216e-23
      153.200   5.51312e-23
      153.300   5.42537e-23
      153.400   5.35743e-23
      153.500   5.29232e-23
      153.600   5.22807e-23
      153.700   5.16464e-23
      153.800   5.10187e-23
      153.900   5.03981e-23
      154.000   4.97912e-23
      154.100   4.92042e-23
      154.200   4.86275e-23
      154.300   4.80572e-23
      154.400   4.74944e-23
      154.500   4.69372e-23
      154.600   4.63863e-23
      154.700   4.58421e-23
      154.800   4.53039e-23
      154.900   4.47715e-23
      155.000   4.42447e-23
      155.100   4.37242e-23
      155.200   4.32091e-23
      155.300   4.27000e-23
      155.400   4.21967e-23
      155.500   4.16991e-23
      155.600   4.12063e-23
      155.700   4.07189e-23
      155.800   4.02374e-23
      155.900   3.97605e-23
      156.000   3.92895e-23
      156.100   3.88234e-23
      156.200   3.83627e-23
      156.300   3.79070e-23
      156.400   3.74561e-23
      156.500   3.70085e-23
      156.600   3.65578e-23
      156.700   3.61118e-23
      156.800   3.56707e-23
      156.900   3.52346e-23
      157.000   3.48044e-23
      157.100   3.43479e-23
      157.200   3.36858e-23
      157.300   3.28111e-23
      157.400   3.19589e-23
      157.500   3.11277e-23
      157.600   3.03179e-23
      157.700   2.95283e-23
      157.800   2.87588e-23
      157.900   2.84309e-23
      158.000   2.81443e-23
      158.100   2.78608e-23
      158.200   2.75795e-23
      158.300   2.73009e-23
      158.400   2.70251e-23
      158.500   2.67518e-23
      158.600   2.64808e-23
      158.700   2.62121e-23
      158.800   2.59466e-23
      158.900   2.56833e-23
      159.000   2.54224e-23
      159.100   2.51527e-23
      159.200   2.47493e-23
      159.300   2.41300e-23
      159.400   2.35260e-23
      159.500   2.29369e-23
      159.600   2.23620e-23
      159.700   2.18016e-23
      159.800   2.12545e-23
      159.900   2.09640e-23
      160.000   2.08439e-23
      160.100   2.07297e-23
      160.200   2.06158e-23
      160.300   2.05026e-23
      160.400   2.03901e-23
      160.500   2.02507e-23
      160.600   1.99572e-23
      160.700   1.95543e-23
      160.800   1.91592e-23
      160.900   1.87717e-23
      161.000   1.83919e-23
      161.100   1.80197e-23
      161.200   1.76551e-23
      161.300   1.72977e-23
      161.400   1.69474e-23
      161.500   1.66041e-23
      161.600   1.62675e-23
      161.700   1.59373e-23
      161.800   1.56137e-23
      161.900   1.53021e-23
      162.000   1.50447e-23
      162.100   1.48203e-23
      162.200   1.45992e-23
      162.300   1.43812e-23
      162.400   1.41664e-23
      162.500   1.39545e-23
      162.600   1.37458e-23
      162.700   1.35401e-23
      162.800   1.33372e-23
      162.900   1.31374e-23
      163.000   1.29405e-23
      163.100   1.27464e-23
      163.200   1.25549e-23
      163.300   1.23662e-23
      163.400   1.21802e-23
      163.500   1.19969e-23
      163.600   1.18163e-23
      163.700   1.16382e-23
      163.800   1.14628e-23
      163.900   1.12899e-23
      164.000   1.11194e-23
      164.100   1.09164e-23
      164.200   1.06232e-23
      164.300   1.03383e-23
      164.400   1.00609e-23
      164.500   9.79090e-24
      164.600   9.52806e-24
      164.700   9.27205e-24
      164.800   9.05164e-24
      164.900   8.89924e-24
      165.000   8.77465e-24
      165.100   8.65169e-24
      165.200   8.53040e-24
      165.300   8.41076e-24
      165.400   8.29285e-24
      165.500   8.17649e-24
      165.600   7.98686e-24
      165.700   7.76950e-24
      165.800   7.55558e-24
      165.900   7.34750e-24
      166.000   7.14540e-24
      166.100   6.94874e-24
      166.200   6.75746e-24
      166.300   6.57141e-24
      166.400   6.39042e-24
      166.500   6.21427e-24
      166.600   6.04293e-24
      166.700   5.87629e-24
      166.800   5.71410e-24
      166.900   5.55637e-24
      167.000   5.40302e-24
      167.100   5.25374e-24
      167.200   5.10852e-24
      167.300   4.96727e-24
      167.400   4.82989e-24
      167.500   4.69622e-24
      167.600   4.56620e-24
      167.700   4.43975e-24
      167.800   4.31676e-24
      167.900   4.19711e-24
      168.000   4.08072e-24
      168.100   3.96750e-24
      168.200   3.85737e-24
      168.300   3.75025e-24
      168.400   3.64609e-24
      168.500   3.54565e-24
      168.600   3.46859e-24
      168.700   3.40400e-24
      168.800   3.34060e-24
      168.900   3.27836e-24
      169.000   3.21727e-24
      169.100   3.15723e-24
      169.200   3.09835e-24
      169.300   3.04051e-24
      169.400   2.98373e-24
      169.500   2.92780e-24
      169.600   2.87221e-24
      169.700   2.81690e-24
      169.800   2.76241e-24
      169.900   2.70890e-24
      170.000   2.65639e-24
      170.100   2.58095e-24
      170.200   2.47307e-24
      170.300   3.12032e-24
      170.400   6.49584e-24
      170.500   1.19833e-23
      170.600   1.71561e-23
      170.700   2.09414e-23
      170.800   2.22669e-23
      170.900   2.18540e-23
      171.000   2.11572e-23
      171.100   2.05050e-23
      171.200   1.98717e-23
      171.300   1.92566e-23
      171.400   1.86596e-23
      171.500   1.80798e-23
      171.600   1.75169e-23
      171.700   1.69709e-23
      171.800   1.64412e-23
      171.900   1.59274e-23
      172.000   1.54295e-23
      172.100   1.49468e-23
      172.200   1.44793e-23
      172.300   1.40259e-23
      172.400   1.35838e-23
      172.500   1.31553e-23
      172.600   1.27405e-23
      172.700   1.23389e-23
      172.800   1.19501e-23
      172.900   1.15736e-23
      173.000   1.12093e-23
      173.100   1.08566e-23
      173.200   1.05152e-23
      173.300   1.01847e-23
      173.400   9.86454e-24
      173.500   9.55478e-24
      173.600   9.25498e-24
      173.700   8.96459e-24
      173.800   8.68360e-24
      173.900   8.41159e-24
      174.000   8.14809e-24
      174.100   7.89302e-24
      174.200   7.64606e-24
      174.300   7.40681e-24
      174.400   7.17516e-24
      174.500   6.95072e-24
      174.600   6.73329e-24
      174.700   6.52276e-24
      174.800   6.31885e-24
      174.900   6.12123e-24
      175.000   5.92971e-24
      175.100   5.74415e-24
      175.200   5.56463e-24
      175.300   5.39060e-24
      175.400   5.22197e-24
      175.500   5.05869e-24
      175.600   4.90039e-24
      175.700   4.74707e-24
      175.800   4.59845e-24
      175.900   4.45448e-24
      176.000   4.31497e-24
      176.100   4.17985e-24
      176.200   4.04894e-24
      176.300   3.92207e-24
      176.400   3.79920e-24
      176.500   3.67981e-24
      176.600   3.50949e-24
      176.700   3.32153e-24
      176.800   3.14353e-24
      176.900   2.97501e-24
      177.000   2.81542e-24
      177.100   2.66429e-24
      177.200   2.52125e-24
      177.300   2.38581e-24
      177.400   2.25753e-24
      177.500   2.13605e-24
      177.600   2.02107e-24
      177.700   1.91223e-24
      177.800   1.80919e-24
      177.900   1.71161e-24
      178.000   1.61935e-24
      178.100   1.53203e-24
      178.200   1.44934e-24
      178.300   1.37106e-24
      178.400   1.29699e-24
      178.500   1.22688e-24
      178.600   1.16188e-24
      178.700   1.10774e-24
      178.800   1.06762e-24
      178.900   1.02895e-24
      179.000   9.91655e-25
      179.100   9.55689e-25
      179.200   9.21027e-25
      179.300   8.87611e-25
      179.400   8.55389e-25
      179.500   8.24350e-25
      179.600   7.94451e-25
      179.700   7.65632e-25
      179.800   7.37851e-25
      179.900   7.11075e-25
      180.000   6.85260e-25
      180.100   6.60385e-25
      180.200   6.36422e-25
      180.300   6.13323e-25
      180.400   5.91063e-25
      180.500   5.69617e-25
      180.600   5.48944e-25
      180.700   5.29025e-25
      180.800   5.09833e-25
      180.900   4.91336e-25
      181.000   4.73506e-25
      181.100   4.56328e-25
      181.200   4.39777e-25
      181.300   4.23827e-25
      181.400   4.08460e-25
      181.500   3.93649e-25
      181.600   3.79377e-25
      181.700   3.65622e-25
      181.800   3.52367e-25
      181.900   3.39593e-25
      182.000   3.27289e-25
      182.100   3.15426e-25
      182.200   3.04107e-25
      182.300   2.94088e-25
      182.400   2.84461e-25
      182.500   2.75148e-25
      182.600   2.66140e-25
      182.700   2.57426e-25
      182.800   2.48998e-25
      182.900   2.40843e-25
      183.000   2.32956e-25
      183.100   2.25329e-25
      183.200   2.17949e-25
      183.300   2.10807e-25
      183.400   2.03900e-25
      183.500   1.97219e-25
      183.600   1.90755e-25
      183.700   1.84501e-25
      183.800   1.78455e-25
      183.900   1.72607e-25
      184.000   1.66949e-25
      184.100   1.61481e-25
      184.200   1.56194e-25
      184.300   1.51081e-25
      184.400   1.46136e-25
      184.500   1.41353e-25
      184.600   1.36723e-25
      184.700   1.32246e-25
      184.800   1.27915e-25
      184.900   1.23724e-25
      185.000   1.19670e-25
      185.100   1.15796e-25
      185.200   1.12282e-25
      185.300   1.09180e-25
      185.400   1.06163e-25
      185.500   1.03229e-25
      185.600   1.00375e-25
      185.700   9.75991e-26
      185.800   9.49040e-26
      185.900   9.22836e-26
      186.000   8.97355e-26
      186.100   8.72568e-26
      186.200   8.48454e-26
      186.300   8.24991e-26
      186.400   8.02183e-26
      186.500   7.79999e-26
      186.600   7.58412e-26
      186.700   7.37404e-26
      186.800   7.16971e-26
      186.900   6.97102e-26
      187.000   6.77773e-26
      187.100   6.58955e-26
      187.200   6.40668e-26
      187.300   6.22906e-26
      187.400   6.05626e-26
      187.500   5.88820e-26
      187.600   5.72472e-26
      187.700   5.56569e-26
      187.800   5.41103e-26
      187.900   5.26058e-26
      188.000   5.11427e-26
      188.100   4.96412e-26
      188.200   4.79116e-26
      188.300   4.59037e-26
      188.400   4.39791e-26
      188.500   4.21344e-26
      188.600   4.03686e-26
      188.700   3.86789e-26
      188.800   3.70598e-26
      188.900   3.55077e-26
      189.000   3.40196e-26
      189.100   3.25928e-26
      189.200   3.12252e-26
      189.300   2.99144e-26
      189.400   2.86583e-26
      189.500   2.74609e-26
      189.600   2.64069e-26
      189.700   2.57548e-26
      189.800   2.51215e-26
      189.900   2.45045e-26
      190.000   2.39031e-26
      190.100   2.33167e-26
      190.200   2.27446e-26
      190.300   2.21866e-26
      190.400   2.16422e-26
      190.500   2.11112e-26
      190.600   2.05934e-26
      190.700   2.00882e-26
      190.800   1.95955e-26
      190.900   1.91150e-26
      191.000   1.86470e-26
      191.100   1.81909e-26
      191.200   1.77457e-26
      191.300   1.73116e-26
      191.400   1.68882e-26
      191.500   1.64750e-26
      191.600   1.60720e-26
      191.700   1.56789e-26
      191.800   1.52952e-26
      191.900   1.49208e-26
      192.000   1.45559e-26
      192.100   1.42002e-26
      192.200   1.38538e-26
      192.300   1.35156e-26
      192.400   1.31857e-26
      192.500   1.28397e-26
      192.600   1.24257e-26
      192.700   1.19638e-26
      192.800   1.15188e-26
      192.900   1.10899e-26
      193.000   1.06770e-26
      193.100   1.02799e-26
      193.200   9.89824e-27
      193.300   9.53069e-27
      193.400   9.17674e-27
      193.500   8.83572e-27
      193.600   8.50715e-27
      193.700   8.19062e-27
      193.800   7.88583e-27
      193.900   7.59234e-27
      194.000   7.31530e-27
      194.100   7.16121e-27
      194.200   7.04839e-27
      194.300   6.94008e-27
      194.400   6.83347e-27
      194.500   6.72860e-27
      194.600   6.62534e-27
      194.700   6.52367e-27
      194.800   6.42360e-27
      194.900   6.32504e-27
      195.000   6.22804e-27
      195.100   6.13275e-27
      195.200   6.03888e-27
      195.300   5.94641e-27
      195.400   5.85534e-27
      195.500   5.76381e-27
      195.600   5.62612e-27
      195.700   5.41221e-27
      195.800   5.20629e-27
      195.900   5.00812e-27
      196.000   4.81719e-27
      196.100   4.63338e-27
      196.200   4.45648e-27
      196.300   4.28616e-27
      196.400   4.12219e-27
      196.500   3.96431e-27
      196.600   3.81238e-27
      196.700   3.66612e-27
      196.800   3.52560e-27
      196.900   3.39076e-27
      197.000   3.26099e-27
      197.100   3.13604e-27
      197.200   3.01576e-27
      197.300   2.89996e-27
      197.400   2.78845e-27
      197.500   2.68114e-27
      197.600   2.57784e-27
      197.700   2.47892e-27
      197.800   2.38377e-27
      197.900   2.29214e-27
      198.000   2.20394e-27
      198.100   2.11906e-27
      198.200   2.03735e-27
      198.300   1.95868e-27
      198.400   1.88301e-27
      198.500   1.81049e-27
      198.600   1.74079e-27
      198.700   1.68052e-27
      198.800   1.63185e-27
      198.900   1.58922e-27
      199.000   1.54766e-27
      199.100   1.50716e-27
      199.200   1.46771e-27
      199.300   1.42939e-27
      199.400   1.39208e-27
      199.500   1.35573e-27
      199.600   1.32029e-27
      199.700   1.28577e-27
      199.800   1.25214e-27
      199.900   1.21937e-27
      200.000   1.18743e-27
      200.100   1.15645e-27
      200.200   1.12624e-27
      200.300   1.09684e-27
      200.400   1.06819e-27
      200.500   1.04027e-27
      200.600   1.01309e-27
      200.700   9.86618e-28
      200.800   9.60814e-28
      200.900   9.35702e-28
      201.000   9.11249e-28
      201.100   8.87469e-28
      201.200   8.64304e-28
      201.300   8.41735e-28
      201.400   8.19762e-28
      201.500   7.98357e-28
      201.600   7.77499e-28
      201.700   7.57192e-28
      201.800   7.37409e-28
      201.900   7.17579e-28
      202.000   6.89015e-28
      202.100   6.57290e-28
      202.200   6.27022e-28
      202.300   5.98179e-28
      202.400   5.70734e-28
      202.500   5.44562e-28
      202.600   5.19566e-28
      202.700   4.95716e-28
      202.800   4.72974e-28
      202.900   4.51310e-28
      203.000   4.30633e-28
      203.100   4.10906e-28
      203.200   3.92061e-28
      203.300   3.74068e-28
      203.400   3.56893e-28
      203.500   3.40503e-28
      203.600   3.25447e-28
      203.700   3.12675e-28
      203.800   3.00626e-28
      203.900   2.89056e-28
      204.000   2.77928e-28
      204.100   2.67224e-28
      204.200   2.56934e-28
      204.300   2.47037e-28
      204.400   2.37519e-28
      204.500   2.28367e-28
      204.600   2.19564e-28
      204.700   2.11099e-28
      204.800   2.02971e-28
      204.900   1.95166e-28
      205.000   1.87660e-28
      205.100   1.80444e-28
      205.200   1.73501e-28
      205.300   1.66826e-28
      205.400   1.60408e-28
      205.500   1.54234e-28
      205.600   1.48283e-28
      205.700   1.42488e-28
      205.800   1.36901e-28
      205.900   1.31537e-28
      206.000   1.26392e-28
      206.100   1.21444e-28
      206.200   1.16688e-28
      206.300   1.12119e-28
      206.400   1.07729e-28
      206.500   1.03507e-28
      206.600   9.94495e-29
      206.700   9.55509e-29
      206.800   9.18024e-29
      206.900   8.81997e-29
      207.000   8.47378e-29
      207.100   8.14167e-29
      207.200   7.82274e-29
      207.300   7.51603e-29
      207.400   7.22121e-29
      207.500   6.93784e-29
      207.600   6.66555e-29
      207.700   6.40371e-29
      207.800   6.15205e-29
      207.900   5.91018e-29
      208.000   5.67771e-29
      208.100   5.45432e-29
      208.200   5.23957e-29
      208.300   5.03325e-29
      208.400   4.83533e-29
      208.500   4.64514e-29
      208.600   4.46228e-29
      208.700   4.28649e-29
      208.800   4.11756e-29
      208.900   3.94913e-29
      209.000   3.76185e-29
      209.100   3.56614e-29
      209.200   3.38049e-29
      209.300   3.20430e-29
      209.400   3.03729e-29
      209.500   2.87882e-29
      209.600   2.72849e-29
      209.700   2.58611e-29
      209.800   2.45139e-29
      209.900   2.32350e-29
      210.000   2.20227e-29
      210.100   2.08727e-29
      210.200   1.97820e-29
      210.300   1.87478e-29
      210.400   1.77671e-29
      210.500   1.68370e-29
      210.600   1.59551e-29
      210.700   1.51190e-29
      210.800   1.43262e-29
      210.900   1.35744e-29
      211.000   1.28616e-29
      211.100   1.21861e-29
      211.200   1.15456e-29
      211.300   1.09399e-29
      211.400   1.03661e-29
      211.500   9.82185e-30
      211.600   9.30595e-30
      211.700   8.81696e-30
      211.800   8.35314e-30
      211.900   7.91352e-30
      212.000   7.49710e-30
      212.100   7.10223e-30
      212.200   6.72788e-30
      212.300   6.35728e-30
      212.400   5.96207e-30
      212.500   5.57382e-30
      212.600   5.21063e-30
      212.700   4.87085e-30
      212.800   4.55298e-30
      212.900   4.25576e-30
      213.000   3.97792e-30
      213.100   3.71858e-30
      213.200   3.47597e-30
      213.300   3.24907e-30
      213.400   3.03678e-30
      213.500   2.83825e-30
      213.600   2.65255e-30
      213.700   2.47894e-30
      213.800   2.31653e-30
      213.900   2.16474e-30
      214.000   2.02277e-30
      214.100   1.89236e-30
      214.200   1.79757e-30
      214.300   1.72549e-30
      214.400   1.65629e-30
      214.500   1.58985e-30
      214.600   1.52607e-30
      214.700   1.46485e-30
      214.800   1.40608e-30
      214.900   1.34967e-30
      215.000   1.29550e-30
      215.100   1.24352e-30
      215.200   1.19368e-30
      215.300   1.14585e-30
      215.400   1.09993e-30
      215.500   1.05584e-30
      215.600   1.01355e-30
      215.700   9.72928e-31
      215.800   9.33924e-31
      215.900   8.96507e-31
      216.000   8.57016e-31
      216.100   8.10816e-31
      216.200   7.64012e-31
      216.300   7.19902e-31
      216.400   6.78328e-31
      216.500   6.39126e-31
      216.600   6.02191e-31
      216.700   5.67387e-31
      216.800   5.34577e-31
      216.900   5.03664e-31
      217.000   4.74531e-31
      217.100   4.47065e-31
      217.200   4.21189e-31
      217.300   3.96806e-31
      217.400   3.73823e-31
      217.500   3.52176e-31
      217.600   3.31764e-31
      217.700   3.12527e-31
      217.800   2.94408e-31
      217.900   2.77269e-31
      218.000   2.59384e-31
      218.100   2.42645e-31
      218.200   2.26981e-31
      218.300   2.12330e-31
      218.400   1.98633e-31
      218.500   1.85808e-31
      218.600   1.73810e-31
      218.700   1.62579e-31
      218.800   1.52068e-31
      218.900   1.42238e-31
      219.000   1.33034e-31
      219.100   1.24420e-31
      219.200   1.16362e-31
      219.300   1.08824e-31
      219.400   1.01768e-31
      219.500   9.51677e-32
      219.600   8.89922e-32
      219.700   8.32139e-32
      219.800   7.78102e-32
      219.900   7.27536e-32
      220.000   6.80219e-32
      220.100   6.35960e-32
      220.200   5.94561e-32
      220.300   5.55845e-32
      220.400   5.19620e-32
      220.500   4.85750e-32
      220.600   4.54075e-32
      220.700   4.24436e-32
      220.800   3.96714e-32
      220.900   3.70806e-32
      221.000   3.46567e-32
      221.100   3.23895e-32
      221.200   3.02707e-32
      221.300   2.82891e-32
      221.400   2.64359e-32
      221.500   2.47036e-32
      221.600   2.30839e-32
      221.700   2.15693e-32
      221.800   2.02541e-32
      221.900   1.92774e-32
      222.000   1.84201e-32
      222.100   1.76003e-32
      222.200   1.68170e-32
      222.300   1.60682e-32
      222.400   1.53526e-32
      222.500   1.46686e-32
      222.600   1.40151e-32
      222.700   1.33903e-32
      222.800   1.27932e-32
      222.900   1.22227e-32
      223.000   1.16775e-32
      223.100   1.11562e-32
      223.200   1.06583e-32
      223.300   1.01823e-32
      223.400   9.72757e-33
      223.500   9.29284e-33
      223.600   8.87761e-33
      223.700   8.48075e-33
      223.800   8.09349e-33
      223.900   7.67004e-33
      224.000   7.26081e-33
      224.100   6.87333e-33
      224.200   6.50638e-33
      224.300   6.15894e-33
      224.400   5.82979e-33
      224.500   5.51827e-33
      224.600   5.22316e-33
      224.700   4.94390e-33
      224.800   4.67935e-33
      224.900   4.42882e-33
      225.000   4.19166e-33
      225.100   3.96709e-33
      225.200   3.75443e-33
      225.300   3.55324e-33
      225.400   3.36261e-33
      225.500   3.18216e-33
      225.600   3.01133e-33
      225.700   2.84966e-33
      225.800   2.69654e-33
      225.900   2.59065e-33
      226.000   2.50478e-33
      226.100   2.42338e-33
      226.200   2.34460e-33
      226.300   2.26854e-33
      226.400   2.19505e-33
      226.500   2.12386e-33
      226.600   2.05490e-33
      226.700   1.98817e-33
      226.800   1.92357e-33
      226.900   1.86107e-33
      227.000   1.80055e-33
      227.100   1.74200e-33
      227.200   1.68537e-33
      227.300   1.63057e-33
      227.400   1.57754e-33
      227.500   1.52623e-33
      227.600   1.47658e-33
      227.700   1.42855e-33
      227.800   1.38209e-33
      227.900   1.33266e-33
      228.000   1.27364e-33
      228.100   1.21084e-33
      228.200   1.15111e-33
      228.300   1.09432e-33
      228.400   1.04034e-33
      228.500   9.88991e-34
      228.600   9.40184e-34
      228.700   8.93777e-34
      228.800   8.49638e-34
      228.900   8.07693e-34
      229.000   7.67807e-34
      229.100   7.29882e-34
      229.200   6.93824e-34
      229.300   6.59546e-34
      229.400   6.26957e-34
      229.500   5.95974e-34
      229.600   5.66515e-34
      229.700   5.38510e-34
      229.800   5.11887e-34
      229.900   4.86580e-34
      230.000   4.62229e-34
      230.100   4.36874e-34
      230.200   4.11599e-34
      230.300   3.87795e-34
      230.400   3.65352e-34
      230.500   3.44218e-34
      230.600   3.24321e-34
      230.700   3.05565e-34
      230.800   2.87893e-34
      230.900   2.71242e-34
      231.000   2.55545e-34
      231.100   2.40751e-34
      231.200   2.26815e-34
      231.300   2.13684e-34
      231.400   2.01312e-34
      231.500   1.89648e-34
      231.600   1.78655e-34
      231.700   1.68300e-34
      231.800   1.58544e-34
      231.900   1.49349e-34
      232.000   1.40684e-34
      232.100   1.32519e-34
      232.200   1.25942e-34
      232.300   1.21262e-34
      232.400   1.17166e-34
      232.500   1.13210e-34
      232.600   1.09387e-34
      232.700   1.05694e-34
      232.800   1.02126e-34
      232.900   9.86759e-35
      233.000   9.53387e-35
      233.100   9.21150e-35
      233.200   8.90011e-35
      233.300   8.59926e-35
      233.400   8.30862e-35
      233.500   8.02794e-35
      233.600   7.75691e-35
      233.700   7.49503e-35
      233.800   7.23924e-35
      233.900   6.99169e-35
      234.000   6.75260e-35
      234.100   6.52165e-35
      234.200   6.29871e-35
      234.300   6.08330e-35
      234.400   5.87525e-35
      234.500   5.67431e-35
      234.600   5.48021e-35
      234.700   5.29280e-35
      234.800   5.11181e-35
      234.900   4.93696e-35
      235.000   4.76805e-35
      235.100   4.60492e-35
      235.200   4.44738e-35
      235.300   4.29523e-35
      235.400   4.14821e-35
      235.500   4.00628e-35
      235.600   3.86922e-35
      235.700   3.73679e-35
      235.800   3.60908e-35
      235.900   3.48573e-35
      236.000   3.36663e-35
      236.100   3.25153e-35
      236.200   3.14037e-35
      236.300   3.03298e-35
      236.400   2.92930e-35
      236.500   2.82913e-35
      236.600   2.73755e-35
      236.700   2.66022e-35
      236.800   2.59218e-35
      236.900   2.52585e-35
      237.000   2.46121e-35
      237.100   2.39823e-35
      237.200   2.33685e-35
      237.300   2.27703e-35
      237.400   2.21874e-35
      237.500   2.16195e-35
      237.600   2.10655e-35
      237.700   2.05266e-35
      237.800   2.00015e-35
      237.900   1.94894e-35
      238.000   1.89905e-35
      238.100   1.85043e-35
      238.200   1.80304e-35
      238.300   1.75686e-35
      238.400   1.71183e-35
      238.500   1.66795e-35
      238.600   1.62519e-35
      238.700   1.58352e-35
      238.800   1.54291e-35
      238.900   1.50648e-35
      239.000   1.48201e-35
      239.100   1.45919e-35
      239.200   1.43673e-35
      239.300   1.41461e-35
      239.400   1.39282e-35
      239.500   1.37137e-35
      239.600   1.35022e-35
      239.700   1.32939e-35
      239.800   1.30890e-35
      239.900   1.28870e-35
      240.000   1.26879e-35
      240.100   1.24919e-35
      240.200   1.22988e-35
      240.300   1.21086e-35
      240.400   1.19213e-35
      240.500   1.17368e-35
      240.600   1.15551e-35
      240.700   1.13759e-35
      240.800   1.11995e-35
      240.900   1.10259e-35
      241.000   1.08548e-35
      241.100   1.06864e-35
      241.200   1.05205e-35
      241.300   1.03570e-35
      241.400   1.01961e-35
      241.500   1.00376e-35
      241.600   9.88153e-36
      241.700   9.72780e-36
      241.800   9.57629e-36
      241.900   9.42715e-36
      242.000   9.28029e-36
      242.100   9.13571e-36
      242.200   8.99338e-36
      242.300   8.85339e-36
      242.400   8.71545e-36
      242.500   8.57967e-36
      242.600   8.44589e-36
      242.700   8.31418e-36
      242.800   8.18459e-36
      242.900   8.05696e-36
      243.000   7.93125e-36
      243.100   7.80749e-36
      243.200   7.68566e-36
      243.300   7.56568e-36
      243.400   7.44763e-36
      243.500   7.33145e-36
      243.600   7.21715e-36
      243.700   7.10460e-36
      243.800   6.99383e-36
      243.900   6.88477e-36
      244.000   6.77739e-36
      244.100   6.67174e-36
      244.200   6.56775e-36
      244.300   6.46533e-36
      244.400   6.36451e-36
      244.500   6.26535e-36
      244.600   6.16766e-36
      244.700   6.07156e-36
      244.800   5.97712e-36
      244.900   5.88408e-36
      245.000   5.79251e-36
      245.100   5.70239e-36
      245.200   5.61370e-36
      245.300   5.52640e-36
      245.400   5.44044e-36
      245.500   5.35586e-36
      245.600   5.27262e-36
      245.700   5.19068e-36
      245.800   5.11005e-36
      245.900   5.03072e-36
      246.000   4.95272e-36
      246.100   4.87595e-36
      246.200   4.80033e-36
      246.300   4.72594e-36
      246.400   4.65278e-36
      246.500   4.58071e-36
      246.600   4.50976e-36
      246.700   4.43996e-36
      246.800   4.37125e-36
      246.900   4.30365e-36
      247.000   4.23714e-36
      247.100   4.17164e-36
      247.200   4.10729e-36
      247.300   4.04391e-36
      247.400   3.98154e-36
      247.500   3.92014e-36
      247.600   3.85967e-36
      247.700   3.80018e-36
      247.800   3.74165e-36
      247.900   3.68399e-36
      248.000   3.62729e-36
      248.100   3.57157e-36
      248.200   3.51673e-36
      248.300   3.46269e-36
      248.400   3.40949e-36
      248.500   3.33528e-36
      248.600   3.22686e-36
      248.700   3.09924e-36
      248.800   2.97658e-36
      248.900   2.85879e-36
      249.000   2.74558e-36
      249.100   2.63723e-36
      249.200   2.53322e-36
      249.300   2.43325e-36
      249.400   2.33718e-36
      249.500   2.24486e-36
      249.600   2.15614e-36
      249.700   2.07091e-36
      249.800   1.98899e-36
      249.900   1.91028e-36
      250.000   1.83466e-36
      250.100   1.76222e-36
      250.200   1.69267e-36
      250.300   1.62592e-36
      250.400   1.56175e-36
      250.500   1.50011e-36
      250.600   1.44090e-36
      250.700   1.38399e-36
      250.800   1.32933e-36
      250.900   1.27681e-36
      251.000   1.22635e-36
      251.100   1.17788e-36
      251.200   1.13136e-36
      251.300   1.08675e-36
      251.400   1.04390e-36
      251.500   1.00272e-36
      251.600   9.45325e-37
      251.700   8.57805e-37
      251.800   7.73762e-37
      251.900   6.97840e-37
      252.000   6.29259e-37
      252.100   5.67358e-37
      252.200   5.11446e-37
      252.300   4.61089e-37
      252.400   4.15833e-37
      252.500   3.74983e-37
      252.600   3.40073e-37
      252.700   3.20025e-37
      252.800   3.13058e-37
      252.900   3.06247e-37
      253.000   2.99583e-37
      253.100   2.93064e-37
      253.200   2.86689e-37
      253.300   2.80511e-37
      253.400   2.74494e-37
      253.500   2.68615e-37
      253.600   2.62865e-37
      253.700   2.57113e-37
      253.800   2.50891e-37
      253.900   2.44705e-37
      254.000   2.38671e-37
      254.100   2.32783e-37
      254.200   2.27039e-37
      254.300   2.21438e-37
      254.400   2.15975e-37
      254.500   2.10646e-37
      254.600   2.05446e-37
      254.700   2.00377e-37
      254.800   1.95438e-37
      254.900   1.90620e-37
      255.000   1.85920e-37
      255.100   1.81332e-37
      255.200   1.76859e-37
      255.300   1.72495e-37
      255.400   1.68238e-37
      255.500   1.64085e-37
      255.600   1.60034e-37
      255.700   1.56083e-37
      255.800   1.52226e-37
      255.900   1.48465e-37
      256.000   1.44794e-37
      256.100   1.41218e-37
      256.200   1.37730e-37
      256.300   1.34327e-37
      256.400   1.31011e-37
      256.500   1.27773e-37
      256.600   1.24614e-37
      256.700   1.21532e-37
      256.800   1.18526e-37
      256.900   1.14878e-37
      257.000   1.10212e-37
      257.100   1.05389e-37
      257.200   1.00776e-37
      257.300   9.63631e-38
      257.400   9.21536e-38
      257.500   8.81306e-38
      257.600   8.42899e-38
      257.700   8.06170e-38
      257.800   7.71012e-38
      257.900   7.37387e-38
      258.000   7.05216e-38
      258.100   6.74427e-38
      258.200   6.44978e-38
      258.300   6.16810e-38
      258.400   5.89844e-38
      258.500   5.64048e-38
      258.600   5.39377e-38
      258.700   5.15771e-38
      258.800   4.93188e-38
      258.900   4.71594e-38
      259.000   4.50928e-38
      259.100   4.31165e-38
      259.200   4.12273e-38
      259.300   3.94232e-38
      259.400   3.76966e-38
      259.500   3.60450e-38
      259.600   3.44653e-38
      259.700   3.29547e-38
      259.800   3.15093e-38
      259.900   3.01263e-38
      260.000   2.88040e-38
      260.100   2.74438e-38
      260.200   2.60300e-38
      260.300   2.46678e-38
      260.400   2.33765e-38
      260.500   2.21525e-38
      260.600   2.09915e-38
      260.700   1.98910e-38
      260.800   1.88484e-38
      260.900   1.78594e-38
      261.000   1.69228e-38
      261.100   1.60360e-38
      261.200   1.51904e-38
      261.300   1.43888e-38
      261.400   1.36292e-38
      261.500   1.29097e-38
      261.600   1.22289e-38
      261.700   1.15841e-38
      261.800   1.09730e-38
      261.900   1.03937e-38
      262.000   9.84488e-39
      262.100   9.32480e-39
      262.200   8.83229e-39
      262.300   8.36541e-39
      262.400   7.92313e-39
      262.500   7.50396e-39
      262.600   7.10680e-39
      262.700   6.73065e-39
      262.800   6.37430e-39
      262.900   6.03650e-39
      263.000   5.71681e-39
      263.100   5.41383e-39
      263.200   5.12730e-39
      263.300   4.85589e-39
      263.400   4.59870e-39
      263.500   4.35517e-39
      263.600   4.12444e-39
      263.700   3.90585e-39
      263.800   3.69874e-39
      263.900   3.50272e-39
      264.000   3.31694e-39
      264.100   3.14090e-39
      264.200   2.97415e-39
      264.300   2.81634e-39
      264.400   2.66682e-39
      264.500   2.52516e-39
      264.600   2.39097e-39
      264.700   2.26393e-39
      264.800   2.14355e-39
      264.900   2.02960e-39
      265.000   1.92168e-39
      265.100   1.81942e-39
      265.200   1.72260e-39
      265.300   1.63091e-39
      265.400   1.54287e-39
      265.500   1.45907e-39
      265.600   1.37984e-39
      265.700   1.30482e-39
      265.800   1.23396e-39
      265.900   1.16697e-39
      266.000   1.10363e-39
      266.100   1.04372e-39
      266.200   9.87058e-40
      266.300   9.33433e-40
      266.400   8.82738e-40
      266.500   8.34763e-40
      266.600   7.89395e-40
      266.700   7.46477e-40
      266.800   7.05911e-40
      266.900   6.67520e-40
      267.000   6.31209e-40
      267.100   5.96863e-40
      267.200   5.64409e-40
      267.300   5.33696e-40
      267.400   5.04641e-40
      267.500   4.77167e-40
      267.600   4.51189e-40
      267.700   4.26620e-40
      267.800   4.03376e-40
      267.900   3.81398e-40
      268.000   3.60624e-40
      268.100   3.40970e-40
      268.200   3.22394e-40
      268.300   3.04824e-40
      268.400   2.88205e-40
      268.500   2.72482e-40
      268.600   2.57626e-40
      268.700   2.43578e-40
      268.800   2.30289e-40
      268.900   2.17724e-40
      269.000   2.05851e-40
      269.100   1.94611e-40
      269.200   1.83997e-40
      269.300   1.73950e-40
      269.400   1.64454e-40
      269.500   1.55470e-40
      269.600   1.46984e-40
      269.700   1.37703e-40
      269.800   1.28712e-40
      269.900   1.20293e-40
      270.000   1.12433e-40
      270.100   1.05079e-40
      270.200   9.82100e-41
      270.300   9.17907e-41
      270.400   8.57917e-41
      270.500   8.01739e-41
      270.600   7.49246e-41
      270.700   7.00243e-41
      270.800   6.54364e-41
      270.900   6.11513e-41
      271.000   5.71450e-41
      271.100   5.34007e-41
      271.200   4.98960e-41
      271.300   4.66240e-41
      271.400   4.35692e-41
      271.500   4.07133e-41
      271.600   3.80396e-41
      271.700   3.55369e-41
      271.800   3.32080e-41
      271.900   3.10205e-41
      272.000   2.89845e-41
      272.100   2.70773e-41
      272.200   2.53046e-41
      272.300   2.36399e-41
      272.400   2.20803e-41
      272.500   2.06271e-41
      272.600   1.92651e-41
      272.700   1.80039e-41
      272.800   1.68660e-41
      272.900   1.59622e-41
      273.000   1.51691e-41
      273.100   1.44194e-41
      273.200   1.37033e-41
      273.300   1.30223e-41
      273.400   1.23777e-41
      273.500   1.17639e-41
      273.600   1.11796e-41
      273.700   1.06260e-41
      273.800   1.00992e-41
      273.900   9.51762e-42
      274.000   8.80576e-42
      274.100   8.14014e-42
      274.200   7.52778e-42
      274.300   6.96165e-42
      274.400   6.43757e-42
      274.500   5.95272e-42
      274.600   5.50430e-42
      274.700   5.08671e-42
      274.800   4.70276e-42
      274.900   4.34543e-42
      275.000   4.01332e-42
      275.100   3.71204e-42
      275.200   3.43178e-42
      275.300   3.16974e-42
      275.400   2.93012e-42
      275.500   2.70871e-42
      275.600   2.49852e-42
      275.700   2.30934e-42
      275.800   2.13418e-42
      275.900   1.97443e-42
      276.000   1.83430e-42
      276.100   1.72780e-42
      276.200   1.64232e-42
      276.300   1.55544e-42
      276.400   1.46996e-42
      276.500   1.39289e-42
      276.600   1.32563e-42
      276.700   1.25276e-42
      276.800   1.18550e-42
      276.900   1.12524e-42
      277.000   1.06078e-42
      277.100   1.00613e-42
      277.200   9.58488e-43
      277.300   9.08041e-43
      277.400   8.58996e-43
      277.500   8.11352e-43
      277.600   7.66510e-43
      277.700   7.25873e-43
      277.800   6.89439e-43
      277.900   6.51604e-43
      278.000   6.23578e-43
      278.100   5.91348e-43
      278.200   5.46506e-43
      278.300   5.04467e-43
      278.400   4.69435e-43
      278.500   4.34403e-43
      278.600   3.99370e-43
      278.700   3.74147e-43
      278.800   3.41917e-43
      278.900   3.12490e-43
      279.000   2.97075e-43
      279.100   2.71852e-43
      279.200   2.52234e-43
      279.300   2.36819e-43
      279.400   2.20004e-43
      279.500   2.07392e-43
      279.600   1.91978e-43
      279.700   1.89175e-43
      279.800   1.75162e-43
      279.900   1.62551e-43
      280.000   1.52742e-43
      280.100   1.40130e-43
      280.200   1.34525e-43
      280.300   1.24716e-43
      280.400   1.14906e-43
      280.500   1.09301e-43
      280.600   9.94922e-44
      280.700   9.24857e-44
      280.800   8.68805e-44
      280.900   8.68805e-44
      281.000   8.26766e-44
      281.100   7.70714e-44
      281.200   7.28675e-44
      281.300   6.72623e-44
      281.400   6.44597e-44
      281.500   6.02558e-44
      281.600   5.74532e-44
      281.700   5.46506e-44
      281.800   5.46506e-44
      281.900   4.76441e-44
      282.000   4.76441e-44
      282.100   4.48416e-44
      282.200   4.20390e-44
      282.300   4.20390e-44
      282.400   3.78351e-44
      282.500   3.50325e-44
      282.600   3.50325e-44
      282.700   3.50325e-44
      282.800   3.22299e-44
      282.900   2.94273e-44
      283.000   2.94273e-44
      283.100   2.94273e-44
      283.200   2.94273e-44
      283.300   2.52234e-44
      283.400   2.52234e-44
      283.500   2.24208e-44
      283.600   2.24208e-44
      283.700   1.96182e-44
      283.800   1.96182e-44
      283.900   1.96182e-44
      284.000   1.54143e-44
      284.100   1.54143e-44
      284.200   1.54143e-44
      284.300   1.54143e-44
      284.400   1.26117e-44
      284.500   1.26117e-44
      284.600   1.26117e-44
      284.700   1.26117e-44
      284.800   9.80909e-45
      284.900   9.80909e-45
      285.000   9.80909e-45
      285.100   9.80909e-45
      285.200   9.80909e-45
      285.300   7.00649e-45
      285.400   7.00649e-45
      285.500   7.00649e-45
      285.600   7.00649e-45
      285.700   7.00649e-45
      285.800   7.00649e-45
      285.900   7.00649e-45
      286.000   7.00649e-45
      286.100   7.00649e-45
      286.200   7.00649e-45
      286.300   2.80260e-45
      286.400   2.80260e-45
      286.500   2.80260e-45
      286.600   2.80260e-45
      286.700   2.80260e-45
      286.800   2.80260e-45
      286.900   2.80260e-45
      287.000   2.80260e-45
      287.100   2.80260e-45
      287.200   2.80260e-45
      287.300   2.80260e-45
      287.400   2.80260e-45
      287.500   2.80260e-45
      287.600   2.80260e-45
      287.700   2.80260e-45
      287.800       0.00000
      287.900       0.00000
      288.000       0.00000
      288.100       0.00000
      288.200       0.00000
      288.300       0.00000
      288.400       0.00000
      288.500       0.00000
      288.600       0.00000
      288.700       0.00000
      288.800       0.00000
      288.900       0.00000
      289.000       0.00000
      289.100       0.00000
      289.200       0.00000
      289.300       0.00000
      289.400       0.00000
      289.500       0.00000
      289.600       0.00000
      289.700       0.00000
      289.800       0.00000
      289.900       0.00000
      290.000       0.00000
      290.100       0.00000
      290.200       0.00000
      290.300       0.00000
      290.400       0.00000
      290.500       0.00000
      290.600       0.00000
      290.700       0.00000
      290.800       0.00000
      290.900       0.00000
      291.000       0.00000
      291.100       0.00000
      291.200       0.00000
      291.300       0.00000
      291.400       0.00000
      291.500       0.00000
      291.600       0.00000
      291.700       0.00000
      291.800       0.00000
      291.900       0.00000
      292.000       0.00000
      292.100       0.00000
      292.200       0.00000
      292.300       0.00000
      292.400       0.00000
      292.500       0.00000
      292.600       0.00000
      292.700       0.00000
      292.800       0.00000
      292.900       0.00000
      293.000       0.00000
      293.100       0.00000
      293.200       0.00000
      293.300       0.00000
      293.400       0.00000
      293.500       0.00000
      293.600       0.00000
      293.700       0.00000
      293.800       0.00000
      293.900       0.00000
      294.000       0.00000
      294.100       0.00000
      294.200       0.00000
      294.300       0.00000
      294.400       0.00000
      294.500       0.00000
      294.600       0.00000
      294.700       0.00000
      294.800       0.00000
      294.900       0.00000
      295.000       0.00000
      295.100       0.00000
      295.200       0.00000
      295.300       0.00000
      295.400       0.00000
      295.500       0.00000
      295.600       0.00000
      295.700       0.00000
      295.800       0.00000
      295.900       0.00000
      296.000       0.00000
      296.100       0.00000
      296.200       0.00000
      296.300       0.00000
      296.400       0.00000
      296.500       0.00000
      296.600       0.00000
      296.700       0.00000
      296.800       0.00000
      296.900       0.00000
      297.000       0.00000
      297.100       0.00000
      297.200       0.00000
      297.300       0.00000
      297.400       0.00000
      297.500       0.00000
      297.600       0.00000
      297.700       0.00000
      297.800       0.00000
      297.900       0.00000
      298.000       0.00000
      298.100       0.00000
      298.200       0.00000
      298.300       0.00000
      298.400       0.00000
      298.500       0.00000
      298.600       0.00000
      298.700       0.00000
      298.800       0.00000
      298.900       0.00000
      299.000       0.00000
      299.100       0.00000
      299.200       0.00000
      299.300       0.00000
      299.400       0.00000
      299.500       0.00000
      299.600       0.00000
      299.700       0.00000
      299.800       0.00000
      299.900       0.00000
      300.000       0.00000
      300.100       0.00000
      300.192       0.00000
      300.285       0.00000
      300.377       0.00000
      300.470       0.00000
      300.562       0.00000
      300.654       0.00000
      300.747       0.00000
      300.839       0.00000
      300.932       0.00000
      301.025       0.00000
      301.117       0.00000
      301.210       0.00000
      301.303       0.00000
      301.395       0.00000
      301.488       0.00000
      301.581       0.00000
      301.674       0.00000
      301.766       0.00000
      301.859       0.00000
      301.952       0.00000
      302.045       0.00000
      302.138       0.00000
      302.231       0.00000
      302.324       0.00000
      302.417       0.00000
      302.510       0.00000
      302.603       0.00000
      302.696       0.00000
      302.789       0.00000
      302.882       0.00000
      302.976       0.00000
      303.069       0.00000
      303.162       0.00000
      303.255       0.00000
      303.349       0.00000
      303.442       0.00000
      303.535       0.00000
      303.629       0.00000
      303.722       0.00000
      303.816       0.00000
      303.909       0.00000
      304.003       0.00000
      304.096       0.00000
      304.190       0.00000
      304.283       0.00000
      304.377       0.00000
      304.471       0.00000
      304.564       0.00000
      304.658       0.00000
      304.752       0.00000
      304.846       0.00000
      304.939       0.00000
      305.033       0.00000
      305.127       0.00000
      305.221       0.00000
      305.315       0.00000
      305.409       0.00000
      305.503       0.00000
      305.597       0.00000
      305.691       0.00000
      305.785       0.00000
      305.879       0.00000
      305.973       0.00000
      306.067       0.00000
      306.161       0.00000
      306.255       0.00000
      306.350       0.00000
      306.444       0.00000
      306.538       0.00000
      306.633       0.00000
      306.727       0.00000
      306.821       0.00000
      306.916       0.00000
      307.010       0.00000
      307.105       0.00000
      307.199       0.00000
      307.294       0.00000
      307.388       0.00000
      307.483       0.00000
      307.577       0.00000
      307.672       0.00000
      307.767       0.00000
      307.861       0.00000
      307.956       0.00000
      308.051       0.00000
      308.146       0.00000
      308.240       0.00000
      308.335       0.00000
      308.430       0.00000
      308.525       0.00000
      308.620       0.00000
      308.715       0.00000
      308.810       0.00000
      308.905       0.00000
      309.000       0.00000
      309.095       0.00000
      309.190       0.00000
      309.285       0.00000
      309.380       0.00000
      309.476       0.00000
      309.571       0.00000
      309.666       0.00000
      309.761       0.00000
      309.857       0.00000
      309.952       0.00000
      310.047       0.00000
      310.143       0.00000
      310.238       0.00000
      310.334       0.00000
      310.429       0.00000
      310.525       0.00000
      310.620       0.00000
      310.716       0.00000
      310.811       0.00000
      310.907       0.00000
      311.003       0.00000
      311.098       0.00000
      311.194       0.00000
      311.290       0.00000
      311.386       0.00000
      311.481       0.00000
      311.577       0.00000
      311.673       0.00000
      311.769       0.00000
      311.865       0.00000
      311.961       0.00000
      312.057       0.00000
      312.153       0.00000
      312.249       0.00000
      312.345       0.00000
      312.441       0.00000
      312.537       0.00000
      312.633       0.00000
      312.730       0.00000
      312.826       0.00000
      312.922       0.00000
      313.018       0.00000
      313.115       0.00000
      313.211       0.00000
      313.307       0.00000
      313.404       0.00000
      313.500       0.00000
      313.597       0.00000
      313.693       0.00000
      313.790       0.00000
      313.886       0.00000
      313.983       0.00000
      314.079       0.00000
      314.176       0.00000
      314.273       0.00000
      314.369       0.00000
      314.466       0.00000
      314.563       0.00000
      314.660       0.00000
      314.756       0.00000
      314.853       0.00000
      314.950       0.00000
      315.047       0.00000
      315.144       0.00000
      315.241       0.00000
      315.338       0.00000
      315.435       0.00000
      315.532       0.00000
      315.629       0.00000
      315.726       0.00000
      315.823       0.00000
      315.921       0.00000
      316.018       0.00000
      316.115       0.00000
      316.212       0.00000
      316.310       0.00000
      316.407       0.00000
      316.504       0.00000
      316.602       0.00000
      316.699       0.00000
      316.796       0.00000
      316.894       0.00000
      316.991       0.00000
      317.089       0.00000
      317.187       0.00000
      317.284       0.00000
      317.382       0.00000
      317.479       0.00000
      317.577       0.00000
      317.675       0.00000
      317.773       0.00000
      317.870       0.00000
      317.968       0.00000
      318.066       0.00000
      318.164       0.00000
      318.262       0.00000
      318.360       0.00000
      318.458       0.00000
      318.556       0.00000
      318.654       0.00000
      318.752       0.00000
      318.850       0.00000
      318.948       0.00000
      319.046       0.00000
      319.144       0.00000
      319.242       0.00000
      319.341       0.00000
      319.439       0.00000
      319.537       0.00000
      319.635       0.00000
      319.734       0.00000
      319.832       0.00000
      319.930       0.00000
      320.029       0.00000
      320.127       0.00000
      320.226       0.00000
      320.324       0.00000
      320.423       0.00000
      320.522       0.00000
      320.620       0.00000
      320.719       0.00000
      320.818       0.00000
      320.916       0.00000
      321.015       0.00000
      321.114       0.00000
      321.213       0.00000
      321.311       0.00000
      321.410       0.00000
      321.509       0.00000
      321.608       0.00000
      321.707       0.00000
      321.806       0.00000
      321.905       0.00000
      322.004       0.00000
      322.103       0.00000
      322.202       0.00000
      322.301       0.00000
      322.401       0.00000
      322.500       0.00000
      322.599       0.00000
      322.698       0.00000
      322.798       0.00000
      322.897       0.00000
      322.996       0.00000
      323.096       0.00000
      323.195       0.00000
      323.294       0.00000
      323.394       0.00000
      323.493       0.00000
      323.593       0.00000
      323.692       0.00000
      323.792       0.00000
      323.892       0.00000
      323.991       0.00000
      324.091       0.00000
      324.191       0.00000
      324.291       0.00000
      324.390       0.00000
      324.490       0.00000
      324.590       0.00000
      324.690       0.00000
      324.790       0.00000
      324.890       0.00000
      324.990       0.00000
      325.090       0.00000
      325.190       0.00000
      325.290       0.00000
      325.390       0.00000
      325.490       0.00000
      325.590       0.00000
      325.690       0.00000
      325.790       0.00000
      325.891       0.00000
      325.991       0.00000
      326.091       0.00000
      326.192       0.00000
      326.292       0.00000
      326.392       0.00000
      326.493       0.00000
      326.593       0.00000
      326.694       0.00000
      326.794       0.00000
      326.895       0.00000
      326.995       0.00000
      327.096       0.00000
      327.197       0.00000
      327.297       0.00000
      327.398       0.00000
      327.499       0.00000
      327.599       0.00000
      327.700       0.00000
      327.801       0.00000
      327.902       0.00000
      328.003       0.00000
      328.104       0.00000
      328.205       0.00000
      328.306       0.00000
      328.407       0.00000
      328.508       0.00000
      328.609       0.00000
      328.710       0.00000
      328.811       0.00000
      328.912       0.00000
      329.013       0.00000
      329.115       0.00000
      329.216       0.00000
      329.317       0.00000
      329.419       0.00000
      329.520       0.00000
      329.621       0.00000
      329.723       0.00000
      329.824       0.00000
      329.926       0.00000
      330.027       0.00000
      330.129       0.00000
      330.230       0.00000
      330.332       0.00000
      330.434       0.00000
      330.535       0.00000
      330.637       0.00000
      330.739       0.00000
      330.840       0.00000
      330.942       0.00000
      331.044       0.00000
      331.146       0.00000
      331.248       0.00000
      331.350       0.00000
      331.452       0.00000
      331.554       0.00000
      331.656       0.00000
      331.758       0.00000
      331.860       0.00000
      331.962       0.00000
      332.064       0.00000
      332.166       0.00000
      332.268       0.00000
      332.371       0.00000
      332.473       0.00000
      332.575       0.00000
      332.677       0.00000
      332.780       0.00000
      332.882       0.00000
      332.985       0.00000
      333.087       0.00000
      333.190       0.00000
      333.292       0.00000
      333.395       0.00000
      333.497       0.00000
      333.600       0.00000
      333.702       0.00000
      333.805       0.00000
      333.908       0.00000
      334.011       0.00000
      334.113       0.00000
      334.216       0.00000
      334.319       0.00000
      334.422       0.00000
      334.525       0.00000
      334.628       0.00000
      334.731       0.00000
      334.834       0.00000
      334.937       0.00000
      335.040       0.00000
      335.143       0.00000
      335.246       0.00000
      335.349       0.00000
      335.452       0.00000
      335.555       0.00000
      335.659       0.00000
      335.762       0.00000
      335.865       0.00000
      335.969       0.00000
      336.072       0.00000
      336.175       0.00000
      336.279       0.00000
      336.382       0.00000
      336.486       0.00000
      336.589       0.00000
      336.693       0.00000
      336.796       0.00000
      336.900       0.00000
      337.004       0.00000
      337.107       0.00000
      337.211       0.00000
      337.315       0.00000
      337.419       0.00000
      337.523       0.00000
      337.626       0.00000
      337.730       0.00000
      337.834       0.00000
      337.938       0.00000
      338.042       0.00000
      338.146       0.00000
      338.250       0.00000
      338.354       0.00000
      338.458       0.00000
      338.562       0.00000
      338.667       0.00000
      338.771       0.00000
      338.875       0.00000
      338.979       0.00000
      339.084       0.00000
      339.188       0.00000
      339.292       0.00000
      339.397       0.00000
      339.501       0.00000
      339.606       0.00000
      339.710       0.00000
      339.815       0.00000
      339.919       0.00000
      340.024       0.00000
      340.128       0.00000
      340.233       0.00000
      340.338       0.00000
      340.442       0.00000
      340.547       0.00000
      340.652       0.00000
      340.757       0.00000
      340.862       0.00000
      340.966       0.00000
      341.071       0.00000
      341.176       0.00000
      341.281       0.00000
      341.386       0.00000
      341.491       0.00000
      341.596       0.00000
      341.702       0.00000
      341.807       0.00000
      341.912       0.00000
      342.017       0.00000
      342.122       0.00000
      342.228       0.00000
      342.333       0.00000
      342.438       0.00000
      342.544       0.00000
      342.649       0.00000
      342.754       0.00000
      342.860       0.00000
      342.965       0.00000
      343.071       0.00000
      343.176       0.00000
      343.282       0.00000
      343.388       0.00000
      343.493       0.00000
      343.599       0.00000
      343.705       0.00000
      343.810       0.00000
      343.916       0.00000
      344.022       0.00000
      344.128       0.00000
      344.234       0.00000
      344.340       0.00000
      344.446       0.00000
      344.552       0.00000
      344.658       0.00000
      344.764       0.00000
      344.870       0.00000
      344.976       0.00000
      345.082       0.00000
      345.188       0.00000
      345.294       0.00000
      345.401       0.00000
      345.507       0.00000
      345.613       0.00000
      345.719       0.00000
      345.826       0.00000
      345.932       0.00000
      346.039       0.00000
      346.145       0.00000
      346.252       0.00000
      346.358       0.00000
      346.465       0.00000
      346.571       0.00000
      346.678       0.00000
      346.785       0.00000
      346.891       0.00000
      346.998       0.00000
      347.105       0.00000
      347.212       0.00000
      347.319       0.00000
      347.425       0.00000
      347.532       0.00000
      347.639       0.00000
      347.746       0.00000
      347.853       0.00000
      347.960       0.00000
      348.067       0.00000
      348.174       0.00000
      348.281       0.00000
      348.389       0.00000
      348.496       0.00000
      348.603       0.00000
      348.710       0.00000
      348.818       0.00000
      348.925       0.00000
      349.032       0.00000
      349.140       0.00000
      349.247       0.00000
      349.355       0.00000
      349.462       0.00000
      349.570       0.00000
      349.677       0.00000
      349.785       0.00000
      349.892       0.00000
      350.000       0.00000
      350.100       0.00000
      350.193       0.00000
      350.287       0.00000
      350.380       0.00000
      350.473       0.00000
      350.567       0.00000
      350.660       0.00000
      350.754       0.00000
      350.847       0.00000
      350.941       0.00000
      351.034       0.00000
      351.128       0.00000
      351.221       0.00000
      351.315       0.00000
      351.409       0.00000
      351.502       0.00000
      351.596       0.00000
      351.690       0.00000
      351.783       0.00000
      351.877       0.00000
      351.971       0.00000
      352.065       0.00000
      352.159       0.00000
      352.252       0.00000
      352.346       0.00000
      352.440       0.00000
      352.534       0.00000
      352.628       0.00000
      352.722       0.00000
      352.816       0.00000
      352.910       0.00000
      353.004       0.00000
      353.098       0.00000
      353.192       0.00000
      353.287       0.00000
      353.381       0.00000
      353.475       0.00000
      353.569       0.00000
      353.663       0.00000
      353.758       0.00000
      353.852       0.00000
      353.946       0.00000
      354.041       0.00000
      354.135       0.00000
      354.229       0.00000
      354.324       0.00000
      354.418       0.00000
      354.513       0.00000
      354.607       0.00000
      354.702       0.00000
      354.796       0.00000
      354.891       0.00000
      354.985       0.00000
      355.080       0.00000
      355.175       0.00000
      355.269       0.00000
      355.364       0.00000
      355.459       0.00000
      355.553       0.00000
      355.648       0.00000
      355.743       0.00000
      355.838       0.00000
      355.933       0.00000
      356.027       0.00000
      356.122       0.00000
      356.217       0.00000
      356.312       0.00000
      356.407       0.00000
      356.502       0.00000
      356.597       0.00000
      356.692       0.00000
      356.787       0.00000
      356.882       0.00000
      356.977       0.00000
      357.073       0.00000
      357.168       0.00000
      357.263       0.00000
      357.358       0.00000
      357.453       0.00000
      357.549       0.00000
      357.644       0.00000
      357.739       0.00000
      357.835       0.00000
      357.930       0.00000
      358.025       0.00000
      358.121       0.00000
      358.216       0.00000
      358.312       0.00000
      358.407       0.00000
      358.503       0.00000
      358.598       0.00000
      358.694       0.00000
      358.790       0.00000
      358.885       0.00000
      358.981       0.00000
      359.076       0.00000
      359.172       0.00000
      359.268       0.00000
      359.364       0.00000
      359.459       0.00000
      359.555       0.00000
      359.651       0.00000
      359.747       0.00000
      359.843       0.00000
      359.939       0.00000
      360.035       0.00000
      360.131       0.00000
      360.227       0.00000
      360.323       0.00000
      360.419       0.00000
      360.515       0.00000
      360.611       0.00000
      360.707       0.00000
      360.803       0.00000
      360.899       0.00000
      360.995       0.00000
      361.092       0.00000
      361.188       0.00000
      361.284       0.00000
      361.380       0.00000
      361.477       0.00000
      361.573       0.00000
      361.669       0.00000
      361.766       0.00000
      361.862       0.00000
      361.959       0.00000
      362.055       0.00000
      362.152       0.00000
      362.248       0.00000
      362.345       0.00000
      362.441       0.00000
      362.538       0.00000
      362.635       0.00000
      362.731       0.00000
      362.828       0.00000
      362.925       0.00000
      363.021       0.00000
      363.118       0.00000
      363.215       0.00000
      363.312       0.00000
      363.409       0.00000
      363.505       0.00000
      363.602       0.00000
      363.699       0.00000
      363.796       0.00000
      363.893       0.00000
      363.990       0.00000
      364.087       0.00000
      364.184       0.00000
      364.281       0.00000
      364.378       0.00000
      364.475       0.00000
      364.573       0.00000
      364.670       0.00000
      364.767       0.00000
      364.864       0.00000
      364.961       0.00000
      365.059       0.00000
      365.156       0.00000
      365.253       0.00000
      365.351       0.00000
      365.448       0.00000
      365.545       0.00000
      365.643       0.00000
      365.740       0.00000
      365.838       0.00000
      365.935       0.00000
      366.033       0.00000
      366.130       0.00000
      366.228       0.00000
      366.326       0.00000
      366.423       0.00000
      366.521       0.00000
      366.618       0.00000
      366.716       0.00000
      366.814       0.00000
      366.912       0.00000
      367.010       0.00000
      367.107       0.00000
      367.205       0.00000
      367.303       0.00000
      367.401       0.00000
      367.499       0.00000
      367.597       0.00000
      367.695       0.00000
      367.793       0.00000
      367.891       0.00000
      367.989       0.00000
      368.087       0.00000
      368.185       0.00000
      368.283       0.00000
      368.381       0.00000
      368.480       0.00000
      368.578       0.00000
      368.676       0.00000
      368.774       0.00000
      368.873       0.00000
      368.971       0.00000
      369.069       0.00000
      369.168       0.00000
      369.266       0.00000
      369.364       0.00000
      369.463       0.00000
      369.561       0.00000
      369.660       0.00000
      369.758       0.00000
      369.857       0.00000
      369.955       0.00000
      370.054       0.00000
      370.153       0.00000
      370.251       0.00000
      370.350       0.00000
      370.449       0.00000
      370.547       0.00000
      370.646       0.00000
      370.745       0.00000
      370.844       0.00000
      370.943       0.00000
      371.041       0.00000
      371.140       0.00000
      371.239       0.00000
      371.338       0.00000
      371.437       0.00000
      371.536       0.00000
      371.635       0.00000
      371.734       0.00000
      371.833       0.00000
      371.932       0.00000
      372.032       0.00000
      372.131       0.00000
      372.230       0.00000
      372.329       0.00000
      372.428       0.00000
      372.528       0.00000
      372.627       0.00000
      372.726       0.00000
      372.826       0.00000
      372.925       0.00000
      373.024       0.00000
      373.124       0.00000
      373.223       0.00000
      373.323       0.00000
      373.422       0.00000
      373.522       0.00000
      373.621       0.00000
      373.721       0.00000
      373.820       0.00000
      373.920       0.00000
      374.020       0.00000
      374.119       0.00000
      374.219       0.00000
      374.319       0.00000
      374.419       0.00000
      374.518       0.00000
      374.618       0.00000
      374.718       0.00000
      374.818       0.00000
      374.918       0.00000
      375.018       0.00000
      375.118       0.00000
      375.218       0.00000
      375.318       0.00000
      375.418       0.00000
      375.518       0.00000
      375.618       0.00000
      375.718       0.00000
      375.818       0.00000
      375.918       0.00000
      376.019       0.00000
      376.119       0.00000
      376.219       0.00000
      376.319       0.00000
      376.420       0.00000
      376.520       0.00000
      376.620       0.00000
      376.721       0.00000
      376.821       0.00000
      376.922       0.00000
      377.022       0.00000
      377.122       0.00000
      377.223       0.00000
      377.323       0.00000
      377.424       0.00000
      377.525       0.00000
      377.625       0.00000
      377.726       0.00000
      377.827       0.00000
      377.927       0.00000
      378.028       0.00000
      378.129       0.00000
      378.230       0.00000
      378.330       0.00000
      378.431       0.00000
      378.532       0.00000
      378.633       0.00000
      378.734       0.00000
      378.835       0.00000
      378.936       0.00000
      379.037       0.00000
      379.138       0.00000
      379.239       0.00000
      379.340       0.00000
      379.441       0.00000
      379.542       0.00000
      379.643       0.00000
      379.745       0.00000
      379.846       0.00000
      379.947       0.00000
      380.048       0.00000
      380.150       0.00000
      380.251       0.00000
      380.352       0.00000
      380.454       0.00000
      380.555       0.00000
      380.656       0.00000
      380.758       0.00000
      380.859       0.00000
      380.961       0.00000
      381.062       0.00000
      381.164       0.00000
      381.266       0.00000
      381.367       0.00000
      381.469       0.00000
      381.570       0.00000
      381.672       0.00000
      381.774       0.00000
      381.876       0.00000
      381.977       0.00000
      382.079       0.00000
      382.181       0.00000
      382.283       0.00000
      382.385       0.00000
      382.487       0.00000
      382.589       0.00000
      382.691       0.00000
      382.793       0.00000
      382.895       0.00000
      382.997       0.00000
      383.099       0.00000
      383.201       0.00000
      383.303       0.00000
      383.405       0.00000
      383.507       0.00000
      383.610       0.00000
      383.712       0.00000
      383.814       0.00000
      383.916       0.00000
      384.019       0.00000
      384.121       0.00000
      384.223       0.00000
      384.326       0.00000
      384.428       0.00000
      384.531       0.00000
      384.633       0.00000
      384.736       0.00000
      384.838       0.00000
      384.941       0.00000
      385.043       0.00000
      385.146       0.00000
      385.249       0.00000
      385.351       0.00000
      385.454       0.00000
      385.557       0.00000
      385.660       0.00000
      385.762       0.00000
      385.865       0.00000
      385.968       0.00000
      386.071       0.00000
      386.174       0.00000
      386.277       0.00000
      386.380       0.00000
      386.483       0.00000
      386.586       0.00000
      386.689       0.00000
      386.792       0.00000
      386.895       0.00000
      386.998       0.00000
      387.101       0.00000
      387.204       0.00000
      387.308       0.00000
      387.411       0.00000
      387.514       0.00000
      387.617       0.00000
      387.721       0.00000
      387.824       0.00000
      387.927       0.00000
      388.031       0.00000
      388.134       0.00000
      388.238       0.00000
      388.341       0.00000
      388.445       0.00000
      388.548       0.00000
      388.652       0.00000
      388.755       0.00000
      388.859       0.00000
      388.962       0.00000
      389.066       0.00000
      389.170       0.00000
      389.274       0.00000
      389.377       0.00000
      389.481       0.00000
      389.585       0.00000
      389.689       0.00000
      389.793       0.00000
      389.897       0.00000
      390.000       0.00000
      390.104       0.00000
      390.208       0.00000
      390.312       0.00000
      390.416       0.00000
      390.520       0.00000
      390.625       0.00000
      390.729       0.00000
      390.833       0.00000
      390.937       0.00000
      391.041       0.00000
      391.145       0.00000
      391.250       0.00000
      391.354       0.00000
      391.458       0.00000
      391.563       0.00000
      391.667       0.00000
      391.771       0.00000
      391.876       0.00000
      391.980       0.00000
      392.085       0.00000
      392.189       0.00000
      392.294       0.00000
      392.398       0.00000
      392.503       0.00000
      392.607       0.00000
      392.712       0.00000
      392.817       0.00000
      392.921       0.00000
      393.026       0.00000
      393.131       0.00000
      393.236       0.00000
      393.340       0.00000
      393.445       0.00000
      393.550       0.00000
      393.655       0.00000
      393.760       0.00000
      393.865       0.00000
      393.970       0.00000
      394.075       0.00000
      394.180       0.00000
      394.285       0.00000
      394.390       0.00000
      394.495       0.00000
      394.600       0.00000
      394.706       0.00000
      394.811       0.00000
      394.916       0.00000
      395.021       0.00000
      395.126       0.00000
      395.232       0.00000
      395.337       0.00000
      395.443       0.00000
      395.548       0.00000
      395.653       0.00000
      395.759       0.00000
      395.864       0.00000
      395.970       0.00000
      396.075       0.00000
      396.181       0.00000
      396.286       0.00000
      396.392       0.00000
      396.498       0.00000
      396.603       0.00000
      396.709       0.00000
      396.815       0.00000
      396.921       0.00000
      397.026       0.00000
      397.132       0.00000
      397.238       0.00000
      397.344       0.00000
      397.450       0.00000
      397.556       0.00000
      397.662       0.00000
      397.768       0.00000
      397.874       0.00000
      397.980       0.00000
      398.086       0.00000
      398.192       0.00000
      398.298       0.00000
      398.404       0.00000
      398.510       0.00000
      398.617       0.00000
      398.723       0.00000
      398.829       0.00000
      398.935       0.00000
      399.042       0.00000
      399.148       0.00000
      399.255       0.00000
      399.361       0.00000
      399.467       0.00000
      399.574       0.00000
      399.680       0.00000
      399.787       0.00000
      399.893       0.00000
      400.000       0.00000
