Filter Be-med
observation_date 22Sept2023
wavelength effective area
      1.00000   2.78114e-10
      1.10000   7.93773e-10
      1.20000   2.06297e-09
      1.30000   4.93135e-09
      1.40000   1.11851e-08
      1.50000   2.38505e-08
      1.60000   4.82554e-08
      1.70000   9.36187e-08
      1.80000   1.74158e-07
      1.90000   3.12737e-07
      2.00000   5.43142e-07
      2.10000   9.16356e-07
      2.20000   1.50905e-06
      2.30000   2.42235e-06
      2.40000   3.79696e-06
      2.50000   5.79274e-06
      2.60000   8.82342e-06
      2.70000   1.31275e-05
      2.80000   1.91539e-05
      2.90000   2.76538e-05
      3.00000   3.92945e-05
      3.10000   5.51079e-05
      3.20000   7.64252e-05
      3.30000   0.000104886
      3.40000   0.000142412
      3.50000   0.000191447
      3.60000   0.000256106
      3.70000   0.000338884
      3.80000   0.000446423
      3.90000   0.000584654
      4.00000   0.000760700
      4.10000   0.000984876
      4.20000    0.00127033
      4.30000    0.00163335
      4.40000    0.00209383
      4.50000    0.00267587
      4.60000    0.00340718
      4.70000    0.00433655
      4.80000    0.00551156
      4.90000    0.00691296
      5.00000    0.00889446
      5.10000     0.0112796
      5.20000     0.0143390
      5.30000     0.0180691
      5.40000     0.0227205
      5.50000     0.0286075
      5.60000     0.0349017
      5.70000     0.0448413
      5.80000     0.0519203
      5.90000     0.0782679
      6.00000      0.103829
      6.10000      0.130893
      6.20000      0.158503
      6.30000      0.183907
      6.40000      0.204581
      6.50000      0.218416
      6.60000      0.222523
      6.70000      0.225648
      6.80000      0.222171
      6.90000      0.286415
      7.00000      0.305877
      7.10000      0.317493
      7.20000      0.324892
      7.30000      0.329245
      7.40000      0.330581
      7.50000      0.329921
      7.60000      0.327427
      7.70000      0.322359
      7.80000      0.314277
      7.90000      0.306531
      8.00000      0.432346
      8.10000      0.461572
      8.20000      0.457080
      8.30000      0.450393
      8.40000      0.441724
      8.50000      0.432198
      8.60000      0.421787
      8.70000      0.410813
      8.80000      0.399246
      8.90000      0.387304
      9.00000      0.375037
      9.10000      0.362516
      9.20000      0.349834
      9.30000      0.337056
      9.40000      0.324218
      9.50000      0.311370
      9.60000      0.298592
      9.70000      0.285892
      9.80000      0.273325
      9.90000      0.260961
      10.0000      0.248829
      10.1000      0.236923
      10.2000      0.225265
      10.3000      0.213893
      10.4000      0.202829
      10.5000      0.192061
      10.6000      0.181603
      10.7000      0.171466
      10.8000      0.161676
      10.9000      0.152262
      11.0000      0.143192
      11.1000      0.134475
      11.2000      0.126112
      11.3000      0.118103
      11.4000      0.110444
      11.5000      0.103132
      11.6000     0.0961652
      11.7000     0.0895517
      11.8000     0.0832704
      11.9000     0.0772998
      12.0000     0.0715640
      12.1000     0.0663755
      12.2000     0.0626014
      12.3000     0.0583625
      12.4000     0.0539373
      12.5000     0.0497471
      12.6000     0.0458068
      12.7000     0.0421155
      12.8000     0.0386646
      12.9000     0.0354433
      13.0000     0.0324429
      13.1000     0.0296536
      13.2000     0.0270687
      13.3000     0.0246898
      13.4000     0.0224985
      13.5000     0.0204750
      13.6000     0.0186207
      13.7000     0.0169117
      13.8000     0.0153383
      13.9000     0.0138920
      14.0000     0.0125640
      14.1000     0.0113442
      14.2000     0.0102243
      14.3000    0.00919841
      14.4000    0.00826105
      14.5000    0.00741092
      14.6000    0.00664435
      14.7000    0.00594670
      14.8000    0.00531262
      14.9000    0.00473711
      15.0000    0.00421556
      15.1000    0.00374376
      15.2000    0.00332629
      15.3000    0.00295093
      15.4000    0.00261238
      15.5000    0.00230748
      15.6000    0.00203346
      15.7000    0.00179106
      15.8000    0.00157767
      15.9000    0.00138625
      16.0000    0.00121485
      16.1000    0.00106169
      16.2000   0.000929164
      16.3000   0.000812111
      16.4000   0.000707613
      16.5000   0.000614542
      16.6000   0.000533656
      16.7000   0.000463731
      16.8000   0.000401488
      16.9000   0.000346255
      17.0000   0.000298751
      17.1000   0.000258141
      17.2000   0.000222263
      17.3000   0.000190686
      17.4000   0.000164231
      17.5000   0.000141143
      17.6000   0.000120827
      17.7000   0.000103550
      17.8000   8.95395e-05
      17.9000   7.70908e-05
      18.0000   6.60274e-05
      18.1000   5.69111e-05
      18.2000   4.87472e-05
      18.3000   4.14010e-05
      18.4000   3.51424e-05
      18.5000   2.97051e-05
      18.6000   2.48501e-05
      18.7000   2.07574e-05
      18.8000   1.73315e-05
      18.9000   1.43298e-05
      19.0000   1.18990e-05
      19.1000   9.87511e-06
      19.2000   8.10497e-06
      19.3000   6.70197e-06
      19.4000   5.53415e-06
      19.5000   4.52465e-06
      19.6000   3.77012e-06
      19.7000   3.11535e-06
      19.8000   2.54900e-06
      19.9000   2.11826e-06
      20.0000   1.73500e-06
      20.1000   1.42070e-06
      20.2000   1.16957e-06
      20.3000   9.47719e-07
      20.4000   7.78140e-07
      20.5000   6.33256e-07
      20.6000   5.10371e-07
      20.7000   4.17878e-07
      20.8000   3.35413e-07
      20.9000   2.72115e-07
      21.0000   2.19426e-07
      21.1000   1.74709e-07
      21.2000   1.41782e-07
      21.3000   1.12289e-07
      21.4000   9.04042e-08
      21.5000   7.19008e-08
      21.6000   5.68178e-08
      21.7000   4.54335e-08
      21.8000   3.52923e-08
      21.9000   2.82951e-08
      22.0000   2.20083e-08
      22.1000   1.73557e-08
      22.2000   1.35491e-08
      22.3000   1.04772e-08
      22.4000   8.10487e-09
      22.5000   5.96217e-09
      22.6000   4.29191e-09
      22.7000   2.90674e-09
      22.8000   2.80701e-09
      22.9000   2.79751e-09
      23.0000   2.84406e-09
      23.1000   2.65142e-09
      23.2000   2.23368e-09
      23.3000   1.82414e-09
      23.4000   1.41891e-09
      23.5000   1.12747e-09
      23.6000   8.64523e-10
      23.7000   6.87974e-10
      23.8000   5.21118e-10
      23.9000   4.14534e-10
      24.0000   3.13528e-10
      24.1000   2.47357e-10
      24.2000   1.86673e-10
      24.3000   1.46213e-10
      24.4000   1.10135e-10
      24.5000   8.56773e-11
      24.6000   6.43693e-11
      24.7000   4.97831e-11
      24.8000   3.72886e-11
      24.9000   2.86937e-11
      25.0000   2.14062e-11
      25.1000   1.64070e-11
      25.2000   1.21790e-11
      25.3000   9.30724e-12
      25.4000   6.86559e-12
      25.5000   5.23797e-12
      25.6000   3.83496e-12
      25.7000   2.92455e-12
      25.8000   2.12203e-12
      25.9000   1.61956e-12
      26.0000   1.16280e-12
      26.1000   8.89225e-13
      26.2000   6.30688e-13
      26.3000   4.83855e-13
      26.4000   3.38499e-13
      26.5000   2.60808e-13
      26.6000   1.83537e-13
      26.7000   1.39176e-13
      26.8000   9.89000e-14
      26.9000   7.34870e-14
      27.0000   5.27960e-14
      27.1000   3.83513e-14
      27.2000   2.78811e-14
      27.3000   1.97860e-14
      27.4000   1.46343e-14
      27.5000   1.01674e-14
      27.6000   7.60069e-15
      27.7000   5.12147e-15
      27.8000   3.87947e-15
      27.9000   2.64415e-15
      28.0000   1.95030e-15
      28.1000   1.36428e-15
      28.2000   9.65771e-16
      28.3000   6.92473e-16
      28.4000   4.70676e-16
      28.5000   3.45423e-16
      28.6000   2.25583e-16
      28.7000   1.69206e-16
      28.8000   1.13140e-16
      28.9000   8.13397e-17
      29.0000   5.65381e-17
      29.1000   3.83324e-17
      29.2000   2.75633e-17
      29.3000   1.76977e-17
      29.4000   1.31103e-17
      29.5000   8.54863e-18
      29.6000   6.08434e-18
      29.7000   4.17897e-18
      29.8000   2.75521e-18
      29.9000   1.97489e-18
      30.0000   1.21722e-18
      30.1000   9.04082e-19
      30.2000   5.92713e-19
      30.3000   4.04680e-19
      30.4000   2.87300e-19
      30.5000   1.84578e-19
      30.6000   1.34412e-19
      30.7000   8.45312e-20
      30.8000   5.85220e-20
      30.9000   3.97444e-20
      31.0000   2.46784e-20
      31.1000   1.78529e-20
      31.2000   1.10665e-20
      31.3000   7.78571e-21
      31.4000   5.26486e-21
      31.5000   3.26646e-21
      31.6000   2.35025e-21
      31.7000   1.43933e-21
      31.8000   9.97038e-22
      31.9000   6.73681e-22
      32.0000   4.06074e-22
      32.1000   2.95970e-22
      32.2000   1.86505e-22
      32.3000   1.25997e-22
      32.4000   8.71541e-23
      32.5000   5.12831e-23
      32.6000   3.78018e-23
      32.7000   2.43986e-23
      32.8000   1.54885e-23
      32.9000   1.09355e-23
      33.0000   6.40904e-24
      33.1000   4.53971e-24
      33.2000   3.03726e-24
      33.3000   1.77800e-24
      33.4000   1.29022e-24
      33.5000   8.05206e-25
      33.6000   5.08491e-25
      33.7000   3.54732e-25
      33.8000   2.01828e-25
      33.9000   1.41488e-25
      34.0000   9.41575e-26
      34.1000   5.25804e-26
      34.2000   3.82883e-26
      34.3000   2.40712e-26
      34.4000   1.42544e-26
      34.5000   1.00686e-26
      34.6000   5.90528e-27
      34.7000   3.76747e-27
      34.8000   2.57241e-27
      34.9000   1.38367e-27
      35.0000   9.70130e-28
      35.1000   6.38239e-28
      35.2000   3.33886e-28
      35.3000   2.43683e-28
      35.4000   1.53958e-28
      35.5000   8.34643e-29
      35.6000   5.97390e-29
      35.7000   3.61400e-29
      35.8000   2.03698e-29
      35.9000   1.43019e-29
      36.0000   8.26634e-30
      36.1000   4.85372e-30
      36.2000   3.34598e-30
      36.3000   1.84630e-30
      36.4000   1.12963e-30
      36.5000   7.65774e-31
      36.6000   4.03896e-31
      36.7000   2.56838e-31
      36.8000   1.71609e-31
      36.9000   8.68453e-32
      37.0000   5.70511e-32
      37.1000   3.76851e-32
      37.2000   1.84236e-32
      37.3000   1.23785e-32
      37.4000   8.11318e-33
      37.5000   3.87133e-33
      37.6000   2.62318e-33
      37.7000   1.71328e-33
      37.8000   8.08384e-34
      37.9000   5.42854e-34
      38.0000   3.54865e-34
      38.1000   1.67906e-34
      38.2000   1.09603e-34
      38.3000   7.20194e-35
      38.4000   3.46427e-35
      38.5000   2.15588e-35
      38.6000   1.42999e-35
      38.7000   7.08095e-36
      38.8000   4.12900e-36
      38.9000   2.77472e-36
      39.0000   1.42786e-36
      39.1000   7.69309e-37
      39.2000   5.25266e-37
      39.3000   2.82563e-37
      39.4000   1.39064e-37
      39.5000   9.63774e-38
      39.6000   5.39291e-38
      39.7000   2.36612e-38
      39.8000   1.67226e-38
      39.9000   9.82221e-39
      40.0000   3.88300e-39
      40.1000   2.80130e-39
      40.2000   1.72558e-39
      40.3000   6.55951e-40
      40.4000   4.53183e-40
      40.5000   2.91924e-40
      40.6000   1.31555e-40
      40.7000   7.06212e-41
      40.8000   4.74031e-41
      40.9000   2.43139e-41
      41.0000   1.05756e-41
      41.1000   7.36803e-42
      41.2000   4.18288e-42
      41.3000   1.52041e-42
      41.4000   1.09301e-42
      41.5000   6.74025e-43
      41.6000   2.55036e-43
      41.7000   1.52742e-43
      41.8000   9.94922e-44
      41.9000   4.76441e-44
      42.0000   2.24208e-44
      42.1000   1.54143e-44
      42.2000   7.00649e-45
      42.3000   2.80260e-45
      42.4000   2.80260e-45
      42.5000   2.80260e-45
      42.6000  -2.80260e-45
      42.7000       0.00000
      42.8000       0.00000
      42.9000       0.00000
      43.0000       0.00000
      43.1000       0.00000
      43.2000       0.00000
      43.3000       0.00000
      43.4000       0.00000
      43.5000       0.00000
      43.6000       0.00000
      43.7000       0.00000
      43.8000       0.00000
      43.9000       0.00000
      44.0000       0.00000
      44.1000       0.00000
      44.2000       0.00000
      44.3000       0.00000
      44.4000       0.00000
      44.5000       0.00000
      44.6000       0.00000
      44.7000       0.00000
      44.8000       0.00000
      44.9000       0.00000
      45.0000       0.00000
      45.1000       0.00000
      45.2000       0.00000
      45.3000       0.00000
      45.4000       0.00000
      45.5000       0.00000
      45.6000       0.00000
      45.7000       0.00000
      45.8000       0.00000
      45.9000       0.00000
      46.0000       0.00000
      46.1000       0.00000
      46.2000       0.00000
      46.3000       0.00000
      46.4000       0.00000
      46.5000       0.00000
      46.6000       0.00000
      46.7000       0.00000
      46.8000       0.00000
      46.9000       0.00000
      47.0000       0.00000
      47.1000       0.00000
      47.2000       0.00000
      47.3000       0.00000
      47.4000       0.00000
      47.5000       0.00000
      47.6000       0.00000
      47.7000       0.00000
      47.8000       0.00000
      47.9000       0.00000
      48.0000       0.00000
      48.1000       0.00000
      48.2000       0.00000
      48.3000       0.00000
      48.4000       0.00000
      48.5000       0.00000
      48.6000       0.00000
      48.7000       0.00000
      48.8000       0.00000
      48.9000       0.00000
      49.0000       0.00000
      49.1000       0.00000
      49.2000       0.00000
      49.3000       0.00000
      49.4000       0.00000
      49.5000       0.00000
      49.6000       0.00000
      49.7000       0.00000
      49.8000       0.00000
      49.9000       0.00000
      50.0000       0.00000
      50.1000       0.00000
      50.2000       0.00000
      50.3000       0.00000
      50.4000       0.00000
      50.5000       0.00000
      50.6000       0.00000
      50.7000       0.00000
      50.8000       0.00000
      50.9000       0.00000
      51.0000       0.00000
      51.1000       0.00000
      51.2000       0.00000
      51.3000       0.00000
      51.4000       0.00000
      51.5000       0.00000
      51.6000       0.00000
      51.7000       0.00000
      51.8000       0.00000
      51.9000       0.00000
      52.0000       0.00000
      52.1000       0.00000
      52.2000       0.00000
      52.3000       0.00000
      52.4000       0.00000
      52.5000       0.00000
      52.6000       0.00000
      52.7000       0.00000
      52.8000       0.00000
      52.9000       0.00000
      53.0000       0.00000
      53.1000       0.00000
      53.2000       0.00000
      53.3000       0.00000
      53.4000       0.00000
      53.5000       0.00000
      53.6000       0.00000
      53.7000       0.00000
      53.8000       0.00000
      53.9000       0.00000
      54.0000       0.00000
      54.1000       0.00000
      54.2000       0.00000
      54.3000       0.00000
      54.4000       0.00000
      54.5000       0.00000
      54.6000       0.00000
      54.7000       0.00000
      54.8000       0.00000
      54.9000       0.00000
      55.0000       0.00000
      55.1000       0.00000
      55.2000       0.00000
      55.3000       0.00000
      55.4000       0.00000
      55.5000       0.00000
      55.6000       0.00000
      55.7000       0.00000
      55.8000       0.00000
      55.9000       0.00000
      56.0000       0.00000
      56.1000       0.00000
      56.2000       0.00000
      56.3000       0.00000
      56.4000       0.00000
      56.5000       0.00000
      56.6000       0.00000
      56.7000       0.00000
      56.8000       0.00000
      56.9000       0.00000
      57.0000       0.00000
      57.1000       0.00000
      57.2000       0.00000
      57.3000       0.00000
      57.4000       0.00000
      57.5000       0.00000
      57.6000       0.00000
      57.7000       0.00000
      57.8000       0.00000
      57.9000       0.00000
      58.0000       0.00000
      58.1000       0.00000
      58.2000       0.00000
      58.3000       0.00000
      58.4000       0.00000
      58.5000       0.00000
      58.6000       0.00000
      58.7000       0.00000
      58.8000       0.00000
      58.9000       0.00000
      59.0000       0.00000
      59.1000       0.00000
      59.2000       0.00000
      59.3000       0.00000
      59.4000       0.00000
      59.5000       0.00000
      59.6000       0.00000
      59.7000       0.00000
      59.8000       0.00000
      59.9000       0.00000
      60.0000       0.00000
      60.1000       0.00000
      60.2000       0.00000
      60.3000       0.00000
      60.4000       0.00000
      60.5000       0.00000
      60.6000       0.00000
      60.7000       0.00000
      60.8000       0.00000
      60.9000       0.00000
      61.0000       0.00000
      61.1000       0.00000
      61.2000       0.00000
      61.3000       0.00000
      61.4000       0.00000
      61.5000       0.00000
      61.6000       0.00000
      61.7000       0.00000
      61.8000       0.00000
      61.9000       0.00000
      62.0000       0.00000
      62.1000       0.00000
      62.2000       0.00000
      62.3000       0.00000
      62.4000       0.00000
      62.5000       0.00000
      62.6000       0.00000
      62.7000       0.00000
      62.8000       0.00000
      62.9000       0.00000
      63.0000       0.00000
      63.1000       0.00000
      63.2000       0.00000
      63.3000       0.00000
      63.4000       0.00000
      63.5000       0.00000
      63.6000       0.00000
      63.7000       0.00000
      63.8000       0.00000
      63.9000       0.00000
      64.0000       0.00000
      64.1000       0.00000
      64.2000       0.00000
      64.3000       0.00000
      64.4000       0.00000
      64.5000       0.00000
      64.6000       0.00000
      64.7000       0.00000
      64.8000       0.00000
      64.9000       0.00000
      65.0000       0.00000
      65.1000       0.00000
      65.2000       0.00000
      65.3000       0.00000
      65.4000       0.00000
      65.5000       0.00000
      65.6000       0.00000
      65.7000       0.00000
      65.8000       0.00000
      65.9000       0.00000
      66.0000       0.00000
      66.1000       0.00000
      66.2000       0.00000
      66.3000       0.00000
      66.4000       0.00000
      66.5000       0.00000
      66.6000       0.00000
      66.7000       0.00000
      66.8000       0.00000
      66.9000       0.00000
      67.0000       0.00000
      67.1000       0.00000
      67.2000       0.00000
      67.3000       0.00000
      67.4000       0.00000
      67.5000       0.00000
      67.6000       0.00000
      67.7000       0.00000
      67.8000       0.00000
      67.9000       0.00000
      68.0000       0.00000
      68.1000       0.00000
      68.2000       0.00000
      68.3000       0.00000
      68.4000       0.00000
      68.5000       0.00000
      68.6000       0.00000
      68.7000       0.00000
      68.8000       0.00000
      68.9000       0.00000
      69.0000       0.00000
      69.1000       0.00000
      69.2000       0.00000
      69.3000       0.00000
      69.4000       0.00000
      69.5000       0.00000
      69.6000       0.00000
      69.7000       0.00000
      69.8000       0.00000
      69.9000       0.00000
      70.0000       0.00000
      70.1000       0.00000
      70.2000       0.00000
      70.3000       0.00000
      70.4000       0.00000
      70.5000       0.00000
      70.6000       0.00000
      70.7000       0.00000
      70.8000       0.00000
      70.9000       0.00000
      71.0000       0.00000
      71.1000       0.00000
      71.2000       0.00000
      71.3000       0.00000
      71.4000       0.00000
      71.5000       0.00000
      71.6000       0.00000
      71.7000       0.00000
      71.8000       0.00000
      71.9000       0.00000
      72.0000       0.00000
      72.1000       0.00000
      72.2000       0.00000
      72.3000       0.00000
      72.4000       0.00000
      72.5000       0.00000
      72.6000       0.00000
      72.7000       0.00000
      72.8000       0.00000
      72.9000       0.00000
      73.0000       0.00000
      73.1000       0.00000
      73.2000       0.00000
      73.3000       0.00000
      73.4000       0.00000
      73.5000       0.00000
      73.6000       0.00000
      73.7000       0.00000
      73.8000       0.00000
      73.9000       0.00000
      74.0000       0.00000
      74.1000       0.00000
      74.2000       0.00000
      74.3000       0.00000
      74.4000       0.00000
      74.5000       0.00000
      74.6000       0.00000
      74.7000       0.00000
      74.8000       0.00000
      74.9000       0.00000
      75.0000       0.00000
      75.1000       0.00000
      75.2000       0.00000
      75.3000       0.00000
      75.4000       0.00000
      75.5000       0.00000
      75.6000       0.00000
      75.7000       0.00000
      75.8000       0.00000
      75.9000       0.00000
      76.0000       0.00000
      76.1000       0.00000
      76.2000       0.00000
      76.3000       0.00000
      76.4000       0.00000
      76.5000       0.00000
      76.6000       0.00000
      76.7000       0.00000
      76.8000       0.00000
      76.9000       0.00000
      77.0000       0.00000
      77.1000       0.00000
      77.2000       0.00000
      77.3000       0.00000
      77.4000       0.00000
      77.5000       0.00000
      77.6000       0.00000
      77.7000       0.00000
      77.8000       0.00000
      77.9000       0.00000
      78.0000       0.00000
      78.1000       0.00000
      78.2000       0.00000
      78.3000       0.00000
      78.4000       0.00000
      78.5000       0.00000
      78.6000       0.00000
      78.7000       0.00000
      78.8000       0.00000
      78.9000       0.00000
      79.0000       0.00000
      79.1000       0.00000
      79.2000       0.00000
      79.3000       0.00000
      79.4000       0.00000
      79.5000       0.00000
      79.6000       0.00000
      79.7000       0.00000
      79.8000       0.00000
      79.9000       0.00000
      80.0000       0.00000
      80.1000       0.00000
      80.2000       0.00000
      80.3000       0.00000
      80.4000       0.00000
      80.5000       0.00000
      80.6000       0.00000
      80.7000       0.00000
      80.8000       0.00000
      80.9000       0.00000
      81.0000       0.00000
      81.1000       0.00000
      81.2000       0.00000
      81.3000       0.00000
      81.4000       0.00000
      81.5000       0.00000
      81.6000       0.00000
      81.7000       0.00000
      81.8000       0.00000
      81.9000       0.00000
      82.0000       0.00000
      82.1000       0.00000
      82.2000       0.00000
      82.3000       0.00000
      82.4000       0.00000
      82.5000       0.00000
      82.6000       0.00000
      82.7000       0.00000
      82.8000       0.00000
      82.9000       0.00000
      83.0000       0.00000
      83.1000       0.00000
      83.2000       0.00000
      83.3000       0.00000
      83.4000       0.00000
      83.5000       0.00000
      83.6000       0.00000
      83.7000       0.00000
      83.8000       0.00000
      83.9000       0.00000
      84.0000       0.00000
      84.1000       0.00000
      84.2000       0.00000
      84.3000       0.00000
      84.4000       0.00000
      84.5000       0.00000
      84.6000       0.00000
      84.7000       0.00000
      84.8000       0.00000
      84.9000       0.00000
      85.0000       0.00000
      85.1000       0.00000
      85.2000       0.00000
      85.3000       0.00000
      85.4000       0.00000
      85.5000       0.00000
      85.6000       0.00000
      85.7000       0.00000
      85.8000       0.00000
      85.9000       0.00000
      86.0000       0.00000
      86.1000       0.00000
      86.2000       0.00000
      86.3000       0.00000
      86.4000       0.00000
      86.5000       0.00000
      86.6000       0.00000
      86.7000       0.00000
      86.8000       0.00000
      86.9000       0.00000
      87.0000       0.00000
      87.1000       0.00000
      87.2000       0.00000
      87.3000       0.00000
      87.4000       0.00000
      87.5000       0.00000
      87.6000       0.00000
      87.7000       0.00000
      87.8000       0.00000
      87.9000       0.00000
      88.0000       0.00000
      88.1000       0.00000
      88.2000       0.00000
      88.3000       0.00000
      88.4000       0.00000
      88.5000       0.00000
      88.6000       0.00000
      88.7000       0.00000
      88.8000       0.00000
      88.9000       0.00000
      89.0000       0.00000
      89.1000       0.00000
      89.2000       0.00000
      89.3000       0.00000
      89.4000       0.00000
      89.5000       0.00000
      89.6000       0.00000
      89.7000       0.00000
      89.8000       0.00000
      89.9000       0.00000
      90.0000       0.00000
      90.1000       0.00000
      90.2000       0.00000
      90.3000       0.00000
      90.4000       0.00000
      90.5000       0.00000
      90.6000       0.00000
      90.7000       0.00000
      90.8000       0.00000
      90.9000       0.00000
      91.0000       0.00000
      91.1000       0.00000
      91.2000       0.00000
      91.3000       0.00000
      91.4000       0.00000
      91.5000       0.00000
      91.6000       0.00000
      91.7000       0.00000
      91.8000       0.00000
      91.9000       0.00000
      92.0000       0.00000
      92.1000       0.00000
      92.2000       0.00000
      92.3000       0.00000
      92.4000       0.00000
      92.5000       0.00000
      92.6000       0.00000
      92.7000       0.00000
      92.8000       0.00000
      92.9000       0.00000
      93.0000       0.00000
      93.1000       0.00000
      93.2000       0.00000
      93.3000       0.00000
      93.4000       0.00000
      93.5000       0.00000
      93.6000       0.00000
      93.7000       0.00000
      93.8000       0.00000
      93.9000       0.00000
      94.0000       0.00000
      94.1000       0.00000
      94.2000       0.00000
      94.3000       0.00000
      94.4000       0.00000
      94.5000       0.00000
      94.6000       0.00000
      94.7000       0.00000
      94.8000       0.00000
      94.9000       0.00000
      95.0000       0.00000
      95.1000       0.00000
      95.2000       0.00000
      95.3000       0.00000
      95.4000       0.00000
      95.5000       0.00000
      95.6000       0.00000
      95.7000       0.00000
      95.8000       0.00000
      95.9000       0.00000
      96.0000       0.00000
      96.1000       0.00000
      96.2000       0.00000
      96.3000       0.00000
      96.4000       0.00000
      96.5000       0.00000
      96.6000       0.00000
      96.7000       0.00000
      96.8000       0.00000
      96.9000       0.00000
      97.0000       0.00000
      97.1000       0.00000
      97.2000       0.00000
      97.3000       0.00000
      97.4000       0.00000
      97.5000       0.00000
      97.6000       0.00000
      97.7000       0.00000
      97.8000       0.00000
      97.9000       0.00000
      98.0000       0.00000
      98.1000       0.00000
      98.2000       0.00000
      98.3000       0.00000
      98.4000       0.00000
      98.5000       0.00000
      98.6000       0.00000
      98.7000       0.00000
      98.8000       0.00000
      98.9000       0.00000
      99.0000       0.00000
      99.1000       0.00000
      99.2000       0.00000
      99.3000       0.00000
      99.4000       0.00000
      99.5000       0.00000
      99.6000       0.00000
      99.7000       0.00000
      99.8000       0.00000
      99.9000       0.00000
      100.000       0.00000
      100.100       0.00000
      100.200       0.00000
      100.300       0.00000
      100.400       0.00000
      100.500       0.00000
      100.600       0.00000
      100.700       0.00000
      100.800       0.00000
      100.900       0.00000
      101.000       0.00000
      101.100       0.00000
      101.200       0.00000
      101.300       0.00000
      101.400       0.00000
      101.500       0.00000
      101.600       0.00000
      101.700       0.00000
      101.800       0.00000
      101.900       0.00000
      102.000       0.00000
      102.100       0.00000
      102.200       0.00000
      102.300       0.00000
      102.400       0.00000
      102.500       0.00000
      102.600       0.00000
      102.700       0.00000
      102.800       0.00000
      102.900       0.00000
      103.000       0.00000
      103.100       0.00000
      103.200       0.00000
      103.300       0.00000
      103.400       0.00000
      103.500       0.00000
      103.600       0.00000
      103.700       0.00000
      103.800       0.00000
      103.900       0.00000
      104.000       0.00000
      104.100       0.00000
      104.200       0.00000
      104.300       0.00000
      104.400       0.00000
      104.500       0.00000
      104.600       0.00000
      104.700       0.00000
      104.800       0.00000
      104.900       0.00000
      105.000       0.00000
      105.100       0.00000
      105.200       0.00000
      105.300       0.00000
      105.400       0.00000
      105.500       0.00000
      105.600       0.00000
      105.700       0.00000
      105.800       0.00000
      105.900       0.00000
      106.000       0.00000
      106.100       0.00000
      106.200       0.00000
      106.300       0.00000
      106.400       0.00000
      106.500       0.00000
      106.600       0.00000
      106.700       0.00000
      106.800       0.00000
      106.900       0.00000
      107.000       0.00000
      107.100       0.00000
      107.200       0.00000
      107.300       0.00000
      107.400       0.00000
      107.500       0.00000
      107.600       0.00000
      107.700       0.00000
      107.800       0.00000
      107.900       0.00000
      108.000       0.00000
      108.100       0.00000
      108.200       0.00000
      108.300       0.00000
      108.400       0.00000
      108.500       0.00000
      108.600       0.00000
      108.700       0.00000
      108.800       0.00000
      108.900       0.00000
      109.000       0.00000
      109.100       0.00000
      109.200       0.00000
      109.300       0.00000
      109.400       0.00000
      109.500       0.00000
      109.600       0.00000
      109.700       0.00000
      109.800       0.00000
      109.900       0.00000
      110.000       0.00000
      110.100       0.00000
      110.200       0.00000
      110.300       0.00000
      110.400       0.00000
      110.500       0.00000
      110.600       0.00000
      110.700       0.00000
      110.800       0.00000
      110.900   4.61459e-35
      111.000   2.47625e-28
      111.100   2.92355e-24
      111.200   4.05929e-23
      111.300   2.04670e-22
      111.400   6.76389e-22
      111.500   8.96598e-22
      111.600   1.21538e-21
      111.700   2.24302e-21
      111.800   4.06841e-21
      111.900   5.32128e-21
      112.000   8.55408e-21
      112.100   1.53246e-20
      112.200   2.33531e-20
      112.300   2.99978e-20
      112.400   3.75174e-20
      112.500   4.98718e-20
      112.600   7.08634e-20
      112.700   9.63576e-20
      112.800   1.11306e-19
      112.900   1.44306e-19
      113.000   1.84627e-19
      113.100   2.21161e-19
      113.200   2.54177e-19
      113.300   2.58732e-19
      113.400   3.23663e-19
      113.500   4.00549e-19
      113.600   4.13180e-19
      113.700   4.97617e-19
      113.800   5.66451e-19
      113.900   6.30685e-19
      114.000   6.71953e-19
      114.100   7.01292e-19
      114.200   9.02764e-19
      114.300   1.03826e-18
      114.400   1.00801e-18
      114.500   9.23750e-19
      114.600   9.21528e-19
      114.700   9.37258e-19
      114.800   9.78040e-19
      114.900   1.08071e-18
      115.000   1.18692e-18
      115.100   1.25737e-18
      115.200   1.27664e-18
      115.300   1.29738e-18
      115.400   1.31726e-18
      115.500   1.33799e-18
      115.600   1.35850e-18
      115.700   1.37849e-18
      115.800   1.39979e-18
      115.900   1.42082e-18
      116.000   1.43854e-18
      116.100   1.44600e-18
      116.200   1.45194e-18
      116.300   1.45754e-18
      116.400   1.45721e-18
      116.500   1.42575e-18
      116.600   1.39465e-18
      116.700   1.36447e-18
      116.800   1.33464e-18
      116.900   1.30425e-18
      117.000   1.27587e-18
      117.100   1.25188e-18
      117.200   1.23093e-18
      117.300   1.20783e-18
      117.400   1.18498e-18
      117.500   1.15707e-18
      117.600   1.11733e-18
      117.700   1.07540e-18
      117.800   1.03436e-18
      117.900   9.94537e-19
      118.000   9.55629e-19
      118.100   9.17702e-19
      118.200   8.81712e-19
      118.300   8.47295e-19
      118.400   8.12274e-19
      118.500   7.78836e-19
      118.600   7.47566e-19
      118.700   7.17257e-19
      118.800   6.87790e-19
      118.900   6.59760e-19
      119.000   6.32016e-19
      119.100   6.04497e-19
      119.200   5.83802e-19
      119.300   5.72756e-19
      119.400   5.64428e-19
      119.500   5.53790e-19
      119.600   5.39165e-19
      119.700   5.23256e-19
      119.800   5.06724e-19
      119.900   4.89295e-19
      120.000   4.72854e-19
      120.100   4.57272e-19
      120.200   4.43780e-19
      120.300   4.31580e-19
      120.400   4.19696e-19
      120.500   4.06917e-19
      120.600   3.93606e-19
      120.700   3.80421e-19
      120.800   3.67829e-19
      120.900   3.57082e-19
      121.000   3.48849e-19
      121.100   3.40954e-19
      121.200   3.33800e-19
      121.300   3.26115e-19
      121.400   3.18040e-19
      121.500   3.09643e-19
      121.600   2.96471e-19
      121.700   2.83559e-19
      121.800   2.70652e-19
      121.900   2.58218e-19
      122.000   2.45978e-19
      122.100   2.34503e-19
      122.200   2.23557e-19
      122.300   2.14140e-19
      122.400   2.06215e-19
      122.500   1.98808e-19
      122.600   1.91528e-19
      122.700   1.84501e-19
      122.800   1.77503e-19
      122.900   1.70888e-19
      123.000   1.65595e-19
      123.100   1.62350e-19
      123.200   1.60096e-19
      123.300   1.61329e-19
      123.400   1.63272e-19
      123.500   1.66222e-19
      123.600   1.68292e-19
      123.700   1.67013e-19
      123.800   1.62952e-19
      123.900   1.59439e-19
      124.000   1.56706e-19
      124.100   1.56458e-19
      124.200   1.62007e-19
      124.300   1.72095e-19
      124.400   1.81193e-19
      124.500   1.80859e-19
      124.600   1.75958e-19
      124.700   1.69111e-19
      124.800   1.62573e-19
      124.900   1.56281e-19
      125.000   1.50222e-19
      125.100   1.44347e-19
      125.200   1.38693e-19
      125.300   1.33255e-19
      125.400   1.28030e-19
      125.500   1.23010e-19
      125.600   1.16816e-19
      125.700   1.10623e-19
      125.800   1.05502e-19
      125.900   1.03588e-19
      126.000   1.01921e-19
      126.100   1.00282e-19
      126.200   9.86690e-20
      126.300   9.70823e-20
      126.400   9.55207e-20
      126.500   9.39838e-20
      126.600   9.24728e-20
      126.700   9.09861e-20
      126.800   8.95239e-20
      126.900   8.80847e-20
      127.000   8.66664e-20
      127.100   8.47979e-20
      127.200   8.24245e-20
      127.300   7.99366e-20
      127.400   7.75230e-20
      127.500   7.51814e-20
      127.600   7.29102e-20
      127.700   7.07071e-20
      127.800   6.85699e-20
      127.900   6.64964e-20
      128.000   6.44853e-20
      128.100   6.25339e-20
      128.200   6.06410e-20
      128.300   5.88047e-20
      128.400   5.70241e-20
      128.500   5.52965e-20
      128.600   5.36213e-20
      128.700   5.19966e-20
      128.800   5.04203e-20
      128.900   4.88924e-20
      129.000   4.74115e-20
      129.100   4.59745e-20
      129.200   4.45777e-20
      129.300   4.32226e-20
      129.400   4.19087e-20
      129.500   4.06345e-20
      129.600   3.93989e-20
      129.700   3.82005e-20
      129.800   3.70383e-20
      129.900   3.59115e-20
      130.000   3.48189e-20
      130.100   3.37594e-20
      130.200   3.27317e-20
      130.300   3.17355e-20
      130.400   3.07695e-20
      130.500   2.98320e-20
      130.600   2.89199e-20
      130.700   2.80343e-20
      130.800   2.71756e-20
      130.900   2.63440e-20
      131.000   2.55379e-20
      131.100   2.47566e-20
      131.200   2.39988e-20
      131.300   2.32633e-20
      131.400   2.25504e-20
      131.500   2.18590e-20
      131.600   2.11886e-20
      131.700   2.05387e-20
      131.800   1.99083e-20
      131.900   1.92969e-20
      132.000   1.87042e-20
      132.100   1.81293e-20
      132.200   1.75720e-20
      132.300   1.70315e-20
      132.400   1.65074e-20
      132.500   1.60000e-20
      132.600   1.55083e-20
      132.700   1.50031e-20
      132.800   1.45045e-20
      132.900   1.40209e-20
      133.000   1.35530e-20
      133.100   1.31006e-20
      133.200   1.26632e-20
      133.300   1.22400e-20
      133.400   1.18307e-20
      133.500   1.14350e-20
      133.600   1.10523e-20
      133.700   1.06823e-20
      133.800   1.03245e-20
      133.900   9.97960e-21
      134.000   9.64612e-21
      134.100   9.32357e-21
      134.200   9.01180e-21
      134.300   8.71024e-21
      134.400   8.41867e-21
      134.500   8.13684e-21
      134.600   7.86426e-21
      134.700   7.60070e-21
      134.800   7.34594e-21
      134.900   7.09975e-21
      135.000   6.86166e-21
      135.100   6.63206e-21
      135.200   6.41015e-21
      135.300   6.19560e-21
      135.400   5.98811e-21
      135.500   5.78727e-21
      135.600   5.59294e-21
      135.700   5.40504e-21
      135.800   5.22332e-21
      135.900   5.04765e-21
      136.000   4.87774e-21
      136.100   4.71343e-21
      136.200   4.55504e-21
      136.300   4.40193e-21
      136.400   4.25394e-21
      136.500   4.11084e-21
      136.600   3.97241e-21
      136.700   3.83857e-21
      136.800   3.70917e-21
      136.900   3.58408e-21
      137.000   3.46322e-21
      137.100   3.34656e-21
      137.200   3.23393e-21
      137.300   3.12532e-21
      137.400   3.02029e-21
      137.500   2.91870e-21
      137.600   2.82044e-21
      137.700   2.72538e-21
      137.800   2.63345e-21
      137.900   2.54456e-21
      138.000   2.45863e-21
      138.100   2.37554e-21
      138.200   2.29550e-21
      138.300   2.21815e-21
      138.400   2.14339e-21
      138.500   2.07109e-21
      138.600   2.00119e-21
      138.700   1.93361e-21
      138.800   1.86828e-21
      138.900   1.80510e-21
      139.000   1.74403e-21
      139.100   1.68517e-21
      139.200   1.62862e-21
      139.300   1.57423e-21
      139.400   1.52172e-21
      139.500   1.47092e-21
      139.600   1.42177e-21
      139.700   1.37424e-21
      139.800   1.32826e-21
      139.900   1.28379e-21
      140.000   1.24096e-21
      140.100   1.19953e-21
      140.200   1.15946e-21
      140.300   1.12070e-21
      140.400   1.08320e-21
      140.500   1.04692e-21
      140.600   1.01182e-21
      140.700   9.77875e-22
      140.800   9.45169e-22
      140.900   9.13567e-22
      141.000   8.82986e-22
      141.100   8.53407e-22
      141.200   8.24798e-22
      141.300   7.97117e-22
      141.400   7.70428e-22
      141.500   7.45030e-22
      141.600   7.20798e-22
      141.700   6.97364e-22
      141.800   6.74676e-22
      141.900   6.52705e-22
      142.000   6.31431e-22
      142.100   6.11067e-22
      142.200   5.92032e-22
      142.300   5.74160e-22
      142.400   5.56894e-22
      142.500   5.40127e-22
      142.600   5.23846e-22
      142.700   5.08040e-22
      142.800   4.92699e-22
      142.900   4.77808e-22
      143.000   4.63352e-22
      143.100   4.49366e-22
      143.200   4.35816e-22
      143.300   4.22658e-22
      143.400   4.09889e-22
      143.500   3.97492e-22
      143.600   3.85458e-22
      143.700   3.73859e-22
      143.800   3.63737e-22
      143.900   3.54096e-22
      144.000   3.44720e-22
      144.100   3.35584e-22
      144.200   3.26684e-22
      144.300   3.18010e-22
      144.400   3.09590e-22
      144.500   3.01863e-22
      144.600   2.94474e-22
      144.700   2.87275e-22
      144.800   2.80241e-22
      144.900   2.73372e-22
      145.000   2.66660e-22
      145.100   2.60107e-22
      145.200   2.53728e-22
      145.300   2.47506e-22
      145.400   2.41427e-22
      145.500   2.35487e-22
      145.600   2.29685e-22
      145.700   2.24018e-22
      145.800   2.18490e-22
      145.900   2.13112e-22
      146.000   2.07854e-22
      146.100   2.02660e-22
      146.200   1.97547e-22
      146.300   1.92556e-22
      146.400   1.87682e-22
      146.500   1.82948e-22
      146.600   1.78330e-22
      146.700   1.73821e-22
      146.800   1.69409e-22
      146.900   1.65089e-22
      147.000   1.60873e-22
      147.100   1.56769e-22
      147.200   1.52776e-22
      147.300   1.48878e-22
      147.400   1.45075e-22
      147.500   1.41364e-22
      147.600   1.37741e-22
      147.700   1.34216e-22
      147.800   1.30787e-22
      147.900   1.27440e-22
      148.000   1.24174e-22
      148.100   1.20987e-22
      148.200   1.17879e-22
      148.300   1.14853e-22
      148.400   1.12369e-22
      148.500   1.10290e-22
      148.600   1.08369e-22
      148.700   1.06479e-22
      148.800   1.04619e-22
      148.900   1.02795e-22
      149.000   1.01004e-22
      149.100   9.92411e-23
      149.200   9.75072e-23
      149.300   9.58013e-23
      149.400   9.41232e-23
      149.500   9.24772e-23
      149.600   9.08592e-23
      149.700   8.92675e-23
      149.800   8.77018e-23
      149.900   8.61622e-23
      150.000   8.46478e-23
      150.100   8.31620e-23
      150.200   8.17001e-23
      150.300   8.02645e-23
      150.400   7.88523e-23
      150.500   7.74640e-23
      150.600   7.60987e-23
      150.700   7.47563e-23
      150.800   7.34374e-23
      150.900   7.21423e-23
      151.000   7.08673e-23
      151.100   6.96148e-23
      151.200   6.83830e-23
      151.300   6.71717e-23
      151.400   6.59810e-23
      151.500   6.48127e-23
      151.600   6.36641e-23
      151.700   6.25365e-23
      151.800   6.14276e-23
      151.900   6.03370e-23
      152.000   5.93262e-23
      152.100   5.89554e-23
      152.200   5.86663e-23
      152.300   5.83766e-23
      152.400   5.80874e-23
      152.500   5.78000e-23
      152.600   5.75133e-23
      152.700   5.66180e-23
      152.800   5.55188e-23
      152.900   5.44395e-23
      153.000   5.33802e-23
      153.100   5.23413e-23
      153.200   5.13212e-23
      153.300   5.04996e-23
      153.400   4.98624e-23
      153.500   4.92517e-23
      153.600   4.86491e-23
      153.700   4.80543e-23
      153.800   4.74657e-23
      153.900   4.68839e-23
      154.000   4.63149e-23
      154.100   4.57645e-23
      154.200   4.52239e-23
      154.300   4.46893e-23
      154.400   4.41617e-23
      154.500   4.36395e-23
      154.600   4.31232e-23
      154.700   4.26132e-23
      154.800   4.21090e-23
      154.900   4.16102e-23
      155.000   4.11167e-23
      155.100   4.06292e-23
      155.200   4.01468e-23
      155.300   3.96701e-23
      155.400   3.91988e-23
      155.500   3.87330e-23
      155.600   3.82716e-23
      155.700   3.78154e-23
      155.800   3.73647e-23
      155.900   3.69185e-23
      156.000   3.64777e-23
      156.100   3.60417e-23
      156.200   3.56107e-23
      156.300   3.51844e-23
      156.400   3.47626e-23
      156.500   3.43440e-23
      156.600   3.39226e-23
      156.700   3.35057e-23
      156.800   3.30933e-23
      156.900   3.26857e-23
      157.000   3.22837e-23
      157.100   3.18572e-23
      157.200   3.12402e-23
      157.300   3.04262e-23
      157.400   2.96332e-23
      157.500   2.88599e-23
      157.600   2.81064e-23
      157.700   2.73719e-23
      157.800   2.66562e-23
      157.900   2.63498e-23
      158.000   2.60817e-23
      158.100   2.58166e-23
      158.200   2.55535e-23
      158.300   2.52930e-23
      158.400   2.50352e-23
      158.500   2.47797e-23
      158.600   2.45264e-23
      158.700   2.42752e-23
      158.800   2.40270e-23
      158.900   2.37810e-23
      159.000   2.35372e-23
      159.100   2.32853e-23
      159.200   2.29096e-23
      159.300   2.23342e-23
      159.400   2.17731e-23
      159.500   2.12259e-23
      159.600   2.06919e-23
      159.700   2.01714e-23
      159.800   1.96633e-23
      159.900   1.93927e-23
      160.000   1.92798e-23
      160.100   1.91722e-23
      160.200   1.90650e-23
      160.300   1.89585e-23
      160.400   1.88526e-23
      160.500   1.87219e-23
      160.600   1.84487e-23
      160.700   1.80744e-23
      160.800   1.77075e-23
      160.900   1.73476e-23
      161.000   1.69949e-23
      161.100   1.66493e-23
      161.200   1.63107e-23
      161.300   1.59790e-23
      161.400   1.56538e-23
      161.500   1.53351e-23
      161.600   1.50227e-23
      161.700   1.47162e-23
      161.800   1.44159e-23
      161.900   1.41268e-23
      162.000   1.38877e-23
      162.100   1.36791e-23
      162.200   1.34736e-23
      162.300   1.32710e-23
      162.400   1.30714e-23
      162.500   1.28745e-23
      162.600   1.26807e-23
      162.700   1.24895e-23
      162.800   1.23011e-23
      162.900   1.21155e-23
      163.000   1.19326e-23
      163.100   1.17523e-23
      163.200   1.15745e-23
      163.300   1.13993e-23
      163.400   1.12266e-23
      163.500   1.10565e-23
      163.600   1.08888e-23
      163.700   1.07234e-23
      163.800   1.05607e-23
      163.900   1.04002e-23
      164.000   1.02420e-23
      164.100   1.00539e-23
      164.200   9.78279e-24
      164.300   9.51932e-24
      164.400   9.26286e-24
      164.500   9.01324e-24
      164.600   8.77028e-24
      164.700   8.53366e-24
      164.800   8.32985e-24
      164.900   8.18867e-24
      165.000   8.07310e-24
      165.100   7.95906e-24
      165.200   7.84658e-24
      165.300   7.73564e-24
      165.400   7.62631e-24
      165.500   7.51844e-24
      165.600   7.34322e-24
      165.700   7.14255e-24
      165.800   6.94509e-24
      165.900   6.75304e-24
      166.000   6.56654e-24
      166.100   6.38507e-24
      166.200   6.20858e-24
      166.300   6.03695e-24
      166.400   5.86999e-24
      166.500   5.70753e-24
      166.600   5.54952e-24
      166.700   5.39586e-24
      166.800   5.24632e-24
      166.900   5.10091e-24
      167.000   4.95956e-24
      167.100   4.82197e-24
      167.200   4.68815e-24
      167.300   4.55799e-24
      167.400   4.43142e-24
      167.500   4.30829e-24
      167.600   4.18853e-24
      167.700   4.07207e-24
      167.800   3.95881e-24
      167.900   3.84864e-24
      168.000   3.74149e-24
      168.100   3.63726e-24
      168.200   3.53590e-24
      168.300   3.43732e-24
      168.400   3.34147e-24
      168.500   3.24906e-24
      168.600   3.17808e-24
      168.700   3.11855e-24
      168.800   3.06013e-24
      168.900   3.00278e-24
      169.000   2.94650e-24
      169.100   2.89119e-24
      169.200   2.83696e-24
      169.300   2.78369e-24
      169.400   2.73140e-24
      169.500   2.67991e-24
      169.600   2.62874e-24
      169.700   2.57784e-24
      169.800   2.52770e-24
      169.900   2.47848e-24
      170.000   2.43017e-24
      170.100   2.36090e-24
      170.200   2.26198e-24
      170.300   2.85369e-24
      170.400   5.94013e-24
      170.500   1.09570e-23
      170.600   1.56851e-23
      170.700   1.91439e-23
      170.800   2.03535e-23
      170.900   1.99740e-23
      171.000   1.93351e-23
      171.100   1.87372e-23
      171.200   1.81567e-23
      171.300   1.75929e-23
      171.400   1.70457e-23
      171.500   1.65144e-23
      171.600   1.59987e-23
      171.700   1.54985e-23
      171.800   1.50132e-23
      171.900   1.45426e-23
      172.000   1.40866e-23
      172.100   1.36446e-23
      172.200   1.32165e-23
      172.300   1.28014e-23
      172.400   1.23967e-23
      172.500   1.20045e-23
      172.600   1.16248e-23
      172.700   1.12574e-23
      172.800   1.09016e-23
      172.900   1.05571e-23
      173.000   1.02238e-23
      173.100   9.90126e-24
      173.200   9.58893e-24
      173.300   9.28668e-24
      173.400   8.99394e-24
      173.500   8.71070e-24
      173.600   8.43660e-24
      173.700   8.17113e-24
      173.800   7.91429e-24
      173.900   7.66567e-24
      174.000   7.42485e-24
      174.100   7.19177e-24
      174.200   6.96611e-24
      174.300   6.74751e-24
      174.400   6.53589e-24
      174.500   6.33087e-24
      174.600   6.13228e-24
      174.700   5.94000e-24
      174.800   5.75378e-24
      174.900   5.57333e-24
      175.000   5.39846e-24
      175.100   5.22906e-24
      175.200   5.06517e-24
      175.300   4.90632e-24
      175.400   4.75241e-24
      175.500   4.60339e-24
      175.600   4.45893e-24
      175.700   4.31903e-24
      175.800   4.18344e-24
      175.900   4.05209e-24
      176.000   3.92482e-24
      176.100   3.80158e-24
      176.200   3.68218e-24
      176.300   3.56648e-24
      176.400   3.45443e-24
      176.500   3.34557e-24
      176.600   3.19043e-24
      176.700   3.01927e-24
      176.800   2.85721e-24
      176.900   2.70378e-24
      177.000   2.55850e-24
      177.100   2.42094e-24
      177.200   2.29075e-24
      177.300   2.16749e-24
      177.400   2.05075e-24
      177.500   1.94022e-24
      177.600   1.83560e-24
      177.700   1.73659e-24
      177.800   1.64286e-24
      177.900   1.55409e-24
      178.000   1.47018e-24
      178.100   1.39077e-24
      178.200   1.31557e-24
      178.300   1.24439e-24
      178.400   1.17705e-24
      178.500   1.11331e-24
      178.600   1.05423e-24
      178.700   1.00500e-24
      178.800   9.68509e-25
      178.900   9.33330e-25
      179.000   8.99408e-25
      179.100   8.66699e-25
      179.200   8.35177e-25
      179.300   8.04792e-25
      179.400   7.75496e-25
      179.500   7.47277e-25
      179.600   7.20097e-25
      179.700   6.93901e-25
      179.800   6.68651e-25
      179.900   6.44317e-25
      180.000   6.20857e-25
      180.100   5.98256e-25
      180.200   5.76484e-25
      180.300   5.55498e-25
      180.400   5.35277e-25
      180.500   5.15797e-25
      180.600   4.97022e-25
      180.700   4.78933e-25
      180.800   4.61505e-25
      180.900   4.44710e-25
      181.000   4.28523e-25
      181.100   4.12929e-25
      181.200   3.97905e-25
      181.300   3.83429e-25
      181.400   3.69483e-25
      181.500   3.56043e-25
      181.600   3.43093e-25
      181.700   3.30614e-25
      181.800   3.18589e-25
      181.900   3.07002e-25
      182.000   2.95843e-25
      182.100   2.85085e-25
      182.200   2.74820e-25
      182.300   2.65733e-25
      182.400   2.57002e-25
      182.500   2.48557e-25
      182.600   2.40389e-25
      182.700   2.32489e-25
      182.800   2.24847e-25
      182.900   2.17456e-25
      183.000   2.10308e-25
      183.100   2.03395e-25
      183.200   1.96708e-25
      183.300   1.90238e-25
      183.400   1.83980e-25
      183.500   1.77928e-25
      183.600   1.72073e-25
      183.700   1.66410e-25
      183.800   1.60935e-25
      183.900   1.55640e-25
      184.000   1.50518e-25
      184.100   1.45568e-25
      184.200   1.40784e-25
      184.300   1.36156e-25
      184.400   1.31682e-25
      184.500   1.27354e-25
      184.600   1.23166e-25
      184.700   1.19116e-25
      184.800   1.15199e-25
      184.900   1.11410e-25
      185.000   1.07744e-25
      185.100   1.04241e-25
      185.200   1.01063e-25
      185.300   9.82580e-26
      185.400   9.55296e-26
      185.500   9.28757e-26
      185.600   9.02950e-26
      185.700   8.77858e-26
      185.800   8.53496e-26
      185.900   8.29812e-26
      186.000   8.06784e-26
      186.100   7.84387e-26
      186.200   7.62601e-26
      186.300   7.41406e-26
      186.400   7.20806e-26
      186.500   7.00772e-26
      186.600   6.81279e-26
      186.700   6.62313e-26
      186.800   6.43868e-26
      186.900   6.25935e-26
      187.000   6.08492e-26
      187.100   5.91512e-26
      187.200   5.75014e-26
      187.300   5.58992e-26
      187.400   5.43407e-26
      187.500   5.28251e-26
      187.600   5.13510e-26
      187.700   4.99174e-26
      187.800   4.85233e-26
      187.900   4.71673e-26
      188.000   4.58490e-26
      188.100   4.44965e-26
      188.200   4.29400e-26
      188.300   4.11346e-26
      188.400   3.94044e-26
      188.500   3.77461e-26
      188.600   3.61591e-26
      188.700   3.46407e-26
      188.800   3.31859e-26
      188.900   3.17915e-26
      189.000   3.04549e-26
      189.100   2.91735e-26
      189.200   2.79454e-26
      189.300   2.67686e-26
      189.400   2.56410e-26
      189.500   2.45662e-26
      189.600   2.36200e-26
      189.700   2.30336e-26
      189.800   2.24640e-26
      189.900   2.19093e-26
      190.000   2.13687e-26
      190.100   2.08415e-26
      190.200   2.03274e-26
      190.300   1.98260e-26
      190.400   1.93369e-26
      190.500   1.88599e-26
      190.600   1.83949e-26
      190.700   1.79412e-26
      190.800   1.74988e-26
      190.900   1.70674e-26
      191.000   1.66473e-26
      191.100   1.62380e-26
      191.200   1.58385e-26
      191.300   1.54490e-26
      191.400   1.50692e-26
      191.500   1.46986e-26
      191.600   1.43372e-26
      191.700   1.39847e-26
      191.800   1.36407e-26
      191.900   1.33052e-26
      192.000   1.29781e-26
      192.100   1.26593e-26
      192.200   1.23490e-26
      192.300   1.20460e-26
      192.400   1.17505e-26
      192.500   1.14407e-26
      192.600   1.10705e-26
      192.700   1.06576e-26
      192.800   1.02600e-26
      192.900   9.87679e-27
      193.000   9.50785e-27
      193.100   9.15315e-27
      193.200   8.81227e-27
      193.300   8.48403e-27
      193.400   8.16798e-27
      193.500   7.86352e-27
      193.600   7.57021e-27
      193.700   7.28769e-27
      193.800   7.01569e-27
      193.900   6.75379e-27
      194.000   6.50661e-27
      194.100   6.36882e-27
      194.200   6.26777e-27
      194.300   6.17075e-27
      194.400   6.07528e-27
      194.500   5.98137e-27
      194.600   5.88892e-27
      194.700   5.79790e-27
      194.800   5.70834e-27
      194.900   5.62013e-27
      195.000   5.53334e-27
      195.100   5.44808e-27
      195.200   5.36410e-27
      195.300   5.28140e-27
      195.400   5.19995e-27
      195.500   5.11812e-27
      195.600   4.99532e-27
      195.700   4.80489e-27
      195.800   4.62158e-27
      195.900   4.44520e-27
      196.000   4.27528e-27
      196.100   4.11172e-27
      196.200   3.95432e-27
      196.300   3.80280e-27
      196.400   3.65695e-27
      196.500   3.51652e-27
      196.600   3.38141e-27
      196.700   3.25135e-27
      196.800   3.12641e-27
      196.900   3.00654e-27
      197.000   2.89118e-27
      197.100   2.78011e-27
      197.200   2.67322e-27
      197.300   2.57031e-27
      197.400   2.47123e-27
      197.500   2.37589e-27
      197.600   2.28412e-27
      197.700   2.19626e-27
      197.800   2.11175e-27
      197.900   2.03037e-27
      198.000   1.95205e-27
      198.100   1.87669e-27
      198.200   1.80415e-27
      198.300   1.73431e-27
      198.400   1.66715e-27
      198.500   1.60278e-27
      198.600   1.54092e-27
      198.700   1.48743e-27
      198.800   1.44421e-27
      198.900   1.40635e-27
      199.000   1.36944e-27
      199.100   1.33347e-27
      199.200   1.29843e-27
      199.300   1.26441e-27
      199.400   1.23129e-27
      199.500   1.19902e-27
      199.600   1.16756e-27
      199.700   1.13692e-27
      199.800   1.10708e-27
      199.900   1.07799e-27
      200.000   1.04965e-27
      200.100   1.02217e-27
      200.200   9.95370e-28
      200.300   9.69290e-28
      200.400   9.43875e-28
      200.500   9.19113e-28
      200.600   8.95013e-28
      200.700   8.71535e-28
      200.800   8.48656e-28
      200.900   8.26392e-28
      201.000   8.04715e-28
      201.100   7.83636e-28
      201.200   7.63103e-28
      201.300   7.43101e-28
      201.400   7.23628e-28
      201.500   7.04662e-28
      201.600   6.86181e-28
      201.700   6.68190e-28
      201.800   6.50665e-28
      201.900   6.33102e-28
      202.000   6.07836e-28
      202.100   5.79788e-28
      202.200   5.53031e-28
      202.300   5.27537e-28
      202.400   5.03285e-28
      202.500   4.80161e-28
      202.600   4.58078e-28
      202.700   4.37009e-28
      202.800   4.16921e-28
      202.900   3.97786e-28
      203.000   3.79525e-28
      203.100   3.62104e-28
      203.200   3.45464e-28
      203.300   3.29577e-28
      203.400   3.14414e-28
      203.500   2.99945e-28
      203.600   2.86654e-28
      203.700   2.75376e-28
      203.800   2.64738e-28
      203.900   2.54524e-28
      204.000   2.44700e-28
      204.100   2.35252e-28
      204.200   2.26170e-28
      204.300   2.17434e-28
      204.400   2.09036e-28
      204.500   2.00960e-28
      204.600   1.93193e-28
      204.700   1.85725e-28
      204.800   1.78555e-28
      204.900   1.71671e-28
      205.000   1.65050e-28
      205.100   1.58686e-28
      205.200   1.52563e-28
      205.300   1.46678e-28
      205.400   1.41019e-28
      205.500   1.35576e-28
      205.600   1.30331e-28
      205.700   1.25224e-28
      205.800   1.20301e-28
      205.900   1.15575e-28
      206.000   1.11042e-28
      206.100   1.06684e-28
      206.200   1.02494e-28
      206.300   9.84698e-29
      206.400   9.46034e-29
      206.500   9.08856e-29
      206.600   8.73133e-29
      206.700   8.38808e-29
      206.800   8.05809e-29
      206.900   7.74096e-29
      207.000   7.43626e-29
      207.100   7.14398e-29
      207.200   6.86333e-29
      207.300   6.59346e-29
      207.400   6.33407e-29
      207.500   6.08479e-29
      207.600   5.84528e-29
      207.700   5.61498e-29
      207.800   5.39367e-29
      207.900   5.18098e-29
      208.000   4.97658e-29
      208.100   4.78018e-29
      208.200   4.59141e-29
      208.300   4.41007e-29
      208.400   4.23612e-29
      208.500   4.06899e-29
      208.600   3.90832e-29
      208.700   3.75387e-29
      208.800   3.60548e-29
      208.900   3.45755e-29
      209.000   3.29316e-29
      209.100   3.12143e-29
      209.200   2.95854e-29
      209.300   2.80398e-29
      209.400   2.65748e-29
      209.500   2.51851e-29
      209.600   2.38668e-29
      209.700   2.26184e-29
      209.800   2.14372e-29
      209.900   2.03161e-29
      210.000   1.92535e-29
      210.100   1.82457e-29
      210.200   1.72900e-29
      210.300   1.63838e-29
      210.400   1.55246e-29
      210.500   1.47099e-29
      210.600   1.39375e-29
      210.700   1.32053e-29
      210.800   1.25112e-29
      210.900   1.18530e-29
      211.000   1.12291e-29
      211.100   1.06378e-29
      211.200   1.00773e-29
      211.300   9.54731e-30
      211.400   9.04529e-30
      211.500   8.56915e-30
      211.600   8.11791e-30
      211.700   7.69027e-30
      211.800   7.28469e-30
      211.900   6.90032e-30
      212.000   6.53629e-30
      212.100   6.19115e-30
      212.200   5.86398e-30
      212.300   5.54018e-30
      212.400   5.19503e-30
      212.500   4.85604e-30
      212.600   4.53896e-30
      212.700   4.24238e-30
      212.800   3.96495e-30
      212.900   3.70559e-30
      213.000   3.46317e-30
      213.100   3.23692e-30
      213.200   3.02530e-30
      213.300   2.82741e-30
      213.400   2.64229e-30
      213.500   2.46919e-30
      213.600   2.30731e-30
      213.700   2.15597e-30
      213.800   2.01443e-30
      213.900   1.88217e-30
      214.000   1.75848e-30
      214.100   1.64487e-30
      214.200   1.56225e-30
      214.300   1.49939e-30
      214.400   1.43904e-30
      214.500   1.38111e-30
      214.600   1.32552e-30
      214.700   1.27216e-30
      214.800   1.22094e-30
      214.900   1.17179e-30
      215.000   1.12460e-30
      215.100   1.07932e-30
      215.200   1.03591e-30
      215.300   9.94261e-31
      215.400   9.54278e-31
      215.500   9.15894e-31
      215.600   8.79083e-31
      215.700   8.43726e-31
      215.800   8.09785e-31
      215.900   7.77229e-31
      216.000   7.42886e-31
      216.100   7.02737e-31
      216.200   6.62077e-31
      216.300   6.23763e-31
      216.400   5.87657e-31
      216.500   5.53617e-31
      216.600   5.21548e-31
      216.700   4.91335e-31
      216.800   4.62858e-31
      216.900   4.36030e-31
      217.000   4.10751e-31
      217.100   3.86922e-31
      217.200   3.64476e-31
      217.300   3.43327e-31
      217.400   3.23397e-31
      217.500   3.04627e-31
      217.600   2.86931e-31
      217.700   2.70256e-31
      217.800   2.54552e-31
      217.900   2.39700e-31
      218.000   2.24208e-31
      218.100   2.09710e-31
      218.200   1.96144e-31
      218.300   1.83459e-31
      218.400   1.71600e-31
      218.500   1.60499e-31
      218.600   1.50115e-31
      218.700   1.40396e-31
      218.800   1.31302e-31
      218.900   1.22797e-31
      219.000   1.14835e-31
      219.100   1.07385e-31
      219.200   1.00418e-31
      219.300   9.38996e-32
      219.400   8.78000e-32
      219.500   8.20944e-32
      219.600   7.67571e-32
      219.700   7.17638e-32
      219.800   6.70948e-32
      219.900   6.27264e-32
      220.000   5.86391e-32
      220.100   5.48166e-32
      220.200   5.12416e-32
      220.300   4.78987e-32
      220.400   4.47713e-32
      220.500   4.18477e-32
      220.600   3.91139e-32
      220.700   3.65561e-32
      220.800   3.41641e-32
      220.900   3.19289e-32
      221.000   2.98381e-32
      221.100   2.78826e-32
      221.200   2.60553e-32
      221.300   2.43466e-32
      221.400   2.27489e-32
      221.500   2.12556e-32
      221.600   1.98595e-32
      221.700   1.85542e-32
      221.800   1.74207e-32
      221.900   1.65786e-32
      222.000   1.58394e-32
      222.100   1.51327e-32
      222.200   1.44574e-32
      222.300   1.38120e-32
      222.400   1.31953e-32
      222.500   1.26060e-32
      222.600   1.20429e-32
      222.700   1.15047e-32
      222.800   1.09904e-32
      222.900   1.04991e-32
      223.000   1.00295e-32
      223.100   9.58073e-33
      223.200   9.15204e-33
      223.300   8.74232e-33
      223.400   8.35093e-33
      223.500   7.97681e-33
      223.600   7.61951e-33
      223.700   7.27807e-33
      223.800   6.94494e-33
      223.900   6.58085e-33
      224.000   6.22902e-33
      224.100   5.89595e-33
      224.200   5.58056e-33
      224.300   5.28197e-33
      224.400   4.99913e-33
      224.500   4.73148e-33
      224.600   4.47795e-33
      224.700   4.23807e-33
      224.800   4.01085e-33
      224.900   3.79570e-33
      225.000   3.59206e-33
      225.100   3.39924e-33
      225.200   3.21667e-33
      225.300   3.04398e-33
      225.400   2.88036e-33
      225.500   2.72550e-33
      225.600   2.57890e-33
      225.700   2.44020e-33
      225.800   2.30883e-33
      225.900   2.21793e-33
      226.000   2.14420e-33
      226.100   2.07430e-33
      226.200   2.00665e-33
      226.300   1.94136e-33
      226.400   1.87827e-33
      226.500   1.81716e-33
      226.600   1.75798e-33
      226.700   1.70072e-33
      226.800   1.64529e-33
      226.900   1.59166e-33
      227.000   1.53975e-33
      227.100   1.48953e-33
      227.200   1.44096e-33
      227.300   1.39396e-33
      227.400   1.34849e-33
      227.500   1.30450e-33
      227.600   1.26194e-33
      227.700   1.22077e-33
      227.800   1.18094e-33
      227.900   1.13859e-33
      228.000   1.08806e-33
      228.100   1.03430e-33
      228.200   9.83182e-34
      228.300   9.34588e-34
      228.400   8.88397e-34
      228.500   8.44463e-34
      228.600   8.02710e-34
      228.700   7.63013e-34
      228.800   7.25259e-34
      228.900   6.89386e-34
      229.000   6.55277e-34
      229.100   6.22849e-34
      229.200   5.92020e-34
      229.300   5.62716e-34
      229.400   5.34859e-34
      229.500   5.08377e-34
      229.600   4.83200e-34
      229.700   4.59268e-34
      229.800   4.36520e-34
      229.900   4.14898e-34
      230.000   3.94095e-34
      230.100   3.72439e-34
      230.200   3.50855e-34
      230.300   3.30528e-34
      230.400   3.11367e-34
      230.500   2.93325e-34
      230.600   2.76340e-34
      230.700   2.60332e-34
      230.800   2.45250e-34
      230.900   2.31040e-34
      231.000   2.17647e-34
      231.100   2.05026e-34
      231.200   1.93137e-34
      231.300   1.81936e-34
      231.400   1.71385e-34
      231.500   1.61437e-34
      231.600   1.52063e-34
      231.700   1.43234e-34
      231.800   1.34917e-34
      231.900   1.27078e-34
      232.000   1.19693e-34
      232.100   1.12734e-34
      232.200   1.07128e-34
      232.300   1.03135e-34
      232.400   9.96414e-35
      232.500   9.62661e-35
      232.600   9.30058e-35
      232.700   8.98559e-35
      232.800   8.68131e-35
      232.900   8.38713e-35
      233.000   8.10259e-35
      233.100   7.82776e-35
      233.200   7.56232e-35
      233.300   7.30589e-35
      233.400   7.05819e-35
      233.500   6.81900e-35
      233.600   6.58806e-35
      233.700   6.36494e-35
      233.800   6.14698e-35
      233.900   5.93607e-35
      234.000   5.73239e-35
      234.100   5.53567e-35
      234.200   5.34579e-35
      234.300   5.16235e-35
      234.400   4.98518e-35
      234.500   4.81411e-35
      234.600   4.64886e-35
      234.700   4.48933e-35
      234.800   4.33529e-35
      234.900   4.18648e-35
      235.000   4.04275e-35
      235.100   3.90395e-35
      235.200   3.76993e-35
      235.300   3.64050e-35
      235.400   3.51545e-35
      235.500   3.39475e-35
      235.600   3.27820e-35
      235.700   3.16560e-35
      235.800   3.05703e-35
      235.900   2.95217e-35
      236.000   2.85094e-35
      236.100   2.75312e-35
      236.200   2.65866e-35
      236.300   2.56742e-35
      236.400   2.47933e-35
      236.500   2.39424e-35
      236.600   2.31644e-35
      236.700   2.25071e-35
      236.800   2.19286e-35
      236.900   2.13647e-35
      237.000   2.08152e-35
      237.100   2.02799e-35
      237.200   1.97582e-35
      237.300   1.92500e-35
      237.400   1.87547e-35
      237.500   1.82722e-35
      237.600   1.78016e-35
      237.700   1.73438e-35
      237.800   1.68980e-35
      237.900   1.64631e-35
      238.000   1.60395e-35
      238.100   1.56267e-35
      238.200   1.52245e-35
      238.300   1.48325e-35
      238.400   1.44504e-35
      238.500   1.40780e-35
      238.600   1.37152e-35
      238.700   1.33617e-35
      238.800   1.30172e-35
      238.900   1.27081e-35
      239.000   1.25000e-35
      239.100   1.23058e-35
      239.200   1.21147e-35
      239.300   1.19265e-35
      239.400   1.17411e-35
      239.500   1.15587e-35
      239.600   1.13788e-35
      239.700   1.12017e-35
      239.800   1.10274e-35
      239.900   1.08557e-35
      240.000   1.06864e-35
      240.100   1.05198e-35
      240.200   1.03557e-35
      240.300   1.01941e-35
      240.400   1.00350e-35
      240.500   9.87818e-36
      240.600   9.72387e-36
      240.700   9.57170e-36
      240.800   9.42184e-36
      240.900   9.27445e-36
      241.000   9.12922e-36
      241.100   8.98622e-36
      241.200   8.84544e-36
      241.300   8.70669e-36
      241.400   8.57011e-36
      241.500   8.43564e-36
      241.600   8.30323e-36
      241.700   8.17282e-36
      241.800   8.04432e-36
      241.900   7.91784e-36
      242.000   7.79332e-36
      242.100   7.67073e-36
      242.200   7.55008e-36
      242.300   7.43142e-36
      242.400   7.31453e-36
      242.500   7.19946e-36
      242.600   7.08612e-36
      242.700   6.97454e-36
      242.800   6.86477e-36
      242.900   6.75668e-36
      243.000   6.65023e-36
      243.100   6.54544e-36
      243.200   6.44230e-36
      243.300   6.34074e-36
      243.400   6.24083e-36
      243.500   6.14251e-36
      243.600   6.04580e-36
      243.700   5.95058e-36
      243.800   5.85688e-36
      243.900   5.76464e-36
      244.000   5.67384e-36
      244.100   5.58450e-36
      244.200   5.49659e-36
      244.300   5.41001e-36
      244.400   5.32480e-36
      244.500   5.24100e-36
      244.600   5.15846e-36
      244.700   5.07727e-36
      244.800   4.99749e-36
      244.900   4.91892e-36
      245.000   4.84158e-36
      245.100   4.76549e-36
      245.200   4.69061e-36
      245.300   4.61693e-36
      245.400   4.54437e-36
      245.500   4.47300e-36
      245.600   4.40277e-36
      245.700   4.33364e-36
      245.800   4.26562e-36
      245.900   4.19872e-36
      246.000   4.13295e-36
      246.100   4.06822e-36
      246.200   4.00447e-36
      246.300   3.94177e-36
      246.400   3.88011e-36
      246.500   3.81939e-36
      246.600   3.75961e-36
      246.700   3.70080e-36
      246.800   3.64294e-36
      246.900   3.58601e-36
      247.000   3.53000e-36
      247.100   3.47487e-36
      247.200   3.42069e-36
      247.300   3.36735e-36
      247.400   3.31487e-36
      247.500   3.26320e-36
      247.600   3.21234e-36
      247.700   3.16230e-36
      247.800   3.11307e-36
      247.900   3.06459e-36
      248.000   3.01692e-36
      248.100   2.97008e-36
      248.200   2.92399e-36
      248.300   2.87858e-36
      248.400   2.83388e-36
      248.500   2.77173e-36
      248.600   2.68118e-36
      248.700   2.57471e-36
      248.800   2.47240e-36
      248.900   2.37416e-36
      249.000   2.27976e-36
      249.100   2.18943e-36
      249.200   2.10272e-36
      249.300   2.01941e-36
      249.400   1.93935e-36
      249.500   1.86243e-36
      249.600   1.78853e-36
      249.700   1.71754e-36
      249.800   1.64932e-36
      249.900   1.58378e-36
      250.000   1.52083e-36
      250.100   1.46054e-36
      250.200   1.40266e-36
      250.300   1.34712e-36
      250.400   1.29374e-36
      250.500   1.24246e-36
      250.600   1.19322e-36
      250.700   1.14591e-36
      250.800   1.10046e-36
      250.900   1.05681e-36
      251.000   1.01487e-36
      251.100   9.74590e-37
      251.200   9.35945e-37
      251.300   8.98890e-37
      251.400   8.63301e-37
      251.500   8.29104e-37
      251.600   7.81517e-37
      251.700   7.09043e-37
      251.800   6.39468e-37
      251.900   5.76625e-37
      252.000   5.19869e-37
      252.100   4.68651e-37
      252.200   4.22395e-37
      252.300   3.80742e-37
      252.400   3.43314e-37
      252.500   3.09537e-37
      252.600   2.80672e-37
      252.700   2.64081e-37
      252.800   2.58289e-37
      252.900   2.52628e-37
      253.000   2.47089e-37
      253.100   2.41671e-37
      253.200   2.36375e-37
      253.300   2.31244e-37
      253.400   2.26247e-37
      253.500   2.21366e-37
      253.600   2.16592e-37
      253.700   2.11819e-37
      253.800   2.06660e-37
      253.900   2.01532e-37
      254.000   1.96531e-37
      254.100   1.91652e-37
      254.200   1.86894e-37
      254.300   1.82253e-37
      254.400   1.77729e-37
      254.500   1.73316e-37
      254.600   1.69010e-37
      254.700   1.64814e-37
      254.800   1.60726e-37
      254.900   1.56739e-37
      255.000   1.52851e-37
      255.100   1.49054e-37
      255.200   1.45355e-37
      255.300   1.41746e-37
      255.400   1.38226e-37
      255.500   1.34792e-37
      255.600   1.31444e-37
      255.700   1.28178e-37
      255.800   1.24991e-37
      255.900   1.21884e-37
      256.000   1.18851e-37
      256.100   1.15898e-37
      256.200   1.13017e-37
      256.300   1.10207e-37
      256.400   1.07470e-37
      256.500   1.04797e-37
      256.600   1.02190e-37
      256.700   9.96469e-38
      256.800   9.71672e-38
      256.900   9.41620e-38
      257.000   9.03233e-38
      257.100   8.63568e-38
      257.200   8.25644e-38
      257.300   7.89363e-38
      257.400   7.54765e-38
      257.500   7.21705e-38
      257.600   6.90148e-38
      257.700   6.59974e-38
      257.800   6.31096e-38
      257.900   6.03481e-38
      258.000   5.77064e-38
      258.100   5.51787e-38
      258.200   5.27612e-38
      258.300   5.04493e-38
      258.400   4.82364e-38
      258.500   4.61199e-38
      258.600   4.40960e-38
      258.700   4.21598e-38
      258.800   4.03076e-38
      258.900   3.85370e-38
      259.000   3.68427e-38
      259.100   3.52227e-38
      259.200   3.36743e-38
      259.300   3.21959e-38
      259.400   3.07812e-38
      259.500   2.94281e-38
      259.600   2.81342e-38
      259.700   2.68970e-38
      259.800   2.57135e-38
      259.900   2.45812e-38
      260.000   2.34987e-38
      260.100   2.23857e-38
      260.200   2.12293e-38
      260.300   2.01153e-38
      260.400   1.90595e-38
      260.500   1.80589e-38
      260.600   1.71098e-38
      260.700   1.62104e-38
      260.800   1.53585e-38
      260.900   1.45504e-38
      261.000   1.37853e-38
      261.100   1.30609e-38
      261.200   1.23705e-38
      261.300   1.17159e-38
      261.400   1.10958e-38
      261.500   1.05085e-38
      261.600   9.95283e-39
      261.700   9.42659e-39
      261.800   8.92802e-39
      261.900   8.45544e-39
      262.000   8.00778e-39
      262.100   7.58363e-39
      262.200   7.18202e-39
      262.300   6.80138e-39
      262.400   6.44084e-39
      262.500   6.09919e-39
      262.600   5.77553e-39
      262.700   5.46904e-39
      262.800   5.17872e-39
      262.900   4.90357e-39
      263.000   4.64319e-39
      263.100   4.39647e-39
      263.200   4.16317e-39
      263.300   3.94221e-39
      263.400   3.73287e-39
      263.500   3.53467e-39
      263.600   3.34693e-39
      263.700   3.16908e-39
      263.800   3.00059e-39
      263.900   2.84116e-39
      264.000   2.69008e-39
      264.100   2.54694e-39
      264.200   2.41137e-39
      264.300   2.28308e-39
      264.400   2.16156e-39
      264.500   2.04644e-39
      264.600   1.93741e-39
      264.700   1.83420e-39
      264.800   1.73642e-39
      264.900   1.64387e-39
      265.000   1.55624e-39
      265.100   1.47321e-39
      265.200   1.39461e-39
      265.300   1.32019e-39
      265.400   1.24873e-39
      265.500   1.18074e-39
      265.600   1.11646e-39
      265.700   1.05561e-39
      265.800   9.98141e-40
      265.900   9.43807e-40
      266.000   8.92458e-40
      266.100   8.43884e-40
      266.200   7.97957e-40
      266.300   7.54497e-40
      266.400   7.13415e-40
      266.500   6.74546e-40
      266.600   6.37791e-40
      266.700   6.03029e-40
      266.800   5.70176e-40
      266.900   5.39085e-40
      267.000   5.09689e-40
      267.100   4.81883e-40
      267.200   4.55614e-40
      267.300   4.30761e-40
      267.400   4.07248e-40
      267.500   3.85025e-40
      267.600   3.64008e-40
      267.700   3.44135e-40
      267.800   3.25339e-40
      267.900   3.07570e-40
      268.000   2.90774e-40
      268.100   2.74884e-40
      268.200   2.59875e-40
      268.300   2.45673e-40
      268.400   2.32248e-40
      268.500   2.19544e-40
      268.600   2.07545e-40
      268.700   1.96196e-40
      268.800   1.85467e-40
      268.900   1.75323e-40
      269.000   1.65739e-40
      269.100   1.56668e-40
      269.200   1.48099e-40
      269.300   1.39994e-40
      269.400   1.32332e-40
      269.500   1.25083e-40
      269.600   1.18239e-40
      269.700   1.10756e-40
      269.800   1.03510e-40
      269.900   9.67274e-41
      270.000   9.03922e-41
      270.100   8.44689e-41
      270.200   7.89351e-41
      270.300   7.37615e-41
      270.400   6.89313e-41
      270.500   6.44107e-41
      270.600   6.01830e-41
      270.700   5.62383e-41
      270.800   5.25445e-41
      270.900   4.91001e-41
      271.000   4.58771e-41
      271.100   4.28629e-41
      271.200   4.00421e-41
      271.300   3.74133e-41
      271.400   3.49554e-41
      271.500   3.26615e-41
      271.600   3.05091e-41
      271.700   2.84996e-41
      271.800   2.66275e-41
      271.900   2.48702e-41
      272.000   2.32335e-41
      272.100   2.17033e-41
      272.200   2.02782e-41
      272.300   1.89400e-41
      272.400   1.76900e-41
      272.500   1.65213e-41
      272.600   1.54283e-41
      272.700   1.44152e-41
      272.800   1.35057e-41
      272.900   1.27770e-41
      273.000   1.21437e-41
      273.100   1.15397e-41
      273.200   1.09652e-41
      273.300   1.04187e-41
      273.400   9.90157e-42
      273.500   9.40972e-42
      273.600   8.93888e-42
      273.700   8.49607e-42
      273.800   8.07428e-42
      273.900   7.60765e-42
      274.000   7.03872e-42
      274.100   6.50483e-42
      274.200   6.01297e-42
      274.300   5.56175e-42
      274.400   5.14417e-42
      274.500   4.75461e-42
      274.600   4.39587e-42
      274.700   4.06096e-42
      274.800   3.75408e-42
      274.900   3.46681e-42
      275.000   3.20197e-42
      275.100   2.96234e-42
      275.200   2.73814e-42
      275.300   2.52654e-42
      275.400   2.33596e-42
      275.500   2.15940e-42
      275.600   1.98984e-42
      275.700   1.83990e-42
      275.800   1.69978e-42
      275.900   1.57226e-42
      276.000   1.46015e-42
      276.100   1.37748e-42
      276.200   1.30741e-42
      276.300   1.23595e-42
      276.400   1.16868e-42
      276.500   1.10843e-42
      276.600   1.05378e-42
      276.700   9.96323e-43
      276.800   9.43074e-43
      276.900   8.94028e-43
      277.000   8.43582e-43
      277.100   7.98740e-43
      277.200   7.60905e-43
      277.300   7.18866e-43
      277.400   6.83834e-43
      277.500   6.45999e-43
      277.600   6.09565e-43
      277.700   5.74532e-43
      277.800   5.46506e-43
      277.900   5.17079e-43
      278.000   4.94658e-43
      278.100   4.69435e-43
      278.200   4.34403e-43
      278.300   4.02173e-43
      278.400   3.69943e-43
      278.500   3.44719e-43
      278.600   3.16693e-43
      278.700   2.97075e-43
      278.800   2.71852e-43
      278.900   2.49431e-43
      279.000   2.32616e-43
      279.100   2.17201e-43
      279.200   1.97583e-43
      279.300   1.89175e-43
      279.400   1.75162e-43
      279.500   1.62551e-43
      279.600   1.52742e-43
      279.700   1.47136e-43
      279.800   1.37327e-43
      279.900   1.27518e-43
      280.000   1.21913e-43
      280.100   1.12104e-43
      280.200   1.05097e-43
      280.300   9.94922e-44
      280.400   8.96831e-44
      280.500   8.68805e-44
      280.600   7.98740e-44
      280.700   7.28675e-44
      280.800   7.00649e-44
      280.900   7.00649e-44
      281.000   6.44597e-44
      281.100   6.02558e-44
      281.200   5.74532e-44
      281.300   5.46506e-44
      281.400   5.04467e-44
      281.500   4.76441e-44
      281.600   4.48416e-44
      281.700   4.20390e-44
      281.800   4.20390e-44
      281.900   3.78351e-44
      282.000   3.78351e-44
      282.100   3.50325e-44
      282.200   3.50325e-44
      282.300   3.22299e-44
      282.400   3.22299e-44
      282.500   2.94273e-44
      282.600   2.94273e-44
      282.700   2.52234e-44
      282.800   2.52234e-44
      282.900   2.24208e-44
      283.000   2.24208e-44
      283.100   2.24208e-44
      283.200   2.24208e-44
      283.300   1.96182e-44
      283.400   1.96182e-44
      283.500   1.96182e-44
      283.600   1.96182e-44
      283.700   1.54143e-44
      283.800   1.54143e-44
      283.900   1.54143e-44
      284.000   1.26117e-44
      284.100   1.26117e-44
      284.200   1.26117e-44
      284.300   1.26117e-44
      284.400   9.80909e-45
      284.500   9.80909e-45
      284.600   9.80909e-45
      284.700   9.80909e-45
      284.800   9.80909e-45
      284.900   9.80909e-45
      285.000   7.00649e-45
      285.100   7.00649e-45
      285.200   7.00649e-45
      285.300   7.00649e-45
      285.400   7.00649e-45
      285.500   7.00649e-45
      285.600   7.00649e-45
      285.700   7.00649e-45
      285.800   7.00649e-45
      285.900   2.80260e-45
      286.000   2.80260e-45
      286.100   2.80260e-45
      286.200   2.80260e-45
      286.300   2.80260e-45
      286.400   2.80260e-45
      286.500   2.80260e-45
      286.600   2.80260e-45
      286.700   2.80260e-45
      286.800   2.80260e-45
      286.900   2.80260e-45
      287.000   2.80260e-45
      287.100   2.80260e-45
      287.200   2.80260e-45
      287.300   2.80260e-45
      287.400   2.80260e-45
      287.500   2.80260e-45
      287.600   2.80260e-45
      287.700   2.80260e-45
      287.800       0.00000
      287.900       0.00000
      288.000       0.00000
      288.100       0.00000
      288.200       0.00000
      288.300       0.00000
      288.400       0.00000
      288.500       0.00000
      288.600       0.00000
      288.700       0.00000
      288.800       0.00000
      288.900       0.00000
      289.000       0.00000
      289.100       0.00000
      289.200       0.00000
      289.300       0.00000
      289.400       0.00000
      289.500       0.00000
      289.600       0.00000
      289.700       0.00000
      289.800       0.00000
      289.900       0.00000
      290.000       0.00000
      290.100       0.00000
      290.200       0.00000
      290.300       0.00000
      290.400       0.00000
      290.500       0.00000
      290.600       0.00000
      290.700       0.00000
      290.800       0.00000
      290.900       0.00000
      291.000       0.00000
      291.100       0.00000
      291.200       0.00000
      291.300       0.00000
      291.400       0.00000
      291.500       0.00000
      291.600       0.00000
      291.700       0.00000
      291.800       0.00000
      291.900       0.00000
      292.000       0.00000
      292.100       0.00000
      292.200       0.00000
      292.300       0.00000
      292.400       0.00000
      292.500       0.00000
      292.600       0.00000
      292.700       0.00000
      292.800       0.00000
      292.900       0.00000
      293.000       0.00000
      293.100       0.00000
      293.200       0.00000
      293.300       0.00000
      293.400       0.00000
      293.500       0.00000
      293.600       0.00000
      293.700       0.00000
      293.800       0.00000
      293.900       0.00000
      294.000       0.00000
      294.100       0.00000
      294.200       0.00000
      294.300       0.00000
      294.400       0.00000
      294.500       0.00000
      294.600       0.00000
      294.700       0.00000
      294.800       0.00000
      294.900       0.00000
      295.000       0.00000
      295.100       0.00000
      295.200       0.00000
      295.300       0.00000
      295.400       0.00000
      295.500       0.00000
      295.600       0.00000
      295.700       0.00000
      295.800       0.00000
      295.900       0.00000
      296.000       0.00000
      296.100       0.00000
      296.200       0.00000
      296.300       0.00000
      296.400       0.00000
      296.500       0.00000
      296.600       0.00000
      296.700       0.00000
      296.800       0.00000
      296.900       0.00000
      297.000       0.00000
      297.100       0.00000
      297.200       0.00000
      297.300       0.00000
      297.400       0.00000
      297.500       0.00000
      297.600       0.00000
      297.700       0.00000
      297.800       0.00000
      297.900       0.00000
      298.000       0.00000
      298.100       0.00000
      298.200       0.00000
      298.300       0.00000
      298.400       0.00000
      298.500       0.00000
      298.600       0.00000
      298.700       0.00000
      298.800       0.00000
      298.900       0.00000
      299.000       0.00000
      299.100       0.00000
      299.200       0.00000
      299.300       0.00000
      299.400       0.00000
      299.500       0.00000
      299.600       0.00000
      299.700       0.00000
      299.800       0.00000
      299.900       0.00000
      300.000       0.00000
      300.100       0.00000
      300.192       0.00000
      300.285       0.00000
      300.377       0.00000
      300.470       0.00000
      300.562       0.00000
      300.654       0.00000
      300.747       0.00000
      300.839       0.00000
      300.932       0.00000
      301.025       0.00000
      301.117       0.00000
      301.210       0.00000
      301.303       0.00000
      301.395       0.00000
      301.488       0.00000
      301.581       0.00000
      301.674       0.00000
      301.766       0.00000
      301.859       0.00000
      301.952       0.00000
      302.045       0.00000
      302.138       0.00000
      302.231       0.00000
      302.324       0.00000
      302.417       0.00000
      302.510       0.00000
      302.603       0.00000
      302.696       0.00000
      302.789       0.00000
      302.882       0.00000
      302.976       0.00000
      303.069       0.00000
      303.162       0.00000
      303.255       0.00000
      303.349       0.00000
      303.442       0.00000
      303.535       0.00000
      303.629       0.00000
      303.722       0.00000
      303.816       0.00000
      303.909       0.00000
      304.003       0.00000
      304.096       0.00000
      304.190       0.00000
      304.283       0.00000
      304.377       0.00000
      304.471       0.00000
      304.564       0.00000
      304.658       0.00000
      304.752       0.00000
      304.846       0.00000
      304.939       0.00000
      305.033       0.00000
      305.127       0.00000
      305.221       0.00000
      305.315       0.00000
      305.409       0.00000
      305.503       0.00000
      305.597       0.00000
      305.691       0.00000
      305.785       0.00000
      305.879       0.00000
      305.973       0.00000
      306.067       0.00000
      306.161       0.00000
      306.255       0.00000
      306.350       0.00000
      306.444       0.00000
      306.538       0.00000
      306.633       0.00000
      306.727       0.00000
      306.821       0.00000
      306.916       0.00000
      307.010       0.00000
      307.105       0.00000
      307.199       0.00000
      307.294       0.00000
      307.388       0.00000
      307.483       0.00000
      307.577       0.00000
      307.672       0.00000
      307.767       0.00000
      307.861       0.00000
      307.956       0.00000
      308.051       0.00000
      308.146       0.00000
      308.240       0.00000
      308.335       0.00000
      308.430       0.00000
      308.525       0.00000
      308.620       0.00000
      308.715       0.00000
      308.810       0.00000
      308.905       0.00000
      309.000       0.00000
      309.095       0.00000
      309.190       0.00000
      309.285       0.00000
      309.380       0.00000
      309.476       0.00000
      309.571       0.00000
      309.666       0.00000
      309.761       0.00000
      309.857       0.00000
      309.952       0.00000
      310.047       0.00000
      310.143       0.00000
      310.238       0.00000
      310.334       0.00000
      310.429       0.00000
      310.525       0.00000
      310.620       0.00000
      310.716       0.00000
      310.811       0.00000
      310.907       0.00000
      311.003       0.00000
      311.098       0.00000
      311.194       0.00000
      311.290       0.00000
      311.386       0.00000
      311.481       0.00000
      311.577       0.00000
      311.673       0.00000
      311.769       0.00000
      311.865       0.00000
      311.961       0.00000
      312.057       0.00000
      312.153       0.00000
      312.249       0.00000
      312.345       0.00000
      312.441       0.00000
      312.537       0.00000
      312.633       0.00000
      312.730       0.00000
      312.826       0.00000
      312.922       0.00000
      313.018       0.00000
      313.115       0.00000
      313.211       0.00000
      313.307       0.00000
      313.404       0.00000
      313.500       0.00000
      313.597       0.00000
      313.693       0.00000
      313.790       0.00000
      313.886       0.00000
      313.983       0.00000
      314.079       0.00000
      314.176       0.00000
      314.273       0.00000
      314.369       0.00000
      314.466       0.00000
      314.563       0.00000
      314.660       0.00000
      314.756       0.00000
      314.853       0.00000
      314.950       0.00000
      315.047       0.00000
      315.144       0.00000
      315.241       0.00000
      315.338       0.00000
      315.435       0.00000
      315.532       0.00000
      315.629       0.00000
      315.726       0.00000
      315.823       0.00000
      315.921       0.00000
      316.018       0.00000
      316.115       0.00000
      316.212       0.00000
      316.310       0.00000
      316.407       0.00000
      316.504       0.00000
      316.602       0.00000
      316.699       0.00000
      316.796       0.00000
      316.894       0.00000
      316.991       0.00000
      317.089       0.00000
      317.187       0.00000
      317.284       0.00000
      317.382       0.00000
      317.479       0.00000
      317.577       0.00000
      317.675       0.00000
      317.773       0.00000
      317.870       0.00000
      317.968       0.00000
      318.066       0.00000
      318.164       0.00000
      318.262       0.00000
      318.360       0.00000
      318.458       0.00000
      318.556       0.00000
      318.654       0.00000
      318.752       0.00000
      318.850       0.00000
      318.948       0.00000
      319.046       0.00000
      319.144       0.00000
      319.242       0.00000
      319.341       0.00000
      319.439       0.00000
      319.537       0.00000
      319.635       0.00000
      319.734       0.00000
      319.832       0.00000
      319.930       0.00000
      320.029       0.00000
      320.127       0.00000
      320.226       0.00000
      320.324       0.00000
      320.423       0.00000
      320.522       0.00000
      320.620       0.00000
      320.719       0.00000
      320.818       0.00000
      320.916       0.00000
      321.015       0.00000
      321.114       0.00000
      321.213       0.00000
      321.311       0.00000
      321.410       0.00000
      321.509       0.00000
      321.608       0.00000
      321.707       0.00000
      321.806       0.00000
      321.905       0.00000
      322.004       0.00000
      322.103       0.00000
      322.202       0.00000
      322.301       0.00000
      322.401       0.00000
      322.500       0.00000
      322.599       0.00000
      322.698       0.00000
      322.798       0.00000
      322.897       0.00000
      322.996       0.00000
      323.096       0.00000
      323.195       0.00000
      323.294       0.00000
      323.394       0.00000
      323.493       0.00000
      323.593       0.00000
      323.692       0.00000
      323.792       0.00000
      323.892       0.00000
      323.991       0.00000
      324.091       0.00000
      324.191       0.00000
      324.291       0.00000
      324.390       0.00000
      324.490       0.00000
      324.590       0.00000
      324.690       0.00000
      324.790       0.00000
      324.890       0.00000
      324.990       0.00000
      325.090       0.00000
      325.190       0.00000
      325.290       0.00000
      325.390       0.00000
      325.490       0.00000
      325.590       0.00000
      325.690       0.00000
      325.790       0.00000
      325.891       0.00000
      325.991       0.00000
      326.091       0.00000
      326.192       0.00000
      326.292       0.00000
      326.392       0.00000
      326.493       0.00000
      326.593       0.00000
      326.694       0.00000
      326.794       0.00000
      326.895       0.00000
      326.995       0.00000
      327.096       0.00000
      327.197       0.00000
      327.297       0.00000
      327.398       0.00000
      327.499       0.00000
      327.599       0.00000
      327.700       0.00000
      327.801       0.00000
      327.902       0.00000
      328.003       0.00000
      328.104       0.00000
      328.205       0.00000
      328.306       0.00000
      328.407       0.00000
      328.508       0.00000
      328.609       0.00000
      328.710       0.00000
      328.811       0.00000
      328.912       0.00000
      329.013       0.00000
      329.115       0.00000
      329.216       0.00000
      329.317       0.00000
      329.419       0.00000
      329.520       0.00000
      329.621       0.00000
      329.723       0.00000
      329.824       0.00000
      329.926       0.00000
      330.027       0.00000
      330.129       0.00000
      330.230       0.00000
      330.332       0.00000
      330.434       0.00000
      330.535       0.00000
      330.637       0.00000
      330.739       0.00000
      330.840       0.00000
      330.942       0.00000
      331.044       0.00000
      331.146       0.00000
      331.248       0.00000
      331.350       0.00000
      331.452       0.00000
      331.554       0.00000
      331.656       0.00000
      331.758       0.00000
      331.860       0.00000
      331.962       0.00000
      332.064       0.00000
      332.166       0.00000
      332.268       0.00000
      332.371       0.00000
      332.473       0.00000
      332.575       0.00000
      332.677       0.00000
      332.780       0.00000
      332.882       0.00000
      332.985       0.00000
      333.087       0.00000
      333.190       0.00000
      333.292       0.00000
      333.395       0.00000
      333.497       0.00000
      333.600       0.00000
      333.702       0.00000
      333.805       0.00000
      333.908       0.00000
      334.011       0.00000
      334.113       0.00000
      334.216       0.00000
      334.319       0.00000
      334.422       0.00000
      334.525       0.00000
      334.628       0.00000
      334.731       0.00000
      334.834       0.00000
      334.937       0.00000
      335.040       0.00000
      335.143       0.00000
      335.246       0.00000
      335.349       0.00000
      335.452       0.00000
      335.555       0.00000
      335.659       0.00000
      335.762       0.00000
      335.865       0.00000
      335.969       0.00000
      336.072       0.00000
      336.175       0.00000
      336.279       0.00000
      336.382       0.00000
      336.486       0.00000
      336.589       0.00000
      336.693       0.00000
      336.796       0.00000
      336.900       0.00000
      337.004       0.00000
      337.107       0.00000
      337.211       0.00000
      337.315       0.00000
      337.419       0.00000
      337.523       0.00000
      337.626       0.00000
      337.730       0.00000
      337.834       0.00000
      337.938       0.00000
      338.042       0.00000
      338.146       0.00000
      338.250       0.00000
      338.354       0.00000
      338.458       0.00000
      338.562       0.00000
      338.667       0.00000
      338.771       0.00000
      338.875       0.00000
      338.979       0.00000
      339.084       0.00000
      339.188       0.00000
      339.292       0.00000
      339.397       0.00000
      339.501       0.00000
      339.606       0.00000
      339.710       0.00000
      339.815       0.00000
      339.919       0.00000
      340.024       0.00000
      340.128       0.00000
      340.233       0.00000
      340.338       0.00000
      340.442       0.00000
      340.547       0.00000
      340.652       0.00000
      340.757       0.00000
      340.862       0.00000
      340.966       0.00000
      341.071       0.00000
      341.176       0.00000
      341.281       0.00000
      341.386       0.00000
      341.491       0.00000
      341.596       0.00000
      341.702       0.00000
      341.807       0.00000
      341.912       0.00000
      342.017       0.00000
      342.122       0.00000
      342.228       0.00000
      342.333       0.00000
      342.438       0.00000
      342.544       0.00000
      342.649       0.00000
      342.754       0.00000
      342.860       0.00000
      342.965       0.00000
      343.071       0.00000
      343.176       0.00000
      343.282       0.00000
      343.388       0.00000
      343.493       0.00000
      343.599       0.00000
      343.705       0.00000
      343.810       0.00000
      343.916       0.00000
      344.022       0.00000
      344.128       0.00000
      344.234       0.00000
      344.340       0.00000
      344.446       0.00000
      344.552       0.00000
      344.658       0.00000
      344.764       0.00000
      344.870       0.00000
      344.976       0.00000
      345.082       0.00000
      345.188       0.00000
      345.294       0.00000
      345.401       0.00000
      345.507       0.00000
      345.613       0.00000
      345.719       0.00000
      345.826       0.00000
      345.932       0.00000
      346.039       0.00000
      346.145       0.00000
      346.252       0.00000
      346.358       0.00000
      346.465       0.00000
      346.571       0.00000
      346.678       0.00000
      346.785       0.00000
      346.891       0.00000
      346.998       0.00000
      347.105       0.00000
      347.212       0.00000
      347.319       0.00000
      347.425       0.00000
      347.532       0.00000
      347.639       0.00000
      347.746       0.00000
      347.853       0.00000
      347.960       0.00000
      348.067       0.00000
      348.174       0.00000
      348.281       0.00000
      348.389       0.00000
      348.496       0.00000
      348.603       0.00000
      348.710       0.00000
      348.818       0.00000
      348.925       0.00000
      349.032       0.00000
      349.140       0.00000
      349.247       0.00000
      349.355       0.00000
      349.462       0.00000
      349.570       0.00000
      349.677       0.00000
      349.785       0.00000
      349.892       0.00000
      350.000       0.00000
      350.100       0.00000
      350.193       0.00000
      350.287       0.00000
      350.380       0.00000
      350.473       0.00000
      350.567       0.00000
      350.660       0.00000
      350.754       0.00000
      350.847       0.00000
      350.941       0.00000
      351.034       0.00000
      351.128       0.00000
      351.221       0.00000
      351.315       0.00000
      351.409       0.00000
      351.502       0.00000
      351.596       0.00000
      351.690       0.00000
      351.783       0.00000
      351.877       0.00000
      351.971       0.00000
      352.065       0.00000
      352.159       0.00000
      352.252       0.00000
      352.346       0.00000
      352.440       0.00000
      352.534       0.00000
      352.628       0.00000
      352.722       0.00000
      352.816       0.00000
      352.910       0.00000
      353.004       0.00000
      353.098       0.00000
      353.192       0.00000
      353.287       0.00000
      353.381       0.00000
      353.475       0.00000
      353.569       0.00000
      353.663       0.00000
      353.758       0.00000
      353.852       0.00000
      353.946       0.00000
      354.041       0.00000
      354.135       0.00000
      354.229       0.00000
      354.324       0.00000
      354.418       0.00000
      354.513       0.00000
      354.607       0.00000
      354.702       0.00000
      354.796       0.00000
      354.891       0.00000
      354.985       0.00000
      355.080       0.00000
      355.175       0.00000
      355.269       0.00000
      355.364       0.00000
      355.459       0.00000
      355.553       0.00000
      355.648       0.00000
      355.743       0.00000
      355.838       0.00000
      355.933       0.00000
      356.027       0.00000
      356.122       0.00000
      356.217       0.00000
      356.312       0.00000
      356.407       0.00000
      356.502       0.00000
      356.597       0.00000
      356.692       0.00000
      356.787       0.00000
      356.882       0.00000
      356.977       0.00000
      357.073       0.00000
      357.168       0.00000
      357.263       0.00000
      357.358       0.00000
      357.453       0.00000
      357.549       0.00000
      357.644       0.00000
      357.739       0.00000
      357.835       0.00000
      357.930       0.00000
      358.025       0.00000
      358.121       0.00000
      358.216       0.00000
      358.312       0.00000
      358.407       0.00000
      358.503       0.00000
      358.598       0.00000
      358.694       0.00000
      358.790       0.00000
      358.885       0.00000
      358.981       0.00000
      359.076       0.00000
      359.172       0.00000
      359.268       0.00000
      359.364       0.00000
      359.459       0.00000
      359.555       0.00000
      359.651       0.00000
      359.747       0.00000
      359.843       0.00000
      359.939       0.00000
      360.035       0.00000
      360.131       0.00000
      360.227       0.00000
      360.323       0.00000
      360.419       0.00000
      360.515       0.00000
      360.611       0.00000
      360.707       0.00000
      360.803       0.00000
      360.899       0.00000
      360.995       0.00000
      361.092       0.00000
      361.188       0.00000
      361.284       0.00000
      361.380       0.00000
      361.477       0.00000
      361.573       0.00000
      361.669       0.00000
      361.766       0.00000
      361.862       0.00000
      361.959       0.00000
      362.055       0.00000
      362.152       0.00000
      362.248       0.00000
      362.345       0.00000
      362.441       0.00000
      362.538       0.00000
      362.635       0.00000
      362.731       0.00000
      362.828       0.00000
      362.925       0.00000
      363.021       0.00000
      363.118       0.00000
      363.215       0.00000
      363.312       0.00000
      363.409       0.00000
      363.505       0.00000
      363.602       0.00000
      363.699       0.00000
      363.796       0.00000
      363.893       0.00000
      363.990       0.00000
      364.087       0.00000
      364.184       0.00000
      364.281       0.00000
      364.378       0.00000
      364.475       0.00000
      364.573       0.00000
      364.670       0.00000
      364.767       0.00000
      364.864       0.00000
      364.961       0.00000
      365.059       0.00000
      365.156       0.00000
      365.253       0.00000
      365.351       0.00000
      365.448       0.00000
      365.545       0.00000
      365.643       0.00000
      365.740       0.00000
      365.838       0.00000
      365.935       0.00000
      366.033       0.00000
      366.130       0.00000
      366.228       0.00000
      366.326       0.00000
      366.423       0.00000
      366.521       0.00000
      366.618       0.00000
      366.716       0.00000
      366.814       0.00000
      366.912       0.00000
      367.010       0.00000
      367.107       0.00000
      367.205       0.00000
      367.303       0.00000
      367.401       0.00000
      367.499       0.00000
      367.597       0.00000
      367.695       0.00000
      367.793       0.00000
      367.891       0.00000
      367.989       0.00000
      368.087       0.00000
      368.185       0.00000
      368.283       0.00000
      368.381       0.00000
      368.480       0.00000
      368.578       0.00000
      368.676       0.00000
      368.774       0.00000
      368.873       0.00000
      368.971       0.00000
      369.069       0.00000
      369.168       0.00000
      369.266       0.00000
      369.364       0.00000
      369.463       0.00000
      369.561       0.00000
      369.660       0.00000
      369.758       0.00000
      369.857       0.00000
      369.955       0.00000
      370.054       0.00000
      370.153       0.00000
      370.251       0.00000
      370.350       0.00000
      370.449       0.00000
      370.547       0.00000
      370.646       0.00000
      370.745       0.00000
      370.844       0.00000
      370.943       0.00000
      371.041       0.00000
      371.140       0.00000
      371.239       0.00000
      371.338       0.00000
      371.437       0.00000
      371.536       0.00000
      371.635       0.00000
      371.734       0.00000
      371.833       0.00000
      371.932       0.00000
      372.032       0.00000
      372.131       0.00000
      372.230       0.00000
      372.329       0.00000
      372.428       0.00000
      372.528       0.00000
      372.627       0.00000
      372.726       0.00000
      372.826       0.00000
      372.925       0.00000
      373.024       0.00000
      373.124       0.00000
      373.223       0.00000
      373.323       0.00000
      373.422       0.00000
      373.522       0.00000
      373.621       0.00000
      373.721       0.00000
      373.820       0.00000
      373.920       0.00000
      374.020       0.00000
      374.119       0.00000
      374.219       0.00000
      374.319       0.00000
      374.419       0.00000
      374.518       0.00000
      374.618       0.00000
      374.718       0.00000
      374.818       0.00000
      374.918       0.00000
      375.018       0.00000
      375.118       0.00000
      375.218       0.00000
      375.318       0.00000
      375.418       0.00000
      375.518       0.00000
      375.618       0.00000
      375.718       0.00000
      375.818       0.00000
      375.918       0.00000
      376.019       0.00000
      376.119       0.00000
      376.219       0.00000
      376.319       0.00000
      376.420       0.00000
      376.520       0.00000
      376.620       0.00000
      376.721       0.00000
      376.821       0.00000
      376.922       0.00000
      377.022       0.00000
      377.122       0.00000
      377.223       0.00000
      377.323       0.00000
      377.424       0.00000
      377.525       0.00000
      377.625       0.00000
      377.726       0.00000
      377.827       0.00000
      377.927       0.00000
      378.028       0.00000
      378.129       0.00000
      378.230       0.00000
      378.330       0.00000
      378.431       0.00000
      378.532       0.00000
      378.633       0.00000
      378.734       0.00000
      378.835       0.00000
      378.936       0.00000
      379.037       0.00000
      379.138       0.00000
      379.239       0.00000
      379.340       0.00000
      379.441       0.00000
      379.542       0.00000
      379.643       0.00000
      379.745       0.00000
      379.846       0.00000
      379.947       0.00000
      380.048       0.00000
      380.150       0.00000
      380.251       0.00000
      380.352       0.00000
      380.454       0.00000
      380.555       0.00000
      380.656       0.00000
      380.758       0.00000
      380.859       0.00000
      380.961       0.00000
      381.062       0.00000
      381.164       0.00000
      381.266       0.00000
      381.367       0.00000
      381.469       0.00000
      381.570       0.00000
      381.672       0.00000
      381.774       0.00000
      381.876       0.00000
      381.977       0.00000
      382.079       0.00000
      382.181       0.00000
      382.283       0.00000
      382.385       0.00000
      382.487       0.00000
      382.589       0.00000
      382.691       0.00000
      382.793       0.00000
      382.895       0.00000
      382.997       0.00000
      383.099       0.00000
      383.201       0.00000
      383.303       0.00000
      383.405       0.00000
      383.507       0.00000
      383.610       0.00000
      383.712       0.00000
      383.814       0.00000
      383.916       0.00000
      384.019       0.00000
      384.121       0.00000
      384.223       0.00000
      384.326       0.00000
      384.428       0.00000
      384.531       0.00000
      384.633       0.00000
      384.736       0.00000
      384.838       0.00000
      384.941       0.00000
      385.043       0.00000
      385.146       0.00000
      385.249       0.00000
      385.351       0.00000
      385.454       0.00000
      385.557       0.00000
      385.660       0.00000
      385.762       0.00000
      385.865       0.00000
      385.968       0.00000
      386.071       0.00000
      386.174       0.00000
      386.277       0.00000
      386.380       0.00000
      386.483       0.00000
      386.586       0.00000
      386.689       0.00000
      386.792       0.00000
      386.895       0.00000
      386.998       0.00000
      387.101       0.00000
      387.204       0.00000
      387.308       0.00000
      387.411       0.00000
      387.514       0.00000
      387.617       0.00000
      387.721       0.00000
      387.824       0.00000
      387.927       0.00000
      388.031       0.00000
      388.134       0.00000
      388.238       0.00000
      388.341       0.00000
      388.445       0.00000
      388.548       0.00000
      388.652       0.00000
      388.755       0.00000
      388.859       0.00000
      388.962       0.00000
      389.066       0.00000
      389.170       0.00000
      389.274       0.00000
      389.377       0.00000
      389.481       0.00000
      389.585       0.00000
      389.689       0.00000
      389.793       0.00000
      389.897       0.00000
      390.000       0.00000
      390.104       0.00000
      390.208       0.00000
      390.312       0.00000
      390.416       0.00000
      390.520       0.00000
      390.625       0.00000
      390.729       0.00000
      390.833       0.00000
      390.937       0.00000
      391.041       0.00000
      391.145       0.00000
      391.250       0.00000
      391.354       0.00000
      391.458       0.00000
      391.563       0.00000
      391.667       0.00000
      391.771       0.00000
      391.876       0.00000
      391.980       0.00000
      392.085       0.00000
      392.189       0.00000
      392.294       0.00000
      392.398       0.00000
      392.503       0.00000
      392.607       0.00000
      392.712       0.00000
      392.817       0.00000
      392.921       0.00000
      393.026       0.00000
      393.131       0.00000
      393.236       0.00000
      393.340       0.00000
      393.445       0.00000
      393.550       0.00000
      393.655       0.00000
      393.760       0.00000
      393.865       0.00000
      393.970       0.00000
      394.075       0.00000
      394.180       0.00000
      394.285       0.00000
      394.390       0.00000
      394.495       0.00000
      394.600       0.00000
      394.706       0.00000
      394.811       0.00000
      394.916       0.00000
      395.021       0.00000
      395.126       0.00000
      395.232       0.00000
      395.337       0.00000
      395.443       0.00000
      395.548       0.00000
      395.653       0.00000
      395.759       0.00000
      395.864       0.00000
      395.970       0.00000
      396.075       0.00000
      396.181       0.00000
      396.286       0.00000
      396.392       0.00000
      396.498       0.00000
      396.603       0.00000
      396.709       0.00000
      396.815       0.00000
      396.921       0.00000
      397.026       0.00000
      397.132       0.00000
      397.238       0.00000
      397.344       0.00000
      397.450       0.00000
      397.556       0.00000
      397.662       0.00000
      397.768       0.00000
      397.874       0.00000
      397.980       0.00000
      398.086       0.00000
      398.192       0.00000
      398.298       0.00000
      398.404       0.00000
      398.510       0.00000
      398.617       0.00000
      398.723       0.00000
      398.829       0.00000
      398.935       0.00000
      399.042       0.00000
      399.148       0.00000
      399.255       0.00000
      399.361       0.00000
      399.467       0.00000
      399.574       0.00000
      399.680       0.00000
      399.787       0.00000
      399.893       0.00000
      400.000       0.00000
