Filter Be-med
observation_date 22-Sept-2008 22:40:45
wavelength effective area 
      1.00000   2.78115e-10
      1.10000   7.93779e-10
      1.20000   2.06299e-09
      1.30000   4.93141e-09
      1.40000   1.11852e-08
      1.50000   2.38510e-08
      1.60000   4.82564e-08
      1.70000   9.36210e-08
      1.80000   1.74163e-07
      1.90000   3.12748e-07
      2.00000   5.43165e-07
      2.10000   9.16400e-07
      2.20000   1.50913e-06
      2.30000   2.42250e-06
      2.40000   3.79724e-06
      2.50000   5.79322e-06
      2.60000   8.82425e-06
      2.70000   1.31288e-05
      2.80000   1.91562e-05
      2.90000   2.76574e-05
      3.00000   3.93002e-05
      3.10000   5.51168e-05
      3.20000   7.64387e-05
      3.30000   0.000104907
      3.40000   0.000142443
      3.50000   0.000191492
      3.60000   0.000256171
      3.70000   0.000338977
      3.80000   0.000446556
      3.90000   0.000584841
      4.00000   0.000760963
      4.10000   0.000985243
      4.20000    0.00127083
      4.30000    0.00163405
      4.40000    0.00209479
      4.50000    0.00267719
      4.60000    0.00340896
      4.70000    0.00433896
      4.80000    0.00551483
      4.90000    0.00691732
      5.00000    0.00890040
      5.10000     0.0112876
      5.20000     0.0143497
      5.30000     0.0180834
      5.40000     0.0227396
      5.50000     0.0286327
      5.60000     0.0349342
      5.70000     0.0448853
      5.80000     0.0519738
      5.90000     0.0783527
      6.00000      0.103948
      6.10000      0.131050
      6.20000      0.158701
      6.30000      0.184148
      6.40000      0.204862
      6.50000      0.218729
      6.60000      0.222857
      6.70000      0.226001
      6.80000      0.222534
      6.90000      0.286903
      7.00000      0.306420
      7.10000      0.318081
      7.20000      0.325518
      7.30000      0.329905
      7.40000      0.331270
      7.50000      0.330635
      7.60000      0.328164
      7.70000      0.323112
      7.80000      0.315038
      7.90000      0.307301
      8.00000      0.433472
      8.10000      0.462817
      8.20000      0.458358
      8.30000      0.451696
      8.40000      0.443046
      8.50000      0.433536
      8.60000      0.423136
      8.70000      0.412171
      8.80000      0.400609
      8.90000      0.388669
      9.00000      0.376401
      9.10000      0.363877
      9.20000      0.351188
      9.30000      0.338401
      9.40000      0.325552
      9.50000      0.312689
      9.60000      0.299896
      9.70000      0.287177
      9.80000      0.274590
      9.90000      0.262204
      10.0000      0.250048
      10.1000      0.238116
      10.2000      0.226430
      10.3000      0.215031
      10.4000      0.203937
      10.5000      0.193138
      10.6000      0.182648
      10.7000      0.172479
      10.8000      0.162657
      10.9000      0.153209
      11.0000      0.144106
      11.1000      0.135355
      11.2000      0.126958
      11.3000      0.118915
      11.4000      0.111223
      11.5000      0.103877
      11.6000     0.0968767
      11.7000     0.0902304
      11.8000     0.0839166
      11.9000     0.0779138
      12.0000     0.0721457
      12.1000     0.0669274
      12.2000     0.0631338
      12.3000     0.0588700
      12.4000     0.0544169
      12.5000     0.0501992
      12.6000     0.0462324
      12.7000     0.0425154
      12.8000     0.0390397
      12.9000     0.0357946
      13.0000     0.0327714
      13.1000     0.0299602
      13.2000     0.0273544
      13.3000     0.0249559
      13.4000     0.0227460
      13.5000     0.0207047
      13.6000     0.0188338
      13.7000     0.0171091
      13.8000     0.0155208
      13.9000     0.0140606
      14.0000     0.0127194
      14.1000     0.0114873
      14.2000     0.0103557
      14.3000    0.00931887
      14.4000    0.00837128
      14.5000    0.00751167
      14.6000    0.00673637
      14.7000    0.00603059
      14.8000    0.00538896
      14.9000    0.00480643
      15.0000    0.00427838
      15.1000    0.00380057
      15.2000    0.00337768
      15.3000    0.00299734
      15.4000    0.00265420
      15.5000    0.00234508
      15.6000    0.00206717
      15.7000    0.00182128
      15.8000    0.00160475
      15.9000    0.00141046
      16.0000    0.00123643
      16.1000    0.00108087
      16.2000   0.000946226
      16.3000   0.000827272
      16.4000   0.000721042
      16.5000   0.000626397
      16.6000   0.000544119
      16.7000   0.000472971
      16.8000   0.000409617
      16.9000   0.000353378
      17.0000   0.000304995
      17.1000   0.000263622
      17.2000   0.000227057
      17.3000   0.000194863
      17.4000   0.000167884
      17.5000   0.000144329
      17.6000   0.000123595
      17.7000   0.000105956
      17.8000   9.16478e-05
      17.9000   7.89303e-05
      18.0000   6.76241e-05
      18.1000   5.83058e-05
      18.2000   4.99578e-05
      18.3000   4.24432e-05
      18.4000   3.60391e-05
      18.5000   3.04734e-05
      18.6000   2.55018e-05
      18.7000   2.13094e-05
      18.8000   1.77988e-05
      18.9000   1.47215e-05
      19.0000   1.22287e-05
      19.1000   1.01525e-05
      19.2000   8.33573e-06
      19.3000   6.89535e-06
      19.4000   5.69597e-06
      19.5000   4.65871e-06
      19.6000   3.88329e-06
      19.7000   3.21008e-06
      19.8000   2.62751e-06
      19.9000   2.18435e-06
      20.0000   1.78981e-06
      20.1000   1.46616e-06
      20.2000   1.20746e-06
      20.3000   9.78812e-07
      20.4000   8.03989e-07
      20.5000   6.54554e-07
      20.6000   5.27749e-07
      20.7000   4.32282e-07
      20.8000   3.47116e-07
      20.9000   2.81726e-07
      21.0000   2.27270e-07
      21.1000   1.81030e-07
      21.2000   1.46973e-07
      21.3000   1.16451e-07
      21.4000   9.37945e-08
      21.5000   7.46292e-08
      21.6000   5.89995e-08
      21.7000   4.71987e-08
      21.8000   3.66797e-08
      21.9000   2.94205e-08
      22.0000   2.28939e-08
      22.1000   1.80623e-08
      22.2000   1.41071e-08
      22.3000   1.09137e-08
      22.4000   8.44639e-09
      22.5000   6.21629e-09
      22.6000   4.47693e-09
      22.7000   3.02800e-09
      22.8000   2.90777e-09
      22.9000   2.88712e-09
      23.0000   2.93511e-09
      23.1000   2.73680e-09
      23.2000   2.30700e-09
      23.3000   1.88468e-09
      23.4000   1.46653e-09
      23.5000   1.16573e-09
      23.6000   8.94178e-10
      23.7000   7.11832e-10
      23.8000   5.39386e-10
      23.9000   4.29223e-10
      24.0000   3.24758e-10
      24.1000   2.56312e-10
      24.2000   1.93504e-10
      24.3000   1.51620e-10
      24.4000   1.14251e-10
      24.5000   8.89135e-11
      24.6000   6.68263e-11
      24.7000   5.17033e-11
      24.8000   3.87419e-11
      24.9000   2.98237e-11
      25.0000   2.22579e-11
      25.1000   1.70666e-11
      25.2000   1.26737e-11
      25.3000   9.68915e-12
      25.4000   7.15019e-12
      25.5000   5.45731e-12
      25.6000   3.99716e-12
      25.7000   3.04948e-12
      25.8000   2.21357e-12
      25.9000   1.69011e-12
      26.0000   1.21396e-12
      26.1000   9.28726e-13
      26.2000   6.58977e-13
      26.3000   5.05768e-13
      26.4000   3.53978e-13
      26.5000   2.72849e-13
      26.6000   1.92092e-13
      26.7000   1.45725e-13
      26.8000   1.03598e-13
      26.9000   7.70111e-14
      27.0000   5.53518e-14
      27.1000   4.02253e-14
      27.2000   2.92563e-14
      27.3000   2.07711e-14
      27.4000   1.53697e-14
      27.5000   1.06831e-14
      27.6000   7.98977e-15
      27.7000   5.38606e-15
      27.8000   4.08174e-15
      27.9000   2.78327e-15
      28.0000   2.05386e-15
      28.1000   1.43738e-15
      28.2000   1.01799e-15
      28.3000   7.30252e-16
      28.4000   4.96586e-16
      28.5000   3.64610e-16
      28.6000   2.38225e-16
      28.7000   1.78774e-16
      28.8000   1.19594e-16
      28.9000   8.60212e-17
      29.0000   5.98209e-17
      29.1000   4.05777e-17
      29.2000   2.91920e-17
      29.3000   1.87526e-17
      29.4000   1.38986e-17
      29.5000   9.06712e-18
      29.6000   6.45658e-18
      29.7000   4.43686e-18
      29.8000   2.92670e-18
      29.9000   2.09887e-18
      30.0000   1.29429e-18
      30.1000   9.61813e-19
      30.2000   6.30883e-19
      30.3000   4.30962e-19
      30.4000   3.06117e-19
      30.5000   1.96769e-19
      30.6000   1.43364e-19
      30.7000   9.02087e-20
      30.8000   6.24855e-20
      30.9000   4.24586e-20
      31.0000   2.63777e-20
      31.1000   1.90924e-20
      31.2000   1.18412e-20
      31.3000   8.33523e-21
      31.4000   5.63950e-21
      31.5000   3.50081e-21
      31.6000   2.52023e-21
      31.7000   1.54429e-21
      31.8000   1.07033e-21
      31.9000   7.23605e-22
      32.0000   4.36410e-22
      32.1000   3.18259e-22
      32.2000   2.00663e-22
      32.3000   1.35638e-22
      32.4000   9.38761e-23
      32.5000   5.52698e-23
      32.6000   4.07631e-23
      32.7000   2.63244e-23
      32.8000   1.67202e-23
      32.9000   1.18117e-23
      33.0000   6.92643e-24
      33.1000   4.90882e-24
      33.2000   3.28593e-24
      33.3000   1.92457e-24
      33.4000   1.39733e-24
      33.5000   8.72516e-25
      33.6000   5.51292e-25
      33.7000   3.84797e-25
      33.8000   2.19052e-25
      33.9000   1.53645e-25
      34.0000   1.02303e-25
      34.1000   5.71604e-26
      34.2000   4.16461e-26
      34.3000   2.61966e-26
      34.4000   1.55215e-26
      34.5000   1.09697e-26
      34.6000   6.43734e-27
      34.7000   4.10921e-27
      34.8000   2.80731e-27
      34.9000   1.51087e-27
      35.0000   1.05991e-27
      35.1000   6.97697e-28
      35.2000   3.65197e-28
      35.3000   2.66686e-28
      35.4000   1.68588e-28
      35.5000   9.14475e-29
      35.6000   6.54906e-29
      35.7000   3.96424e-29
      35.8000   2.23567e-29
      35.9000   1.57060e-29
      36.0000   9.08320e-30
      36.1000   5.33647e-30
      36.2000   3.68093e-30
      36.3000   2.03232e-30
      36.4000   1.24418e-30
      36.5000   8.43926e-31
      36.6000   4.45381e-31
      36.7000   2.83387e-31
      36.8000   1.89461e-31
      36.9000   9.59372e-32
      37.0000   6.30617e-32
      37.1000   4.16805e-32
      37.2000   2.03893e-32
      37.3000   1.37075e-32
      37.4000   8.98974e-33
      37.5000   4.29222e-33
      37.6000   2.91016e-33
      37.7000   1.90188e-33
      37.8000   8.97928e-34
      37.9000   6.03359e-34
      38.0000   3.94663e-34
      38.1000   1.86853e-34
      38.2000   1.22047e-34
      38.3000   8.02471e-35
      38.4000   3.86247e-35
      38.5000   2.40521e-35
      38.6000   1.59638e-35
      38.7000   7.90991e-36
      38.8000   4.61532e-36
      38.9000   3.10351e-36
      39.0000   1.59808e-36
      39.1000   8.61575e-37
      39.2000   5.88644e-37
      39.3000   3.16862e-37
      39.4000   1.56045e-37
      39.5000   1.08217e-37
      39.6000   6.05938e-38
      39.7000   2.66027e-38
      39.8000   1.88139e-38
      39.9000   1.10579e-38
      40.0000   4.37438e-39
      40.1000   3.15790e-39
      40.2000   1.94655e-39
      40.3000   7.40442e-40
      40.4000   5.11900e-40
      40.5000   3.29969e-40
      40.6000   1.48798e-40
      40.7000   7.99343e-41
      40.8000   5.36908e-41
      40.9000   2.75565e-41
      41.0000   1.19937e-41
      41.1000   8.36435e-42
      41.2000   4.74760e-42
      41.3000   1.72780e-42
      41.4000   1.24295e-42
      41.5000   7.66510e-43
      41.6000   2.90069e-43
      41.7000   1.75162e-43
      41.8000   1.14906e-43
      41.9000   5.46506e-44
      42.0000   2.52234e-44
      42.1000   1.96182e-44
      42.2000   9.80909e-45
      42.3000   2.80260e-45
      42.4000   2.80260e-45
      42.5000   2.80260e-45
      42.6000  -2.80260e-45
      42.7000       0.00000
      42.8000       0.00000
      42.9000       0.00000
      43.0000       0.00000
      43.1000       0.00000
      43.2000       0.00000
      43.3000       0.00000
      43.4000       0.00000
      43.5000       0.00000
      43.6000       0.00000
      43.7000       0.00000
      43.8000       0.00000
      43.9000       0.00000
      44.0000       0.00000
      44.1000       0.00000
      44.2000       0.00000
      44.3000       0.00000
      44.4000       0.00000
      44.5000       0.00000
      44.6000       0.00000
      44.7000       0.00000
      44.8000       0.00000
      44.9000       0.00000
      45.0000       0.00000
      45.1000       0.00000
      45.2000       0.00000
      45.3000       0.00000
      45.4000       0.00000
      45.5000       0.00000
      45.6000       0.00000
      45.7000       0.00000
      45.8000       0.00000
      45.9000       0.00000
      46.0000       0.00000
      46.1000       0.00000
      46.2000       0.00000
      46.3000       0.00000
      46.4000       0.00000
      46.5000       0.00000
      46.6000       0.00000
      46.7000       0.00000
      46.8000       0.00000
      46.9000       0.00000
      47.0000       0.00000
      47.1000       0.00000
      47.2000       0.00000
      47.3000       0.00000
      47.4000       0.00000
      47.5000       0.00000
      47.6000       0.00000
      47.7000       0.00000
      47.8000       0.00000
      47.9000       0.00000
      48.0000       0.00000
      48.1000       0.00000
      48.2000       0.00000
      48.3000       0.00000
      48.4000       0.00000
      48.5000       0.00000
      48.6000       0.00000
      48.7000       0.00000
      48.8000       0.00000
      48.9000       0.00000
      49.0000       0.00000
      49.1000       0.00000
      49.2000       0.00000
      49.3000       0.00000
      49.4000       0.00000
      49.5000       0.00000
      49.6000       0.00000
      49.7000       0.00000
      49.8000       0.00000
      49.9000       0.00000
      50.0000       0.00000
      50.1000       0.00000
      50.2000       0.00000
      50.3000       0.00000
      50.4000       0.00000
      50.5000       0.00000
      50.6000       0.00000
      50.7000       0.00000
      50.8000       0.00000
      50.9000       0.00000
      51.0000       0.00000
      51.1000       0.00000
      51.2000       0.00000
      51.3000       0.00000
      51.4000       0.00000
      51.5000       0.00000
      51.6000       0.00000
      51.7000       0.00000
      51.8000       0.00000
      51.9000       0.00000
      52.0000       0.00000
      52.1000       0.00000
      52.2000       0.00000
      52.3000       0.00000
      52.4000       0.00000
      52.5000       0.00000
      52.6000       0.00000
      52.7000       0.00000
      52.8000       0.00000
      52.9000       0.00000
      53.0000       0.00000
      53.1000       0.00000
      53.2000       0.00000
      53.3000       0.00000
      53.4000       0.00000
      53.5000       0.00000
      53.6000       0.00000
      53.7000       0.00000
      53.8000       0.00000
      53.9000       0.00000
      54.0000       0.00000
      54.1000       0.00000
      54.2000       0.00000
      54.3000       0.00000
      54.4000       0.00000
      54.5000       0.00000
      54.6000       0.00000
      54.7000       0.00000
      54.8000       0.00000
      54.9000       0.00000
      55.0000       0.00000
      55.1000       0.00000
      55.2000       0.00000
      55.3000       0.00000
      55.4000       0.00000
      55.5000       0.00000
      55.6000       0.00000
      55.7000       0.00000
      55.8000       0.00000
      55.9000       0.00000
      56.0000       0.00000
      56.1000       0.00000
      56.2000       0.00000
      56.3000       0.00000
      56.4000       0.00000
      56.5000       0.00000
      56.6000       0.00000
      56.7000       0.00000
      56.8000       0.00000
      56.9000       0.00000
      57.0000       0.00000
      57.1000       0.00000
      57.2000       0.00000
      57.3000       0.00000
      57.4000       0.00000
      57.5000       0.00000
      57.6000       0.00000
      57.7000       0.00000
      57.8000       0.00000
      57.9000       0.00000
      58.0000       0.00000
      58.1000       0.00000
      58.2000       0.00000
      58.3000       0.00000
      58.4000       0.00000
      58.5000       0.00000
      58.6000       0.00000
      58.7000       0.00000
      58.8000       0.00000
      58.9000       0.00000
      59.0000       0.00000
      59.1000       0.00000
      59.2000       0.00000
      59.3000       0.00000
      59.4000       0.00000
      59.5000       0.00000
      59.6000       0.00000
      59.7000       0.00000
      59.8000       0.00000
      59.9000       0.00000
      60.0000       0.00000
      60.1000       0.00000
      60.2000       0.00000
      60.3000       0.00000
      60.4000       0.00000
      60.5000       0.00000
      60.6000       0.00000
      60.7000       0.00000
      60.8000       0.00000
      60.9000       0.00000
      61.0000       0.00000
      61.1000       0.00000
      61.2000       0.00000
      61.3000       0.00000
      61.4000       0.00000
      61.5000       0.00000
      61.6000       0.00000
      61.7000       0.00000
      61.8000       0.00000
      61.9000       0.00000
      62.0000       0.00000
      62.1000       0.00000
      62.2000       0.00000
      62.3000       0.00000
      62.4000       0.00000
      62.5000       0.00000
      62.6000       0.00000
      62.7000       0.00000
      62.8000       0.00000
      62.9000       0.00000
      63.0000       0.00000
      63.1000       0.00000
      63.2000       0.00000
      63.3000       0.00000
      63.4000       0.00000
      63.5000       0.00000
      63.6000       0.00000
      63.7000       0.00000
      63.8000       0.00000
      63.9000       0.00000
      64.0000       0.00000
      64.1000       0.00000
      64.2000       0.00000
      64.3000       0.00000
      64.4000       0.00000
      64.5000       0.00000
      64.6000       0.00000
      64.7000       0.00000
      64.8000       0.00000
      64.9000       0.00000
      65.0000       0.00000
      65.1000       0.00000
      65.2000       0.00000
      65.3000       0.00000
      65.4000       0.00000
      65.5000       0.00000
      65.6000       0.00000
      65.7000       0.00000
      65.8000       0.00000
      65.9000       0.00000
      66.0000       0.00000
      66.1000       0.00000
      66.2000       0.00000
      66.3000       0.00000
      66.4000       0.00000
      66.5000       0.00000
      66.6000       0.00000
      66.7000       0.00000
      66.8000       0.00000
      66.9000       0.00000
      67.0000       0.00000
      67.1000       0.00000
      67.2000       0.00000
      67.3000       0.00000
      67.4000       0.00000
      67.5000       0.00000
      67.6000       0.00000
      67.7000       0.00000
      67.8000       0.00000
      67.9000       0.00000
      68.0000       0.00000
      68.1000       0.00000
      68.2000       0.00000
      68.3000       0.00000
      68.4000       0.00000
      68.5000       0.00000
      68.6000       0.00000
      68.7000       0.00000
      68.8000       0.00000
      68.9000       0.00000
      69.0000       0.00000
      69.1000       0.00000
      69.2000       0.00000
      69.3000       0.00000
      69.4000       0.00000
      69.5000       0.00000
      69.6000       0.00000
      69.7000       0.00000
      69.8000       0.00000
      69.9000       0.00000
      70.0000       0.00000
      70.1000       0.00000
      70.2000       0.00000
      70.3000       0.00000
      70.4000       0.00000
      70.5000       0.00000
      70.6000       0.00000
      70.7000       0.00000
      70.8000       0.00000
      70.9000       0.00000
      71.0000       0.00000
      71.1000       0.00000
      71.2000       0.00000
      71.3000       0.00000
      71.4000       0.00000
      71.5000       0.00000
      71.6000       0.00000
      71.7000       0.00000
      71.8000       0.00000
      71.9000       0.00000
      72.0000       0.00000
      72.1000       0.00000
      72.2000       0.00000
      72.3000       0.00000
      72.4000       0.00000
      72.5000       0.00000
      72.6000       0.00000
      72.7000       0.00000
      72.8000       0.00000
      72.9000       0.00000
      73.0000       0.00000
      73.1000       0.00000
      73.2000       0.00000
      73.3000       0.00000
      73.4000       0.00000
      73.5000       0.00000
      73.6000       0.00000
      73.7000       0.00000
      73.8000       0.00000
      73.9000       0.00000
      74.0000       0.00000
      74.1000       0.00000
      74.2000       0.00000
      74.3000       0.00000
      74.4000       0.00000
      74.5000       0.00000
      74.6000       0.00000
      74.7000       0.00000
      74.8000       0.00000
      74.9000       0.00000
      75.0000       0.00000
      75.1000       0.00000
      75.2000       0.00000
      75.3000       0.00000
      75.4000       0.00000
      75.5000       0.00000
      75.6000       0.00000
      75.7000       0.00000
      75.8000       0.00000
      75.9000       0.00000
      76.0000       0.00000
      76.1000       0.00000
      76.2000       0.00000
      76.3000       0.00000
      76.4000       0.00000
      76.5000       0.00000
      76.6000       0.00000
      76.7000       0.00000
      76.8000       0.00000
      76.9000       0.00000
      77.0000       0.00000
      77.1000       0.00000
      77.2000       0.00000
      77.3000       0.00000
      77.4000       0.00000
      77.5000       0.00000
      77.6000       0.00000
      77.7000       0.00000
      77.8000       0.00000
      77.9000       0.00000
      78.0000       0.00000
      78.1000       0.00000
      78.2000       0.00000
      78.3000       0.00000
      78.4000       0.00000
      78.5000       0.00000
      78.6000       0.00000
      78.7000       0.00000
      78.8000       0.00000
      78.9000       0.00000
      79.0000       0.00000
      79.1000       0.00000
      79.2000       0.00000
      79.3000       0.00000
      79.4000       0.00000
      79.5000       0.00000
      79.6000       0.00000
      79.7000       0.00000
      79.8000       0.00000
      79.9000       0.00000
      80.0000       0.00000
      80.1000       0.00000
      80.2000       0.00000
      80.3000       0.00000
      80.4000       0.00000
      80.5000       0.00000
      80.6000       0.00000
      80.7000       0.00000
      80.8000       0.00000
      80.9000       0.00000
      81.0000       0.00000
      81.1000       0.00000
      81.2000       0.00000
      81.3000       0.00000
      81.4000       0.00000
      81.5000       0.00000
      81.6000       0.00000
      81.7000       0.00000
      81.8000       0.00000
      81.9000       0.00000
      82.0000       0.00000
      82.1000       0.00000
      82.2000       0.00000
      82.3000       0.00000
      82.4000       0.00000
      82.5000       0.00000
      82.6000       0.00000
      82.7000       0.00000
      82.8000       0.00000
      82.9000       0.00000
      83.0000       0.00000
      83.1000       0.00000
      83.2000       0.00000
      83.3000       0.00000
      83.4000       0.00000
      83.5000       0.00000
      83.6000       0.00000
      83.7000       0.00000
      83.8000       0.00000
      83.9000       0.00000
      84.0000       0.00000
      84.1000       0.00000
      84.2000       0.00000
      84.3000       0.00000
      84.4000       0.00000
      84.5000       0.00000
      84.6000       0.00000
      84.7000       0.00000
      84.8000       0.00000
      84.9000       0.00000
      85.0000       0.00000
      85.1000       0.00000
      85.2000       0.00000
      85.3000       0.00000
      85.4000       0.00000
      85.5000       0.00000
      85.6000       0.00000
      85.7000       0.00000
      85.8000       0.00000
      85.9000       0.00000
      86.0000       0.00000
      86.1000       0.00000
      86.2000       0.00000
      86.3000       0.00000
      86.4000       0.00000
      86.5000       0.00000
      86.6000       0.00000
      86.7000       0.00000
      86.8000       0.00000
      86.9000       0.00000
      87.0000       0.00000
      87.1000       0.00000
      87.2000       0.00000
      87.3000       0.00000
      87.4000       0.00000
      87.5000       0.00000
      87.6000       0.00000
      87.7000       0.00000
      87.8000       0.00000
      87.9000       0.00000
      88.0000       0.00000
      88.1000       0.00000
      88.2000       0.00000
      88.3000       0.00000
      88.4000       0.00000
      88.5000       0.00000
      88.6000       0.00000
      88.7000       0.00000
      88.8000       0.00000
      88.9000       0.00000
      89.0000       0.00000
      89.1000       0.00000
      89.2000       0.00000
      89.3000       0.00000
      89.4000       0.00000
      89.5000       0.00000
      89.6000       0.00000
      89.7000       0.00000
      89.8000       0.00000
      89.9000       0.00000
      90.0000       0.00000
      90.1000       0.00000
      90.2000       0.00000
      90.3000       0.00000
      90.4000       0.00000
      90.5000       0.00000
      90.6000       0.00000
      90.7000       0.00000
      90.8000       0.00000
      90.9000       0.00000
      91.0000       0.00000
      91.1000       0.00000
      91.2000       0.00000
      91.3000       0.00000
      91.4000       0.00000
      91.5000       0.00000
      91.6000       0.00000
      91.7000       0.00000
      91.8000       0.00000
      91.9000       0.00000
      92.0000       0.00000
      92.1000       0.00000
      92.2000       0.00000
      92.3000       0.00000
      92.4000       0.00000
      92.5000       0.00000
      92.6000       0.00000
      92.7000       0.00000
      92.8000       0.00000
      92.9000       0.00000
      93.0000       0.00000
      93.1000       0.00000
      93.2000       0.00000
      93.3000       0.00000
      93.4000       0.00000
      93.5000       0.00000
      93.6000       0.00000
      93.7000       0.00000
      93.8000       0.00000
      93.9000       0.00000
      94.0000       0.00000
      94.1000       0.00000
      94.2000       0.00000
      94.3000       0.00000
      94.4000       0.00000
      94.5000       0.00000
      94.6000       0.00000
      94.7000       0.00000
      94.8000       0.00000
      94.9000       0.00000
      95.0000       0.00000
      95.1000       0.00000
      95.2000       0.00000
      95.3000       0.00000
      95.4000       0.00000
      95.5000       0.00000
      95.6000       0.00000
      95.7000       0.00000
      95.8000       0.00000
      95.9000       0.00000
      96.0000       0.00000
      96.1000       0.00000
      96.2000       0.00000
      96.3000       0.00000
      96.4000       0.00000
      96.5000       0.00000
      96.6000       0.00000
      96.7000       0.00000
      96.8000       0.00000
      96.9000       0.00000
      97.0000       0.00000
      97.1000       0.00000
      97.2000       0.00000
      97.3000       0.00000
      97.4000       0.00000
      97.5000       0.00000
      97.6000       0.00000
      97.7000       0.00000
      97.8000       0.00000
      97.9000       0.00000
      98.0000       0.00000
      98.1000       0.00000
      98.2000       0.00000
      98.3000       0.00000
      98.4000       0.00000
      98.5000       0.00000
      98.6000       0.00000
      98.7000       0.00000
      98.8000       0.00000
      98.9000       0.00000
      99.0000       0.00000
      99.1000       0.00000
      99.2000       0.00000
      99.3000       0.00000
      99.4000       0.00000
      99.5000       0.00000
      99.6000       0.00000
      99.7000       0.00000
      99.8000       0.00000
      99.9000       0.00000
      100.000       0.00000
      100.100       0.00000
      100.200       0.00000
      100.300       0.00000
      100.400       0.00000
      100.500       0.00000
      100.600       0.00000
      100.700       0.00000
      100.800       0.00000
      100.900       0.00000
      101.000       0.00000
      101.100       0.00000
      101.200       0.00000
      101.300       0.00000
      101.400       0.00000
      101.500       0.00000
      101.600       0.00000
      101.700       0.00000
      101.800       0.00000
      101.900       0.00000
      102.000       0.00000
      102.100       0.00000
      102.200       0.00000
      102.300       0.00000
      102.400       0.00000
      102.500       0.00000
      102.600       0.00000
      102.700       0.00000
      102.800       0.00000
      102.900       0.00000
      103.000       0.00000
      103.100       0.00000
      103.200       0.00000
      103.300       0.00000
      103.400       0.00000
      103.500       0.00000
      103.600       0.00000
      103.700       0.00000
      103.800       0.00000
      103.900       0.00000
      104.000       0.00000
      104.100       0.00000
      104.200       0.00000
      104.300       0.00000
      104.400       0.00000
      104.500       0.00000
      104.600       0.00000
      104.700       0.00000
      104.800       0.00000
      104.900       0.00000
      105.000       0.00000
      105.100       0.00000
      105.200       0.00000
      105.300       0.00000
      105.400       0.00000
      105.500       0.00000
      105.600       0.00000
      105.700       0.00000
      105.800       0.00000
      105.900       0.00000
      106.000       0.00000
      106.100       0.00000
      106.200       0.00000
      106.300       0.00000
      106.400       0.00000
      106.500       0.00000
      106.600       0.00000
      106.700       0.00000
      106.800       0.00000
      106.900       0.00000
      107.000       0.00000
      107.100       0.00000
      107.200       0.00000
      107.300       0.00000
      107.400       0.00000
      107.500       0.00000
      107.600       0.00000
      107.700       0.00000
      107.800       0.00000
      107.900       0.00000
      108.000       0.00000
      108.100       0.00000
      108.200       0.00000
      108.300       0.00000
      108.400       0.00000
      108.500       0.00000
      108.600       0.00000
      108.700       0.00000
      108.800       0.00000
      108.900       0.00000
      109.000       0.00000
      109.100       0.00000
      109.200       0.00000
      109.300       0.00000
      109.400       0.00000
      109.500       0.00000
      109.600       0.00000
      109.700       0.00000
      109.800       0.00000
      109.900       0.00000
      110.000       0.00000
      110.100       0.00000
      110.200       0.00000
      110.300       0.00000
      110.400       0.00000
      110.500       0.00000
      110.600       0.00000
      110.700       0.00000
      110.800       0.00000
      110.900   5.03852e-35
      111.000   2.70420e-28
      111.100   3.19323e-24
      111.200   4.43448e-23
      111.300   2.23625e-22
      111.400   7.39158e-22
      111.500   9.79968e-22
      111.600   1.32861e-21
      111.700   2.45241e-21
      111.800   4.44895e-21
      111.900   5.81998e-21
      112.000   9.35733e-21
      112.100   1.67664e-20
      112.200   2.55545e-20
      112.300   3.28311e-20
      112.400   4.10677e-20
      112.500   5.46003e-20
      112.600   7.75950e-20
      112.700   1.05528e-19
      112.800   1.21919e-19
      112.900   1.58092e-19
      113.000   2.02300e-19
      113.100   2.42370e-19
      113.200   2.78599e-19
      113.300   2.83639e-19
      113.400   3.54879e-19
      113.500   4.39253e-19
      113.600   4.53180e-19
      113.700   5.45883e-19
      113.800   6.21497e-19
      113.900   6.92089e-19
      114.000   7.37498e-19
      114.100   7.69829e-19
      114.200   9.91158e-19
      114.300   1.14011e-18
      114.400   1.10709e-18
      114.500   1.01472e-18
      114.600   1.01245e-18
      114.700   1.02991e-18
      114.800   1.07491e-18
      114.900   1.18795e-18
      115.000   1.30494e-18
      115.100   1.38263e-18
      115.200   1.40407e-18
      115.300   1.42713e-18
      115.400   1.44925e-18
      115.500   1.47233e-18
      115.600   1.49516e-18
      115.700   1.51743e-18
      115.800   1.54116e-18
      115.900   1.56460e-18
      116.000   1.58440e-18
      116.100   1.59291e-18
      116.200   1.59975e-18
      116.300   1.60621e-18
      116.400   1.60615e-18
      116.500   1.57177e-18
      116.600   1.53777e-18
      116.700   1.50477e-18
      116.800   1.47215e-18
      116.900   1.43890e-18
      117.000   1.40787e-18
      117.100   1.38165e-18
      117.200   1.35879e-18
      117.300   1.33354e-18
      117.400   1.30857e-18
      117.500   1.27799e-18
      117.600   1.23433e-18
      117.700   1.18825e-18
      117.800   1.14312e-18
      117.900   1.09932e-18
      118.000   1.05652e-18
      118.100   1.01478e-18
      118.200   9.75177e-19
      118.300   9.37294e-19
      118.400   8.98727e-19
      118.500   8.61898e-19
      118.600   8.27453e-19
      118.700   7.94060e-19
      118.800   7.61585e-19
      118.900   7.30690e-19
      119.000   7.00099e-19
      119.100   6.69745e-19
      119.200   6.46941e-19
      119.300   6.34824e-19
      119.400   6.25715e-19
      119.500   6.14039e-19
      119.600   5.97939e-19
      119.700   5.80408e-19
      119.800   5.62178e-19
      119.900   5.42946e-19
      120.000   5.24803e-19
      120.100   5.07606e-19
      120.200   4.92724e-19
      120.300   4.79269e-19
      120.400   4.66162e-19
      120.500   4.52054e-19
      120.600   4.37349e-19
      120.700   4.22780e-19
      120.800   4.08864e-19
      120.900   3.96993e-19
      121.000   3.87914e-19
      121.100   3.79206e-19
      121.200   3.71320e-19
      121.300   3.62840e-19
      121.400   3.53923e-19
      121.500   3.44643e-19
      121.600   3.30045e-19
      121.700   3.15731e-19
      121.800   3.01416e-19
      121.900   2.87624e-19
      122.000   2.74042e-19
      122.100   2.61307e-19
      122.200   2.49157e-19
      122.300   2.38707e-19
      122.400   2.29917e-19
      122.500   2.21701e-19
      122.600   2.13623e-19
      122.700   2.05824e-19
      122.800   1.98056e-19
      122.900   1.90711e-19
      123.000   1.84840e-19
      123.100   1.81252e-19
      123.200   1.78771e-19
      123.300   1.80182e-19
      123.400   1.82388e-19
      123.500   1.85719e-19
      123.600   1.88068e-19
      123.700   1.86675e-19
      123.800   1.82172e-19
      123.900   1.78279e-19
      124.000   1.75258e-19
      124.100   1.75016e-19
      124.200   1.81258e-19
      124.300   1.92584e-19
      124.400   2.02805e-19
      124.500   2.02472e-19
      124.600   1.97024e-19
      124.700   1.89396e-19
      124.800   1.82109e-19
      124.900   1.75097e-19
      125.000   1.68343e-19
      125.100   1.61789e-19
      125.200   1.55482e-19
      125.300   1.49415e-19
      125.400   1.43584e-19
      125.500   1.37981e-19
      125.600   1.31059e-19
      125.700   1.24136e-19
      125.800   1.18412e-19
      125.900   1.16287e-19
      126.000   1.14438e-19
      126.100   1.12619e-19
      126.200   1.10830e-19
      126.300   1.09069e-19
      126.400   1.07336e-19
      126.500   1.05630e-19
      126.600   1.03952e-19
      126.700   1.02301e-19
      126.800   1.00677e-19
      126.900   9.90783e-20
      127.000   9.75024e-20
      127.100   9.54191e-20
      127.200   9.27664e-20
      127.300   8.99839e-20
      127.400   8.72839e-20
      127.500   8.46639e-20
      127.600   8.21222e-20
      127.700   7.96563e-20
      127.800   7.72636e-20
      127.900   7.49418e-20
      128.000   7.26893e-20
      128.100   7.05033e-20
      128.200   6.83825e-20
      128.300   6.63246e-20
      128.400   6.43287e-20
      128.500   6.23918e-20
      128.600   6.05132e-20
      128.700   5.86910e-20
      128.800   5.69226e-20
      128.900   5.52083e-20
      129.000   5.35463e-20
      129.100   5.19332e-20
      129.200   5.03649e-20
      129.300   4.88432e-20
      129.400   4.73674e-20
      129.500   4.59359e-20
      129.600   4.45475e-20
      129.700   4.32007e-20
      129.800   4.18941e-20
      129.900   4.06271e-20
      130.000   3.93984e-20
      130.100   3.82067e-20
      130.200   3.70505e-20
      130.300   3.59295e-20
      130.400   3.48423e-20
      130.500   3.37870e-20
      130.600   3.27600e-20
      130.700   3.17626e-20
      130.800   3.07953e-20
      130.900   2.98584e-20
      131.000   2.89501e-20
      131.100   2.80695e-20
      131.200   2.72153e-20
      131.300   2.63861e-20
      131.400   2.55821e-20
      131.500   2.48023e-20
      131.600   2.40460e-20
      131.700   2.33126e-20
      131.800   2.26012e-20
      131.900   2.19111e-20
      132.000   2.12419e-20
      132.100   2.05928e-20
      132.200   1.99633e-20
      132.300   1.93528e-20
      132.400   1.87607e-20
      132.500   1.81873e-20
      132.600   1.76317e-20
      132.700   1.70604e-20
      132.800   1.64964e-20
      132.900   1.59492e-20
      133.000   1.54199e-20
      133.100   1.49079e-20
      133.200   1.44128e-20
      133.300   1.39336e-20
      133.400   1.34703e-20
      133.500   1.30220e-20
      133.600   1.25886e-20
      133.700   1.21694e-20
      133.800   1.17640e-20
      133.900   1.13731e-20
      134.000   1.09951e-20
      134.100   1.06295e-20
      134.200   1.02760e-20
      134.300   9.93400e-21
      134.400   9.60329e-21
      134.500   9.28357e-21
      134.600   8.97429e-21
      134.700   8.67520e-21
      134.800   8.38603e-21
      134.900   8.10656e-21
      135.000   7.83622e-21
      135.100   7.57548e-21
      135.200   7.32345e-21
      135.300   7.07972e-21
      135.400   6.84397e-21
      135.500   6.61574e-21
      135.600   6.39486e-21
      135.700   6.18125e-21
      135.800   5.97463e-21
      135.900   5.77485e-21
      136.000   5.58159e-21
      136.100   5.39467e-21
      136.200   5.21444e-21
      136.300   5.04019e-21
      136.400   4.87174e-21
      136.500   4.70883e-21
      136.600   4.55120e-21
      136.700   4.39878e-21
      136.800   4.25137e-21
      136.900   4.10886e-21
      137.000   3.97113e-21
      137.100   3.83816e-21
      137.200   3.70977e-21
      137.300   3.58593e-21
      137.400   3.46616e-21
      137.500   3.35028e-21
      137.600   3.23818e-21
      137.700   3.12971e-21
      137.800   3.02479e-21
      137.900   2.92331e-21
      138.000   2.82519e-21
      138.100   2.73030e-21
      138.200   2.63888e-21
      138.300   2.55051e-21
      138.400   2.46508e-21
      138.500   2.38245e-21
      138.600   2.30253e-21
      138.700   2.22527e-21
      138.800   2.15055e-21
      138.900   2.07828e-21
      139.000   2.00840e-21
      139.100   1.94103e-21
      139.200   1.87631e-21
      139.300   1.81404e-21
      139.400   1.75391e-21
      139.500   1.69574e-21
      139.600   1.63943e-21
      139.700   1.58497e-21
      139.800   1.53227e-21
      139.900   1.48130e-21
      140.000   1.43219e-21
      140.100   1.38468e-21
      140.200   1.33871e-21
      140.300   1.29424e-21
      140.400   1.25121e-21
      140.500   1.20956e-21
      140.600   1.16927e-21
      140.700   1.13028e-21
      140.800   1.09272e-21
      140.900   1.05641e-21
      141.000   1.02127e-21
      141.100   9.87270e-22
      141.200   9.54380e-22
      141.300   9.22550e-22
      141.400   8.91853e-22
      141.500   8.62637e-22
      141.600   8.34760e-22
      141.700   8.07795e-22
      141.800   7.81681e-22
      141.900   7.56388e-22
      142.000   7.31891e-22
      142.100   7.08438e-22
      142.200   6.86517e-22
      142.300   6.65935e-22
      142.400   6.46046e-22
      142.500   6.26729e-22
      142.600   6.07967e-22
      142.700   5.89748e-22
      142.800   5.72060e-22
      142.900   5.54889e-22
      143.000   5.38214e-22
      143.100   5.22080e-22
      143.200   5.06444e-22
      143.300   4.91257e-22
      143.400   4.76516e-22
      143.500   4.62202e-22
      143.600   4.48303e-22
      143.700   4.34905e-22
      143.800   4.23219e-22
      143.900   4.12089e-22
      144.000   4.01261e-22
      144.100   3.90709e-22
      144.200   3.80427e-22
      144.300   3.70404e-22
      144.400   3.60673e-22
      144.500   3.51745e-22
      144.600   3.43208e-22
      144.700   3.34887e-22
      144.800   3.26757e-22
      144.900   3.18814e-22
      145.000   3.11053e-22
      145.100   3.03473e-22
      145.200   2.96093e-22
      145.300   2.88892e-22
      145.400   2.81856e-22
      145.500   2.74980e-22
      145.600   2.68262e-22
      145.700   2.61699e-22
      145.800   2.55296e-22
      145.900   2.49065e-22
      146.000   2.42971e-22
      146.100   2.36950e-22
      146.200   2.31022e-22
      146.300   2.25234e-22
      146.400   2.19580e-22
      146.500   2.14088e-22
      146.600   2.08728e-22
      146.700   2.03495e-22
      146.800   1.98373e-22
      146.900   1.93356e-22
      147.000   1.88459e-22
      147.100   1.83691e-22
      147.200   1.79051e-22
      147.300   1.74521e-22
      147.400   1.70101e-22
      147.500   1.65785e-22
      147.600   1.61573e-22
      147.700   1.57472e-22
      147.800   1.53483e-22
      147.900   1.49588e-22
      148.000   1.45787e-22
      148.100   1.42078e-22
      148.200   1.38459e-22
      148.300   1.34934e-22
      148.400   1.32045e-22
      148.500   1.29631e-22
      148.600   1.27402e-22
      148.700   1.25209e-22
      148.800   1.23050e-22
      148.900   1.20931e-22
      149.000   1.18851e-22
      149.100   1.16804e-22
      149.200   1.14789e-22
      149.300   1.12807e-22
      149.400   1.10856e-22
      149.500   1.08942e-22
      149.600   1.07061e-22
      149.700   1.05210e-22
      149.800   1.03388e-22
      149.900   1.01597e-22
      150.000   9.98341e-23
      150.100   9.81044e-23
      150.200   9.64023e-23
      150.300   9.47303e-23
      150.400   9.30853e-23
      150.500   9.14676e-23
      150.600   8.98766e-23
      150.700   8.83117e-23
      150.800   8.67738e-23
      150.900   8.52635e-23
      151.000   8.37762e-23
      151.100   8.23148e-23
      151.200   8.08772e-23
      151.300   7.94634e-23
      151.400   7.80730e-23
      151.500   7.67086e-23
      151.600   7.53670e-23
      151.700   7.40494e-23
      151.800   7.27535e-23
      151.900   7.14786e-23
      152.000   7.02976e-23
      152.100   6.98746e-23
      152.200   6.95484e-23
      152.300   6.92211e-23
      152.400   6.88944e-23
      152.500   6.85696e-23
      152.600   6.82455e-23
      152.700   6.71988e-23
      152.800   6.59097e-23
      152.900   6.46435e-23
      153.000   6.34005e-23
      153.100   6.21811e-23
      153.200   6.09835e-23
      153.300   6.00212e-23
      153.400   5.92776e-23
      153.500   5.85652e-23
      153.600   5.78622e-23
      153.700   5.71680e-23
      153.800   5.64809e-23
      153.900   5.58015e-23
      154.000   5.51370e-23
      154.100   5.44943e-23
      154.200   5.38630e-23
      154.300   5.32385e-23
      154.400   5.26221e-23
      154.500   5.20118e-23
      154.600   5.14082e-23
      154.700   5.08119e-23
      154.800   5.02222e-23
      154.900   4.96386e-23
      155.000   4.90611e-23
      155.100   4.84904e-23
      155.200   4.79255e-23
      155.300   4.73672e-23
      155.400   4.68151e-23
      155.500   4.62691e-23
      155.600   4.57283e-23
      155.700   4.51935e-23
      155.800   4.46648e-23
      155.900   4.41413e-23
      156.000   4.36241e-23
      156.100   4.31123e-23
      156.200   4.26062e-23
      156.300   4.21056e-23
      156.400   4.16101e-23
      156.500   4.11182e-23
      156.600   4.06227e-23
      156.700   4.01323e-23
      156.800   3.96472e-23
      156.900   3.91675e-23
      157.000   3.86943e-23
      157.100   3.81916e-23
      157.200   3.74602e-23
      157.300   3.64921e-23
      157.400   3.55489e-23
      157.500   3.46287e-23
      157.600   3.37321e-23
      157.700   3.28577e-23
      157.800   3.20056e-23
      157.900   3.16447e-23
      158.000   3.13296e-23
      158.100   3.10179e-23
      158.200   3.07086e-23
      158.300   3.04022e-23
      158.400   3.00989e-23
      158.500   2.97982e-23
      158.600   2.95000e-23
      158.700   2.92044e-23
      158.800   2.89121e-23
      158.900   2.86223e-23
      159.000   2.83351e-23
      159.100   2.80380e-23
      159.200   2.75917e-23
      159.300   2.69046e-23
      159.400   2.62344e-23
      159.500   2.55808e-23
      159.600   2.49427e-23
      159.700   2.43206e-23
      159.800   2.37132e-23
      159.900   2.33921e-23
      160.000   2.32610e-23
      160.100   2.31363e-23
      160.200   2.30121e-23
      160.300   2.28886e-23
      160.400   2.27658e-23
      160.500   2.26130e-23
      160.600   2.22881e-23
      160.700   2.18408e-23
      160.800   2.14021e-23
      160.900   2.09719e-23
      161.000   2.05502e-23
      161.100   2.01368e-23
      161.200   1.97318e-23
      161.300   1.93348e-23
      161.400   1.89456e-23
      161.500   1.85642e-23
      161.600   1.81901e-23
      161.700   1.78231e-23
      161.800   1.74634e-23
      161.900   1.71171e-23
      162.000   1.68313e-23
      162.100   1.65823e-23
      162.200   1.63370e-23
      162.300   1.60951e-23
      162.400   1.58567e-23
      162.500   1.56215e-23
      162.600   1.53900e-23
      162.700   1.51615e-23
      162.800   1.49363e-23
      162.900   1.47145e-23
      163.000   1.44958e-23
      163.100   1.42802e-23
      163.200   1.40675e-23
      163.300   1.38578e-23
      163.400   1.36512e-23
      163.500   1.34476e-23
      163.600   1.32469e-23
      163.700   1.30489e-23
      163.800   1.28539e-23
      163.900   1.26617e-23
      164.000   1.24722e-23
      164.100   1.22462e-23
      164.200   1.19189e-23
      164.300   1.16007e-23
      164.400   1.12910e-23
      164.500   1.09895e-23
      164.600   1.06959e-23
      164.700   1.04100e-23
      164.800   1.01639e-23
      164.900   9.99413e-24
      165.000   9.85558e-24
      165.100   9.71882e-24
      165.200   9.58390e-24
      165.300   9.45080e-24
      165.400   9.31962e-24
      165.500   9.19015e-24
      165.600   8.97827e-24
      165.700   8.73517e-24
      165.800   8.49587e-24
      165.900   8.26308e-24
      166.000   8.03695e-24
      166.100   7.81687e-24
      166.200   7.60279e-24
      166.300   7.39454e-24
      166.400   7.19192e-24
      166.500   6.99471e-24
      166.600   6.80285e-24
      166.700   6.61622e-24
      166.800   6.43456e-24
      166.900   6.25787e-24
      167.000   6.08607e-24
      167.100   5.91879e-24
      167.200   5.75606e-24
      167.300   5.59774e-24
      167.400   5.44375e-24
      167.500   5.29389e-24
      167.600   5.14811e-24
      167.700   5.00631e-24
      167.800   4.86837e-24
      167.900   4.73416e-24
      168.000   4.60358e-24
      168.100   4.47654e-24
      168.200   4.35297e-24
      168.300   4.23274e-24
      168.400   4.11582e-24
      168.500   4.00307e-24
      168.600   3.91668e-24
      168.700   3.84436e-24
      168.800   3.77335e-24
      168.900   3.70363e-24
      169.000   3.63520e-24
      169.100   3.56794e-24
      169.200   3.50195e-24
      169.300   3.43713e-24
      169.400   3.37348e-24
      169.500   3.31079e-24
      169.600   3.24845e-24
      169.700   3.18641e-24
      169.800   3.12528e-24
      169.900   3.06525e-24
      170.000   3.00632e-24
      170.100   2.92142e-24
      170.200   2.79977e-24
      170.300   3.53311e-24
      170.400   7.35639e-24
      170.500   1.35731e-23
      170.600   1.94353e-23
      170.700   2.37275e-23
      170.800   2.52335e-23
      170.900   2.47697e-23
      171.000   2.39839e-23
      171.100   2.32485e-23
      171.200   2.25343e-23
      171.300   2.18405e-23
      171.400   2.11669e-23
      171.500   2.05127e-23
      171.600   1.98774e-23
      171.700   1.92611e-23
      171.800   1.86630e-23
      171.900   1.80829e-23
      172.000   1.75206e-23
      172.100   1.69754e-23
      172.200   1.64472e-23
      172.300   1.59349e-23
      172.400   1.54353e-23
      172.500   1.49509e-23
      172.600   1.44819e-23
      172.700   1.40279e-23
      172.800   1.35882e-23
      172.900   1.31623e-23
      173.000   1.27502e-23
      173.100   1.23512e-23
      173.200   1.19648e-23
      173.300   1.15907e-23
      173.400   1.12283e-23
      173.500   1.08776e-23
      173.600   1.05381e-23
      173.700   1.02092e-23
      173.800   9.89090e-24
      173.900   9.58272e-24
      174.000   9.28413e-24
      174.100   8.99506e-24
      174.200   8.71511e-24
      174.300   8.44386e-24
      174.400   8.18119e-24
      174.500   7.92664e-24
      174.600   7.68001e-24
      174.700   7.44116e-24
      174.800   7.20977e-24
      174.900   6.98549e-24
      175.000   6.76810e-24
      175.100   6.55743e-24
      175.200   6.35358e-24
      175.300   6.15593e-24
      175.400   5.96438e-24
      175.500   5.77887e-24
      175.600   5.59900e-24
      175.700   5.42475e-24
      175.800   5.25582e-24
      175.900   5.09213e-24
      176.000   4.93349e-24
      176.100   4.77982e-24
      176.200   4.63091e-24
      176.300   4.48657e-24
      176.400   4.34675e-24
      176.500   4.21087e-24
      176.600   4.01666e-24
      176.700   3.80217e-24
      176.800   3.59902e-24
      176.900   3.40666e-24
      177.000   3.22446e-24
      177.100   3.05189e-24
      177.200   2.88852e-24
      177.300   2.73381e-24
      177.400   2.58725e-24
      177.500   2.44844e-24
      177.600   2.31703e-24
      177.700   2.19263e-24
      177.800   2.07482e-24
      177.900   1.96323e-24
      178.000   1.85773e-24
      178.100   1.75784e-24
      178.200   1.66324e-24
      178.300   1.57366e-24
      178.400   1.48890e-24
      178.500   1.40864e-24
      178.600   1.33424e-24
      178.700   1.27228e-24
      178.800   1.22640e-24
      178.900   1.18217e-24
      179.000   1.13951e-24
      179.100   1.09836e-24
      179.200   1.05870e-24
      179.300   1.02045e-24
      179.400   9.83568e-25
      179.500   9.48033e-25
      179.600   9.13796e-25
      179.700   8.80790e-25
      179.800   8.48966e-25
      179.900   8.18290e-25
      180.000   7.88709e-25
      180.100   7.60202e-25
      180.200   7.32734e-25
      180.300   7.06253e-25
      180.400   6.80728e-25
      180.500   6.56133e-25
      180.600   6.32422e-25
      180.700   6.09570e-25
      180.800   5.87549e-25
      180.900   5.66322e-25
      181.000   5.45857e-25
      181.100   5.26137e-25
      181.200   5.07134e-25
      181.300   4.88818e-25
      181.400   4.71169e-25
      181.500   4.54155e-25
      181.600   4.37757e-25
      181.700   4.21952e-25
      181.800   4.06718e-25
      181.900   3.92035e-25
      182.000   3.77890e-25
      182.100   3.64249e-25
      182.200   3.51232e-25
      182.300   3.39713e-25
      182.400   3.28644e-25
      182.500   3.17933e-25
      182.600   3.07572e-25
      182.700   2.97547e-25
      182.800   2.87849e-25
      182.900   2.78465e-25
      183.000   2.69387e-25
      183.100   2.60607e-25
      183.200   2.52110e-25
      183.300   2.43887e-25
      183.400   2.35931e-25
      183.500   2.28235e-25
      183.600   2.20788e-25
      183.700   2.13582e-25
      183.800   2.06615e-25
      183.900   1.99874e-25
      184.000   1.93352e-25
      184.100   1.87047e-25
      184.200   1.80951e-25
      184.300   1.75054e-25
      184.400   1.69350e-25
      184.500   1.63831e-25
      184.600   1.58490e-25
      184.700   1.53323e-25
      184.800   1.48324e-25
      184.900   1.43486e-25
      185.000   1.38806e-25
      185.100   1.34332e-25
      185.200   1.30275e-25
      185.300   1.26695e-25
      185.400   1.23213e-25
      185.500   1.19825e-25
      185.600   1.16530e-25
      185.700   1.13325e-25
      185.800   1.10212e-25
      185.900   1.07185e-25
      186.000   1.04241e-25
      186.100   1.01377e-25
      186.200   9.85902e-26
      186.300   9.58782e-26
      186.400   9.32416e-26
      186.500   9.06767e-26
      186.600   8.81804e-26
      186.700   8.57508e-26
      186.800   8.33872e-26
      186.900   8.10886e-26
      187.000   7.88522e-26
      187.100   7.66745e-26
      187.200   7.45578e-26
      187.300   7.25018e-26
      187.400   7.05012e-26
      187.500   6.85552e-26
      187.600   6.66618e-26
      187.700   6.48199e-26
      187.800   6.30282e-26
      187.900   6.12850e-26
      188.000   5.95896e-26
      188.100   5.78489e-26
      188.200   5.58419e-26
      188.300   5.35098e-26
      188.400   5.12742e-26
      188.500   4.91309e-26
      188.600   4.70791e-26
      188.700   4.51155e-26
      188.800   4.32336e-26
      188.900   4.14293e-26
      189.000   3.96991e-26
      189.100   3.80400e-26
      189.200   3.64494e-26
      189.300   3.49248e-26
      189.400   3.34635e-26
      189.500   3.20703e-26
      189.600   3.08441e-26
      189.700   3.00871e-26
      189.800   2.93518e-26
      189.900   2.86354e-26
      190.000   2.79370e-26
      190.100   2.72559e-26
      190.200   2.65913e-26
      190.300   2.59430e-26
      190.400   2.53104e-26
      190.500   2.46933e-26
      190.600   2.40915e-26
      190.700   2.35042e-26
      190.800   2.29313e-26
      190.900   2.23725e-26
      191.000   2.18282e-26
      191.100   2.12977e-26
      191.200   2.07798e-26
      191.300   2.02747e-26
      191.400   1.97820e-26
      191.500   1.93012e-26
      191.600   1.88320e-26
      191.700   1.83743e-26
      191.800   1.79276e-26
      191.900   1.74916e-26
      192.000   1.70666e-26
      192.100   1.66522e-26
      192.200   1.62486e-26
      192.300   1.58546e-26
      192.400   1.54700e-26
      192.500   1.50666e-26
      192.600   1.45833e-26
      192.700   1.40434e-26
      192.800   1.35232e-26
      192.900   1.30219e-26
      193.000   1.25391e-26
      193.100   1.20748e-26
      193.200   1.16284e-26
      193.300   1.11985e-26
      193.400   1.07844e-26
      193.500   1.03854e-26
      193.600   1.00008e-26
      193.700   9.63034e-27
      193.800   9.27353e-27
      193.900   8.92989e-27
      194.000   8.60550e-27
      194.100   8.42565e-27
      194.200   8.29432e-27
      194.300   8.16824e-27
      194.400   8.04414e-27
      194.500   7.92203e-27
      194.600   7.80178e-27
      194.700   7.68338e-27
      194.800   7.56682e-27
      194.900   7.45199e-27
      195.000   7.33897e-27
      195.100   7.22792e-27
      195.200   7.11851e-27
      195.300   7.01073e-27
      195.400   6.90455e-27
      195.500   6.79780e-27
      195.600   6.63655e-27
      195.700   6.38534e-27
      195.800   6.14347e-27
      195.900   5.91066e-27
      196.000   5.68631e-27
      196.100   5.47030e-27
      196.200   5.26236e-27
      196.300   5.06213e-27
      196.400   4.86934e-27
      196.500   4.68366e-27
      196.600   4.50496e-27
      196.700   4.33289e-27
      196.800   4.16755e-27
      196.900   4.00888e-27
      197.000   3.85613e-27
      197.100   3.70904e-27
      197.200   3.56742e-27
      197.300   3.43105e-27
      197.400   3.29970e-27
      197.500   3.17328e-27
      197.600   3.05157e-27
      197.700   2.93500e-27
      197.800   2.82285e-27
      197.900   2.71483e-27
      198.000   2.61083e-27
      198.100   2.51073e-27
      198.200   2.41436e-27
      198.300   2.32155e-27
      198.400   2.23227e-27
      198.500   2.14668e-27
      198.600   2.06441e-27
      198.700   1.99330e-27
      198.800   1.93593e-27
      198.900   1.88570e-27
      199.000   1.83672e-27
      199.100   1.78898e-27
      199.200   1.74247e-27
      199.300   1.69729e-27
      199.400   1.65329e-27
      199.500   1.61041e-27
      199.600   1.56861e-27
      199.700   1.52787e-27
      199.800   1.48819e-27
      199.900   1.44950e-27
      200.000   1.41179e-27
      200.100   1.37521e-27
      200.200   1.33954e-27
      200.300   1.30481e-27
      200.400   1.27096e-27
      200.500   1.23797e-27
      200.600   1.20585e-27
      200.700   1.17455e-27
      200.800   1.14405e-27
      200.900   1.11435e-27
      201.000   1.08543e-27
      201.100   1.05730e-27
      201.200   1.02989e-27
      201.300   1.00319e-27
      201.400   9.77180e-28
      201.500   9.51843e-28
      201.600   9.27147e-28
      201.700   9.03099e-28
      201.800   8.79668e-28
      201.900   8.56172e-28
      202.000   8.22243e-28
      202.100   7.84531e-28
      202.200   7.48542e-28
      202.300   7.14239e-28
      202.400   6.81586e-28
      202.500   6.50439e-28
      202.600   6.20688e-28
      202.700   5.92296e-28
      202.800   5.65219e-28
      202.900   5.39421e-28
      203.000   5.14793e-28
      203.100   4.91294e-28
      203.200   4.68841e-28
      203.300   4.47399e-28
      203.400   4.26930e-28
      203.500   4.07392e-28
      203.600   3.89444e-28
      203.700   3.74223e-28
      203.800   3.59863e-28
      203.900   3.46072e-28
      204.000   3.32804e-28
      204.100   3.20041e-28
      204.200   3.07769e-28
      204.300   2.95963e-28
      204.400   2.84609e-28
      204.500   2.73688e-28
      204.600   2.63182e-28
      204.700   2.53078e-28
      204.800   2.43375e-28
      204.900   2.34056e-28
      205.000   2.25092e-28
      205.100   2.16472e-28
      205.200   2.08178e-28
      205.300   2.00204e-28
      205.400   1.92533e-28
      205.500   1.85153e-28
      205.600   1.78040e-28
      205.700   1.71109e-28
      205.800   1.64425e-28
      205.900   1.58009e-28
      206.000   1.51852e-28
      206.100   1.45932e-28
      206.200   1.40239e-28
      206.300   1.34769e-28
      206.400   1.29513e-28
      206.500   1.24457e-28
      206.600   1.19598e-28
      206.700   1.14928e-28
      206.800   1.10437e-28
      206.900   1.06120e-28
      207.000   1.01971e-28
      207.100   9.79897e-29
      207.200   9.41662e-29
      207.300   9.04886e-29
      207.400   8.69531e-29
      207.500   8.35542e-29
      207.600   8.02877e-29
      207.700   7.71460e-29
      207.800   7.41261e-29
      207.900   7.12232e-29
      208.000   6.84326e-29
      208.100   6.57505e-29
      208.200   6.31717e-29
      208.300   6.06939e-29
      208.400   5.83165e-29
      208.500   5.60316e-29
      208.600   5.38344e-29
      208.700   5.17218e-29
      208.800   4.96914e-29
      208.900   4.76662e-29
      209.000   4.54130e-29
      209.100   4.30572e-29
      209.200   4.08220e-29
      209.300   3.87006e-29
      209.400   3.66892e-29
      209.500   3.47806e-29
      209.600   3.29695e-29
      209.700   3.12541e-29
      209.800   2.96306e-29
      209.900   2.80892e-29
      210.000   2.66277e-29
      210.100   2.52413e-29
      210.200   2.39261e-29
      210.300   2.26788e-29
      210.400   2.14959e-29
      210.500   2.03738e-29
      210.600   1.93097e-29
      210.700   1.83006e-29
      210.800   1.73437e-29
      210.900   1.64362e-29
      211.000   1.55756e-29
      211.100   1.47598e-29
      211.200   1.39863e-29
      211.300   1.32547e-29
      211.400   1.25614e-29
      211.500   1.19037e-29
      211.600   1.12803e-29
      211.700   1.06892e-29
      211.800   1.01285e-29
      211.900   9.59695e-30
      212.000   9.09337e-30
      212.100   8.61578e-30
      212.200   8.16293e-30
      212.300   7.71450e-30
      212.400   7.23605e-30
      212.500   6.76590e-30
      212.600   6.32603e-30
      212.700   5.91445e-30
      212.800   5.52934e-30
      212.900   5.16920e-30
      213.000   4.83248e-30
      213.100   4.51814e-30
      213.200   4.22403e-30
      213.300   3.94892e-30
      213.400   3.69149e-30
      213.500   3.45069e-30
      213.600   3.22543e-30
      213.700   3.01480e-30
      213.800   2.81772e-30
      213.900   2.63352e-30
      214.000   2.46119e-30
      214.100   2.30288e-30
      214.200   2.18786e-30
      214.300   2.10047e-30
      214.400   2.01654e-30
      214.500   1.93596e-30
      214.600   1.85859e-30
      214.700   1.78431e-30
      214.800   1.71300e-30
      214.900   1.64454e-30
      215.000   1.57878e-30
      215.100   1.51567e-30
      215.200   1.45516e-30
      215.300   1.39708e-30
      215.400   1.34130e-30
      215.500   1.28774e-30
      215.600   1.23636e-30
      215.700   1.18699e-30
      215.800   1.13959e-30
      215.900   1.09410e-30
      216.000   1.04608e-30
      216.100   9.89841e-31
      216.200   9.32851e-31
      216.300   8.79134e-31
      216.400   8.28498e-31
      216.500   7.80742e-31
      216.600   7.35741e-31
      216.700   6.93329e-31
      216.800   6.53342e-31
      216.900   6.15660e-31
      217.000   5.80141e-31
      217.100   5.46651e-31
      217.200   5.15094e-31
      217.300   4.85353e-31
      217.400   4.57315e-31
      217.500   4.30903e-31
      217.600   4.05993e-31
      217.700   3.82515e-31
      217.800   3.60397e-31
      217.900   3.39470e-31
      218.000   3.17626e-31
      218.100   2.97176e-31
      218.200   2.78037e-31
      218.300   2.60133e-31
      218.400   2.43391e-31
      218.500   2.27714e-31
      218.600   2.13045e-31
      218.700   1.99312e-31
      218.800   1.86457e-31
      218.900   1.74432e-31
      219.000   1.63171e-31
      219.100   1.52631e-31
      219.200   1.42770e-31
      219.300   1.33543e-31
      219.400   1.24905e-31
      219.500   1.16823e-31
      219.600   1.09261e-31
      219.700   1.02183e-31
      219.800   9.55636e-32
      219.900   8.93683e-32
      220.000   8.35698e-32
      220.100   7.81453e-32
      220.200   7.30705e-32
      220.300   6.83238e-32
      220.400   6.38818e-32
      220.500   5.97279e-32
      220.600   5.58426e-32
      220.700   5.22063e-32
      220.800   4.88047e-32
      220.900   4.56251e-32
      221.000   4.26499e-32
      221.100   3.98665e-32
      221.200   3.72649e-32
      221.300   3.48314e-32
      221.400   3.25551e-32
      221.500   3.04271e-32
      221.600   2.84369e-32
      221.700   2.65757e-32
      221.800   2.49594e-32
      221.900   2.37599e-32
      222.000   2.27071e-32
      222.100   2.17003e-32
      222.200   2.07381e-32
      222.300   1.98181e-32
      222.400   1.89388e-32
      222.500   1.80982e-32
      222.600   1.72948e-32
      222.700   1.65267e-32
      222.800   1.57925e-32
      222.900   1.50909e-32
      223.000   1.44202e-32
      223.100   1.37790e-32
      223.200   1.31663e-32
      223.300   1.25805e-32
      223.400   1.20207e-32
      223.500   1.14856e-32
      223.600   1.09743e-32
      223.700   1.04855e-32
      223.800   1.00085e-32
      223.900   9.48654e-33
      224.000   8.98198e-33
      224.100   8.50416e-33
      224.200   8.05158e-33
      224.300   7.62298e-33
      224.400   7.21686e-33
      224.500   6.83245e-33
      224.600   6.46822e-33
      224.700   6.12349e-33
      224.800   5.79686e-33
      224.900   5.48748e-33
      225.000   5.19457e-33
      225.100   4.91715e-33
      225.200   4.65440e-33
      225.300   4.40578e-33
      225.400   4.17017e-33
      225.500   3.94710e-33
      225.600   3.73587e-33
      225.700   3.53596e-33
      225.800   3.34657e-33
      225.900   3.21574e-33
      226.000   3.10972e-33
      226.100   3.00921e-33
      226.200   2.91191e-33
      226.300   2.81797e-33
      226.400   2.72718e-33
      226.500   2.63921e-33
      226.600   2.55400e-33
      226.700   2.47151e-33
      226.800   2.39165e-33
      226.900   2.31436e-33
      227.000   2.23953e-33
      227.100   2.16710e-33
      227.200   2.09704e-33
      227.300   2.02923e-33
      227.400   1.96360e-33
      227.500   1.90009e-33
      227.600   1.83862e-33
      227.700   1.77915e-33
      227.800   1.72160e-33
      227.900   1.66034e-33
      228.000   1.58710e-33
      228.100   1.50913e-33
      228.200   1.43496e-33
      228.300   1.36442e-33
      228.400   1.29736e-33
      228.500   1.23356e-33
      228.600   1.17291e-33
      228.700   1.11522e-33
      228.800   1.06035e-33
      228.900   1.00819e-33
      229.000   9.58586e-34
      229.100   9.11412e-34
      229.200   8.66550e-34
      229.300   8.23895e-34
      229.400   7.83335e-34
      229.500   7.44765e-34
      229.600   7.08087e-34
      229.700   6.73212e-34
      229.800   6.40053e-34
      229.900   6.08525e-34
      230.000   5.78182e-34
      230.100   5.46578e-34
      230.200   5.15060e-34
      230.300   4.85370e-34
      230.400   4.57372e-34
      230.500   4.31002e-34
      230.600   4.06171e-34
      230.700   3.82759e-34
      230.800   3.60695e-34
      230.900   3.39902e-34
      231.000   3.20297e-34
      231.100   3.01816e-34
      231.200   2.84403e-34
      231.300   2.67992e-34
      231.400   2.52528e-34
      231.500   2.37944e-34
      231.600   2.24197e-34
      231.700   2.11246e-34
      231.800   1.99040e-34
      231.900   1.87535e-34
      232.000   1.76691e-34
      232.100   1.66471e-34
      232.200   1.58241e-34
      232.300   1.52391e-34
      232.400   1.47274e-34
      232.500   1.42330e-34
      232.600   1.37552e-34
      232.700   1.32935e-34
      232.800   1.28474e-34
      232.900   1.24159e-34
      233.000   1.19985e-34
      233.100   1.15952e-34
      233.200   1.12055e-34
      233.300   1.08289e-34
      233.400   1.04651e-34
      233.500   1.01136e-34
      233.600   9.77420e-35
      233.700   9.44616e-35
      233.800   9.12573e-35
      233.900   8.81560e-35
      234.000   8.51599e-35
      234.100   8.22652e-35
      234.200   7.94703e-35
      234.300   7.67692e-35
      234.400   7.41598e-35
      234.500   7.16391e-35
      234.600   6.92036e-35
      234.700   6.68516e-35
      234.800   6.45796e-35
      234.900   6.23842e-35
      235.000   6.02630e-35
      235.100   5.82138e-35
      235.200   5.62345e-35
      235.300   5.43226e-35
      235.400   5.24746e-35
      235.500   5.06902e-35
      235.600   4.89666e-35
      235.700   4.73011e-35
      235.800   4.56944e-35
      235.900   4.41422e-35
      236.000   4.26433e-35
      236.100   4.11944e-35
      236.200   3.97946e-35
      236.300   3.84423e-35
      236.400   3.71362e-35
      236.500   3.58740e-35
      236.600   3.47204e-35
      236.700   3.37469e-35
      236.800   3.28909e-35
      236.900   3.20563e-35
      237.000   3.12427e-35
      237.100   3.04498e-35
      237.200   2.96769e-35
      237.300   2.89236e-35
      237.400   2.81892e-35
      237.500   2.74736e-35
      237.600   2.67754e-35
      237.700   2.60960e-35
      237.800   2.54341e-35
      237.900   2.47882e-35
      238.000   2.41589e-35
      238.100   2.35454e-35
      238.200   2.29474e-35
      238.300   2.23645e-35
      238.400   2.17960e-35
      238.500   2.12418e-35
      238.600   2.07018e-35
      238.700   2.01753e-35
      238.800   1.96621e-35
      238.900   1.92020e-35
      239.000   1.88942e-35
      239.100   1.86073e-35
      239.200   1.83248e-35
      239.300   1.80465e-35
      239.400   1.77723e-35
      239.500   1.75024e-35
      239.600   1.72361e-35
      239.700   1.69739e-35
      239.800   1.67158e-35
      239.900   1.64614e-35
      240.000   1.62105e-35
      240.100   1.59635e-35
      240.200   1.57201e-35
      240.300   1.54803e-35
      240.400   1.52441e-35
      240.500   1.50113e-35
      240.600   1.47821e-35
      240.700   1.45560e-35
      240.800   1.43332e-35
      240.900   1.41141e-35
      241.000   1.38980e-35
      241.100   1.36853e-35
      241.200   1.34757e-35
      241.300   1.32691e-35
      241.400   1.30657e-35
      241.500   1.28653e-35
      241.600   1.26679e-35
      241.700   1.24734e-35
      241.800   1.22818e-35
      241.900   1.20930e-35
      242.000   1.19071e-35
      242.100   1.17241e-35
      242.200   1.15438e-35
      242.300   1.13665e-35
      242.400   1.11918e-35
      242.500   1.10197e-35
      242.600   1.08501e-35
      242.700   1.06832e-35
      242.800   1.05188e-35
      242.900   1.03570e-35
      243.000   1.01975e-35
      243.100   1.00404e-35
      243.200   9.88582e-36
      243.300   9.73350e-36
      243.400   9.58360e-36
      243.500   9.43605e-36
      243.600   9.29085e-36
      243.700   9.14785e-36
      243.800   9.00708e-36
      243.900   8.86845e-36
      244.000   8.73192e-36
      244.100   8.59756e-36
      244.200   8.46529e-36
      244.300   8.33499e-36
      244.400   8.20669e-36
      244.500   8.08047e-36
      244.600   7.95610e-36
      244.700   7.83373e-36
      244.800   7.71345e-36
      244.900   7.59494e-36
      245.000   7.47825e-36
      245.100   7.36340e-36
      245.200   7.25034e-36
      245.300   7.13904e-36
      245.400   7.02941e-36
      245.500   6.92152e-36
      245.600   6.81533e-36
      245.700   6.71076e-36
      245.800   6.60784e-36
      245.900   6.50657e-36
      246.000   6.40698e-36
      246.100   6.30892e-36
      246.200   6.21233e-36
      246.300   6.11728e-36
      246.400   6.02377e-36
      246.500   5.93166e-36
      246.600   5.84095e-36
      246.700   5.75168e-36
      246.800   5.66380e-36
      246.900   5.57732e-36
      247.000   5.49221e-36
      247.100   5.40839e-36
      247.200   5.32601e-36
      247.300   5.24486e-36
      247.400   5.16499e-36
      247.500   5.08633e-36
      247.600   5.00887e-36
      247.700   4.93263e-36
      247.800   4.85761e-36
      247.900   4.78370e-36
      248.000   4.71099e-36
      248.100   4.63953e-36
      248.200   4.56919e-36
      248.300   4.49986e-36
      248.400   4.43159e-36
      248.500   4.33597e-36
      248.600   4.19584e-36
      248.700   4.03068e-36
      248.800   3.87192e-36
      248.900   3.71941e-36
      249.000   3.57281e-36
      249.100   3.43249e-36
      249.200   3.29774e-36
      249.300   3.16822e-36
      249.400   3.04371e-36
      249.500   2.92405e-36
      249.600   2.80904e-36
      249.700   2.69851e-36
      249.800   2.59226e-36
      249.900   2.49016e-36
      250.000   2.39204e-36
      250.100   2.29804e-36
      250.200   2.20776e-36
      250.300   2.12110e-36
      250.400   2.03779e-36
      250.500   1.95772e-36
      250.600   1.88081e-36
      250.700   1.80688e-36
      250.800   1.73584e-36
      250.900   1.66758e-36
      251.000   1.60198e-36
      251.100   1.53895e-36
      251.200   1.47846e-36
      251.300   1.42043e-36
      251.400   1.36468e-36
      251.500   1.31109e-36
      251.600   1.23628e-36
      251.700   1.12204e-36
      251.800   1.01230e-36
      251.900   9.13142e-37
      252.000   8.23557e-37
      252.100   7.42684e-37
      252.200   6.69619e-37
      252.300   6.03802e-37
      252.400   5.44642e-37
      252.500   4.91231e-37
      252.600   4.45582e-37
      252.700   4.19392e-37
      252.800   4.10340e-37
      252.900   4.01488e-37
      253.000   3.92824e-37
      253.100   3.84349e-37
      253.200   3.76058e-37
      253.300   3.68022e-37
      253.400   3.60191e-37
      253.500   3.52539e-37
      253.600   3.45053e-37
      253.700   3.37563e-37
      253.800   3.29453e-37
      253.900   3.21386e-37
      254.000   3.13516e-37
      254.100   3.05836e-37
      254.200   2.98343e-37
      254.300   2.91034e-37
      254.400   2.83904e-37
      254.500   2.76949e-37
      254.600   2.70159e-37
      254.700   2.63539e-37
      254.800   2.57089e-37
      254.900   2.50795e-37
      255.000   2.44656e-37
      255.100   2.38660e-37
      255.200   2.32814e-37
      255.300   2.27110e-37
      255.400   2.21544e-37
      255.500   2.16113e-37
      255.600   2.10815e-37
      255.700   2.05645e-37
      255.800   2.00600e-37
      255.900   1.95678e-37
      256.000   1.90873e-37
      256.100   1.86192e-37
      256.200   1.81625e-37
      256.300   1.77168e-37
      256.400   1.72825e-37
      256.500   1.68583e-37
      256.600   1.64444e-37
      256.700   1.60405e-37
      256.800   1.56466e-37
      256.900   1.51677e-37
      257.000   1.45542e-37
      257.100   1.39197e-37
      257.200   1.33128e-37
      257.300   1.27321e-37
      257.400   1.21780e-37
      257.500   1.16484e-37
      257.600   1.11427e-37
      257.700   1.06590e-37
      257.800   1.01959e-37
      257.900   9.75289e-38
      258.000   9.32900e-38
      258.100   8.92325e-38
      258.200   8.53507e-38
      258.300   8.16374e-38
      258.400   7.80818e-38
      258.500   7.46799e-38
      258.600   7.14258e-38
      258.700   6.83117e-38
      258.800   6.53318e-38
      258.900   6.24823e-38
      259.000   5.97545e-38
      259.100   5.71455e-38
      259.200   5.46511e-38
      259.300   5.22687e-38
      259.400   4.99881e-38
      259.500   4.78062e-38
      259.600   4.57191e-38
      259.700   4.37228e-38
      259.800   4.18125e-38
      259.900   3.99842e-38
      260.000   3.82358e-38
      260.100   3.64366e-38
      260.200   3.45655e-38
      260.300   3.27624e-38
      260.400   3.10529e-38
      260.500   2.94321e-38
      260.600   2.78944e-38
      260.700   2.64366e-38
      260.800   2.50553e-38
      260.900   2.37448e-38
      261.000   2.25036e-38
      261.100   2.13280e-38
      261.200   2.02070e-38
      261.300   1.91440e-38
      261.400   1.81366e-38
      261.500   1.71822e-38
      261.600   1.62790e-38
      261.700   1.54233e-38
      261.800   1.46123e-38
      261.900   1.38433e-38
      262.000   1.31147e-38
      262.100   1.24241e-38
      262.200   1.17700e-38
      262.300   1.11498e-38
      262.400   1.05622e-38
      262.500   1.00052e-38
      262.600   9.47733e-39
      262.700   8.97733e-39
      262.800   8.50354e-39
      262.900   8.05437e-39
      263.000   7.62918e-39
      263.100   7.22615e-39
      263.200   6.84494e-39
      263.300   6.48377e-39
      263.400   6.14148e-39
      263.500   5.81730e-39
      263.600   5.51011e-39
      263.700   5.21903e-39
      263.800   4.94318e-39
      263.900   4.68207e-39
      264.000   4.43454e-39
      264.100   4.19996e-39
      264.200   3.97772e-39
      264.300   3.76734e-39
      264.400   3.56799e-39
      264.500   3.37908e-39
      264.600   3.20011e-39
      264.700   3.03062e-39
      264.800   2.87001e-39
      264.900   2.71795e-39
      265.000   2.57391e-39
      265.100   2.43739e-39
      265.200   2.30812e-39
      265.300   2.18567e-39
      265.400   2.06806e-39
      265.500   1.95610e-39
      265.600   1.85022e-39
      265.700   1.74997e-39
      265.800   1.65524e-39
      265.900   1.56567e-39
      266.000   1.48098e-39
      266.100   1.40084e-39
      266.200   1.32504e-39
      266.300   1.25330e-39
      266.400   1.18546e-39
      266.500   1.12124e-39
      266.600   1.06050e-39
      266.700   1.00304e-39
      266.800   9.48708e-40
      266.900   8.97285e-40
      267.000   8.48639e-40
      267.100   8.02616e-40
      267.200   7.59120e-40
      267.300   7.17950e-40
      267.400   6.78994e-40
      267.500   6.42155e-40
      267.600   6.07312e-40
      267.700   5.74352e-40
      267.800   5.43166e-40
      267.900   5.13673e-40
      268.000   4.85787e-40
      268.100   4.59397e-40
      268.200   4.34460e-40
      268.300   4.10862e-40
      268.400   3.88539e-40
      268.500   3.67418e-40
      268.600   3.47452e-40
      268.700   3.28567e-40
      268.800   3.10703e-40
      268.900   2.93812e-40
      269.000   2.77844e-40
      269.100   2.62728e-40
      269.200   2.48446e-40
      269.300   2.34929e-40
      269.400   2.22149e-40
      269.500   2.10053e-40
      269.600   1.98627e-40
      269.700   1.86122e-40
      269.800   1.74008e-40
      269.900   1.62659e-40
      270.000   1.52058e-40
      270.100   1.42144e-40
      270.200   1.32878e-40
      270.300   1.24217e-40
      270.400   1.16121e-40
      270.500   1.08546e-40
      270.600   1.01460e-40
      270.700   9.48399e-41
      270.800   8.86405e-41
      270.900   8.28588e-41
      271.000   7.74456e-41
      271.100   7.23855e-41
      271.200   6.76463e-41
      271.300   6.32252e-41
      271.400   5.90970e-41
      271.500   5.52350e-41
      271.600   5.16140e-41
      271.700   4.82341e-41
      271.800   4.50784e-41
      271.900   4.21188e-41
      272.000   3.93625e-41
      272.100   3.67799e-41
      272.200   3.43781e-41
      272.300   3.21220e-41
      272.400   3.00130e-41
      272.500   2.80428e-41
      272.600   2.61987e-41
      272.700   2.44863e-41
      272.800   2.29463e-41
      272.900   2.17187e-41
      273.000   2.06453e-41
      273.100   1.96266e-41
      273.200   1.86583e-41
      273.300   1.77348e-41
      273.400   1.68604e-41
      273.500   1.60252e-41
      273.600   1.52335e-41
      273.700   1.44824e-41
      273.800   1.37678e-41
      273.900   1.29774e-41
      274.000   1.20105e-41
      274.100   1.11053e-41
      274.200   1.02715e-41
      274.300   9.50220e-42
      274.400   8.78894e-42
      274.500   8.12753e-42
      274.600   7.52077e-42
      274.700   6.94624e-42
      274.800   6.42776e-42
      274.900   5.94010e-42
      275.000   5.48608e-42
      275.100   5.07971e-42
      275.200   4.69295e-42
      275.300   4.33842e-42
      275.400   4.00911e-42
      275.500   3.70924e-42
      275.600   3.41917e-42
      275.700   3.16273e-42
      275.800   2.92311e-42
      275.900   2.70591e-42
      276.000   2.51393e-42
      276.100   2.36679e-42
      276.200   2.25189e-42
      276.300   2.13137e-42
      276.400   2.01927e-42
      276.500   1.90997e-42
      276.600   1.81748e-42
      276.700   1.72220e-42
      276.800   1.62971e-42
      276.900   1.54283e-42
      277.000   1.46015e-42
      277.100   1.38308e-42
      277.200   1.31582e-42
      277.300   1.24575e-42
      277.400   1.18270e-42
      277.500   1.11543e-42
      277.600   1.05798e-42
      277.700   1.00053e-42
      277.800   9.48679e-43
      277.900   8.94028e-43
      278.000   8.58996e-43
      278.100   8.11352e-43
      278.200   7.53899e-43
      278.300   6.96445e-43
      278.400   6.45999e-43
      278.500   5.96953e-43
      278.600   5.52112e-43
      278.700   5.14277e-43
      278.800   4.72238e-43
      278.900   4.34403e-43
      279.000   4.09179e-43
      279.100   3.76949e-43
      279.200   3.48923e-43
      279.300   3.26503e-43
      279.400   3.06884e-43
      279.500   2.84464e-43
      279.600   2.64845e-43
      279.700   2.59240e-43
      279.800   2.39622e-43
      279.900   2.24208e-43
      280.000   2.10195e-43
      280.100   1.97583e-43
      280.200   1.84971e-43
      280.300   1.72360e-43
      280.400   1.59748e-43
      280.500   1.49939e-43
      280.600   1.40130e-43
      280.700   1.30321e-43
      280.800   1.21913e-43
      280.900   1.21913e-43
      281.000   1.14906e-43
      281.100   1.09301e-43
      281.200   9.94922e-44
      281.300   9.52883e-44
      281.400   8.96831e-44
      281.500   8.68805e-44
      281.600   7.98740e-44
      281.700   7.70714e-44
      281.800   7.28675e-44
      281.900   6.72623e-44
      282.000   6.72623e-44
      282.100   6.44597e-44
      282.200   6.02558e-44
      282.300   5.74532e-44
      282.400   5.46506e-44
      282.500   5.04467e-44
      282.600   5.04467e-44
      282.700   4.76441e-44
      282.800   4.48416e-44
      282.900   4.20390e-44
      283.000   4.20390e-44
      283.100   4.20390e-44
      283.200   3.78351e-44
      283.300   3.50325e-44
      283.400   3.50325e-44
      283.500   3.22299e-44
      283.600   3.22299e-44
      283.700   2.94273e-44
      283.800   2.94273e-44
      283.900   2.52234e-44
      284.000   2.52234e-44
      284.100   2.24208e-44
      284.200   2.24208e-44
      284.300   2.24208e-44
      284.400   1.96182e-44
      284.500   1.54143e-44
      284.600   1.54143e-44
      284.700   1.54143e-44
      284.800   1.54143e-44
      284.900   1.54143e-44
      285.000   1.26117e-44
      285.100   1.26117e-44
      285.200   1.26117e-44
      285.300   9.80909e-45
      285.400   9.80909e-45
      285.500   9.80909e-45
      285.600   9.80909e-45
      285.700   9.80909e-45
      285.800   9.80909e-45
      285.900   7.00649e-45
      286.000   7.00649e-45
      286.100   7.00649e-45
      286.200   7.00649e-45
      286.300   7.00649e-45
      286.400   7.00649e-45
      286.500   7.00649e-45
      286.600   7.00649e-45
      286.700   7.00649e-45
      286.800   7.00649e-45
      286.900   7.00649e-45
      287.000   7.00649e-45
      287.100   2.80260e-45
      287.200   2.80260e-45
      287.300   2.80260e-45
      287.400   2.80260e-45
      287.500   2.80260e-45
      287.600   2.80260e-45
      287.700   2.80260e-45
      287.800   2.80260e-45
      287.900   2.80260e-45
      288.000   2.80260e-45
      288.100   2.80260e-45
      288.200   2.80260e-45
      288.300   2.80260e-45
      288.400   2.80260e-45
      288.500   2.80260e-45
      288.600   2.80260e-45
      288.700   2.80260e-45
      288.800   2.80260e-45
      288.900   2.80260e-45
      289.000   2.80260e-45
      289.100   2.80260e-45
      289.200   2.80260e-45
      289.300   2.80260e-45
      289.400   2.80260e-45
      289.500   2.80260e-45
      289.600   2.80260e-45
      289.700   2.80260e-45
      289.800   2.80260e-45
      289.900   2.80260e-45
      290.000   2.80260e-45
      290.100   2.80260e-45
      290.200   2.80260e-45
      290.300   2.80260e-45
      290.400   2.80260e-45
      290.500   2.80260e-45
      290.600   2.80260e-45
      290.700   2.80260e-45
      290.800       0.00000
      290.900       0.00000
      291.000       0.00000
      291.100       0.00000
      291.200       0.00000
      291.300       0.00000
      291.400       0.00000
      291.500       0.00000
      291.600       0.00000
      291.700       0.00000
      291.800       0.00000
      291.900       0.00000
      292.000       0.00000
      292.100       0.00000
      292.200       0.00000
      292.300       0.00000
      292.400       0.00000
      292.500       0.00000
      292.600       0.00000
      292.700       0.00000
      292.800       0.00000
      292.900       0.00000
      293.000       0.00000
      293.100       0.00000
      293.200       0.00000
      293.300       0.00000
      293.400       0.00000
      293.500       0.00000
      293.600       0.00000
      293.700       0.00000
      293.800       0.00000
      293.900       0.00000
      294.000       0.00000
      294.100       0.00000
      294.200       0.00000
      294.300       0.00000
      294.400       0.00000
      294.500       0.00000
      294.600       0.00000
      294.700       0.00000
      294.800       0.00000
      294.900       0.00000
      295.000       0.00000
      295.100       0.00000
      295.200       0.00000
      295.300       0.00000
      295.400       0.00000
      295.500       0.00000
      295.600       0.00000
      295.700       0.00000
      295.800       0.00000
      295.900       0.00000
      296.000       0.00000
      296.100       0.00000
      296.200       0.00000
      296.300       0.00000
      296.400       0.00000
      296.500       0.00000
      296.600       0.00000
      296.700       0.00000
      296.800       0.00000
      296.900       0.00000
      297.000       0.00000
      297.100       0.00000
      297.200       0.00000
      297.300       0.00000
      297.400       0.00000
      297.500       0.00000
      297.600       0.00000
      297.700       0.00000
      297.800       0.00000
      297.900       0.00000
      298.000       0.00000
      298.100       0.00000
      298.200       0.00000
      298.300       0.00000
      298.400       0.00000
      298.500       0.00000
      298.600       0.00000
      298.700       0.00000
      298.800       0.00000
      298.900       0.00000
      299.000       0.00000
      299.100       0.00000
      299.200       0.00000
      299.300       0.00000
      299.400       0.00000
      299.500       0.00000
      299.600       0.00000
      299.700       0.00000
      299.800       0.00000
      299.900       0.00000
      300.000       0.00000
      300.100       0.00000
      300.192       0.00000
      300.285       0.00000
      300.377       0.00000
      300.470       0.00000
      300.562       0.00000
      300.654       0.00000
      300.747       0.00000
      300.839       0.00000
      300.932       0.00000
      301.025       0.00000
      301.117       0.00000
      301.210       0.00000
      301.303       0.00000
      301.395       0.00000
      301.488       0.00000
      301.581       0.00000
      301.674       0.00000
      301.766       0.00000
      301.859       0.00000
      301.952       0.00000
      302.045       0.00000
      302.138       0.00000
      302.231       0.00000
      302.324       0.00000
      302.417       0.00000
      302.510       0.00000
      302.603       0.00000
      302.696       0.00000
      302.789       0.00000
      302.882       0.00000
      302.976       0.00000
      303.069       0.00000
      303.162       0.00000
      303.255       0.00000
      303.349       0.00000
      303.442       0.00000
      303.535       0.00000
      303.629       0.00000
      303.722       0.00000
      303.816       0.00000
      303.909       0.00000
      304.003       0.00000
      304.096       0.00000
      304.190       0.00000
      304.283       0.00000
      304.377       0.00000
      304.471       0.00000
      304.564       0.00000
      304.658       0.00000
      304.752       0.00000
      304.846       0.00000
      304.939       0.00000
      305.033       0.00000
      305.127       0.00000
      305.221       0.00000
      305.315       0.00000
      305.409       0.00000
      305.503       0.00000
      305.597       0.00000
      305.691       0.00000
      305.785       0.00000
      305.879       0.00000
      305.973       0.00000
      306.067       0.00000
      306.161       0.00000
      306.255       0.00000
      306.350       0.00000
      306.444       0.00000
      306.538       0.00000
      306.633       0.00000
      306.727       0.00000
      306.821       0.00000
      306.916       0.00000
      307.010       0.00000
      307.105       0.00000
      307.199       0.00000
      307.294       0.00000
      307.388       0.00000
      307.483       0.00000
      307.577       0.00000
      307.672       0.00000
      307.767       0.00000
      307.861       0.00000
      307.956       0.00000
      308.051       0.00000
      308.146       0.00000
      308.240       0.00000
      308.335       0.00000
      308.430       0.00000
      308.525       0.00000
      308.620       0.00000
      308.715       0.00000
      308.810       0.00000
      308.905       0.00000
      309.000       0.00000
      309.095       0.00000
      309.190       0.00000
      309.285       0.00000
      309.380       0.00000
      309.476       0.00000
      309.571       0.00000
      309.666       0.00000
      309.761       0.00000
      309.857       0.00000
      309.952       0.00000
      310.047       0.00000
      310.143       0.00000
      310.238       0.00000
      310.334       0.00000
      310.429       0.00000
      310.525       0.00000
      310.620       0.00000
      310.716       0.00000
      310.811       0.00000
      310.907       0.00000
      311.003       0.00000
      311.098       0.00000
      311.194       0.00000
      311.290       0.00000
      311.386       0.00000
      311.481       0.00000
      311.577       0.00000
      311.673       0.00000
      311.769       0.00000
      311.865       0.00000
      311.961       0.00000
      312.057       0.00000
      312.153       0.00000
      312.249       0.00000
      312.345       0.00000
      312.441       0.00000
      312.537       0.00000
      312.633       0.00000
      312.730       0.00000
      312.826       0.00000
      312.922       0.00000
      313.018       0.00000
      313.115       0.00000
      313.211       0.00000
      313.307       0.00000
      313.404       0.00000
      313.500       0.00000
      313.597       0.00000
      313.693       0.00000
      313.790       0.00000
      313.886       0.00000
      313.983       0.00000
      314.079       0.00000
      314.176       0.00000
      314.273       0.00000
      314.369       0.00000
      314.466       0.00000
      314.563       0.00000
      314.660       0.00000
      314.756       0.00000
      314.853       0.00000
      314.950       0.00000
      315.047       0.00000
      315.144       0.00000
      315.241       0.00000
      315.338       0.00000
      315.435       0.00000
      315.532       0.00000
      315.629       0.00000
      315.726       0.00000
      315.823       0.00000
      315.921       0.00000
      316.018       0.00000
      316.115       0.00000
      316.212       0.00000
      316.310       0.00000
      316.407       0.00000
      316.504       0.00000
      316.602       0.00000
      316.699       0.00000
      316.796       0.00000
      316.894       0.00000
      316.991       0.00000
      317.089       0.00000
      317.187       0.00000
      317.284       0.00000
      317.382       0.00000
      317.479       0.00000
      317.577       0.00000
      317.675       0.00000
      317.773       0.00000
      317.870       0.00000
      317.968       0.00000
      318.066       0.00000
      318.164       0.00000
      318.262       0.00000
      318.360       0.00000
      318.458       0.00000
      318.556       0.00000
      318.654       0.00000
      318.752       0.00000
      318.850       0.00000
      318.948       0.00000
      319.046       0.00000
      319.144       0.00000
      319.242       0.00000
      319.341       0.00000
      319.439       0.00000
      319.537       0.00000
      319.635       0.00000
      319.734       0.00000
      319.832       0.00000
      319.930       0.00000
      320.029       0.00000
      320.127       0.00000
      320.226       0.00000
      320.324       0.00000
      320.423       0.00000
      320.522       0.00000
      320.620       0.00000
      320.719       0.00000
      320.818       0.00000
      320.916       0.00000
      321.015       0.00000
      321.114       0.00000
      321.213       0.00000
      321.311       0.00000
      321.410       0.00000
      321.509       0.00000
      321.608       0.00000
      321.707       0.00000
      321.806       0.00000
      321.905       0.00000
      322.004       0.00000
      322.103       0.00000
      322.202       0.00000
      322.301       0.00000
      322.401       0.00000
      322.500       0.00000
      322.599       0.00000
      322.698       0.00000
      322.798       0.00000
      322.897       0.00000
      322.996       0.00000
      323.096       0.00000
      323.195       0.00000
      323.294       0.00000
      323.394       0.00000
      323.493       0.00000
      323.593       0.00000
      323.692       0.00000
      323.792       0.00000
      323.892       0.00000
      323.991       0.00000
      324.091       0.00000
      324.191       0.00000
      324.291       0.00000
      324.390       0.00000
      324.490       0.00000
      324.590       0.00000
      324.690       0.00000
      324.790       0.00000
      324.890       0.00000
      324.990       0.00000
      325.090       0.00000
      325.190       0.00000
      325.290       0.00000
      325.390       0.00000
      325.490       0.00000
      325.590       0.00000
      325.690       0.00000
      325.790       0.00000
      325.891       0.00000
      325.991       0.00000
      326.091       0.00000
      326.192       0.00000
      326.292       0.00000
      326.392       0.00000
      326.493       0.00000
      326.593       0.00000
      326.694       0.00000
      326.794       0.00000
      326.895       0.00000
      326.995       0.00000
      327.096       0.00000
      327.197       0.00000
      327.297       0.00000
      327.398       0.00000
      327.499       0.00000
      327.599       0.00000
      327.700       0.00000
      327.801       0.00000
      327.902       0.00000
      328.003       0.00000
      328.104       0.00000
      328.205       0.00000
      328.306       0.00000
      328.407       0.00000
      328.508       0.00000
      328.609       0.00000
      328.710       0.00000
      328.811       0.00000
      328.912       0.00000
      329.013       0.00000
      329.115       0.00000
      329.216       0.00000
      329.317       0.00000
      329.419       0.00000
      329.520       0.00000
      329.621       0.00000
      329.723       0.00000
      329.824       0.00000
      329.926       0.00000
      330.027       0.00000
      330.129       0.00000
      330.230       0.00000
      330.332       0.00000
      330.434       0.00000
      330.535       0.00000
      330.637       0.00000
      330.739       0.00000
      330.840       0.00000
      330.942       0.00000
      331.044       0.00000
      331.146       0.00000
      331.248       0.00000
      331.350       0.00000
      331.452       0.00000
      331.554       0.00000
      331.656       0.00000
      331.758       0.00000
      331.860       0.00000
      331.962       0.00000
      332.064       0.00000
      332.166       0.00000
      332.268       0.00000
      332.371       0.00000
      332.473       0.00000
      332.575       0.00000
      332.677       0.00000
      332.780       0.00000
      332.882       0.00000
      332.985       0.00000
      333.087       0.00000
      333.190       0.00000
      333.292       0.00000
      333.395       0.00000
      333.497       0.00000
      333.600       0.00000
      333.702       0.00000
      333.805       0.00000
      333.908       0.00000
      334.011       0.00000
      334.113       0.00000
      334.216       0.00000
      334.319       0.00000
      334.422       0.00000
      334.525       0.00000
      334.628       0.00000
      334.731       0.00000
      334.834       0.00000
      334.937       0.00000
      335.040       0.00000
      335.143       0.00000
      335.246       0.00000
      335.349       0.00000
      335.452       0.00000
      335.555       0.00000
      335.659       0.00000
      335.762       0.00000
      335.865       0.00000
      335.969       0.00000
      336.072       0.00000
      336.175       0.00000
      336.279       0.00000
      336.382       0.00000
      336.486       0.00000
      336.589       0.00000
      336.693       0.00000
      336.796       0.00000
      336.900       0.00000
      337.004       0.00000
      337.107       0.00000
      337.211       0.00000
      337.315       0.00000
      337.419       0.00000
      337.523       0.00000
      337.626       0.00000
      337.730       0.00000
      337.834       0.00000
      337.938       0.00000
      338.042       0.00000
      338.146       0.00000
      338.250       0.00000
      338.354       0.00000
      338.458       0.00000
      338.562       0.00000
      338.667       0.00000
      338.771       0.00000
      338.875       0.00000
      338.979       0.00000
      339.084       0.00000
      339.188       0.00000
      339.292       0.00000
      339.397       0.00000
      339.501       0.00000
      339.606       0.00000
      339.710       0.00000
      339.815       0.00000
      339.919       0.00000
      340.024       0.00000
      340.128       0.00000
      340.233       0.00000
      340.338       0.00000
      340.442       0.00000
      340.547       0.00000
      340.652       0.00000
      340.757       0.00000
      340.862       0.00000
      340.966       0.00000
      341.071       0.00000
      341.176       0.00000
      341.281       0.00000
      341.386       0.00000
      341.491       0.00000
      341.596       0.00000
      341.702       0.00000
      341.807       0.00000
      341.912       0.00000
      342.017       0.00000
      342.122       0.00000
      342.228       0.00000
      342.333       0.00000
      342.438       0.00000
      342.544       0.00000
      342.649       0.00000
      342.754       0.00000
      342.860       0.00000
      342.965       0.00000
      343.071       0.00000
      343.176       0.00000
      343.282       0.00000
      343.388       0.00000
      343.493       0.00000
      343.599       0.00000
      343.705       0.00000
      343.810       0.00000
      343.916       0.00000
      344.022       0.00000
      344.128       0.00000
      344.234       0.00000
      344.340       0.00000
      344.446       0.00000
      344.552       0.00000
      344.658       0.00000
      344.764       0.00000
      344.870       0.00000
      344.976       0.00000
      345.082       0.00000
      345.188       0.00000
      345.294       0.00000
      345.401       0.00000
      345.507       0.00000
      345.613       0.00000
      345.719       0.00000
      345.826       0.00000
      345.932       0.00000
      346.039       0.00000
      346.145       0.00000
      346.252       0.00000
      346.358       0.00000
      346.465       0.00000
      346.571       0.00000
      346.678       0.00000
      346.785       0.00000
      346.891       0.00000
      346.998       0.00000
      347.105       0.00000
      347.212       0.00000
      347.319       0.00000
      347.425       0.00000
      347.532       0.00000
      347.639       0.00000
      347.746       0.00000
      347.853       0.00000
      347.960       0.00000
      348.067       0.00000
      348.174       0.00000
      348.281       0.00000
      348.389       0.00000
      348.496       0.00000
      348.603       0.00000
      348.710       0.00000
      348.818       0.00000
      348.925       0.00000
      349.032       0.00000
      349.140       0.00000
      349.247       0.00000
      349.355       0.00000
      349.462       0.00000
      349.570       0.00000
      349.677       0.00000
      349.785       0.00000
      349.892       0.00000
      350.000       0.00000
      350.100       0.00000
      350.193       0.00000
      350.287       0.00000
      350.380       0.00000
      350.473       0.00000
      350.567       0.00000
      350.660       0.00000
      350.754       0.00000
      350.847       0.00000
      350.941       0.00000
      351.034       0.00000
      351.128       0.00000
      351.221       0.00000
      351.315       0.00000
      351.409       0.00000
      351.502       0.00000
      351.596       0.00000
      351.690       0.00000
      351.783       0.00000
      351.877       0.00000
      351.971       0.00000
      352.065       0.00000
      352.159       0.00000
      352.252       0.00000
      352.346       0.00000
      352.440       0.00000
      352.534       0.00000
      352.628       0.00000
      352.722       0.00000
      352.816       0.00000
      352.910       0.00000
      353.004       0.00000
      353.098       0.00000
      353.192       0.00000
      353.287       0.00000
      353.381       0.00000
      353.475       0.00000
      353.569       0.00000
      353.663       0.00000
      353.758       0.00000
      353.852       0.00000
      353.946       0.00000
      354.041       0.00000
      354.135       0.00000
      354.229       0.00000
      354.324       0.00000
      354.418       0.00000
      354.513       0.00000
      354.607       0.00000
      354.702       0.00000
      354.796       0.00000
      354.891       0.00000
      354.985       0.00000
      355.080       0.00000
      355.175       0.00000
      355.269       0.00000
      355.364       0.00000
      355.459       0.00000
      355.553       0.00000
      355.648       0.00000
      355.743       0.00000
      355.838       0.00000
      355.933       0.00000
      356.027       0.00000
      356.122       0.00000
      356.217       0.00000
      356.312       0.00000
      356.407       0.00000
      356.502       0.00000
      356.597       0.00000
      356.692       0.00000
      356.787       0.00000
      356.882       0.00000
      356.977       0.00000
      357.073       0.00000
      357.168       0.00000
      357.263       0.00000
      357.358       0.00000
      357.453       0.00000
      357.549       0.00000
      357.644       0.00000
      357.739       0.00000
      357.835       0.00000
      357.930       0.00000
      358.025       0.00000
      358.121       0.00000
      358.216       0.00000
      358.312       0.00000
      358.407       0.00000
      358.503       0.00000
      358.598       0.00000
      358.694       0.00000
      358.790       0.00000
      358.885       0.00000
      358.981       0.00000
      359.076       0.00000
      359.172       0.00000
      359.268       0.00000
      359.364       0.00000
      359.459       0.00000
      359.555       0.00000
      359.651       0.00000
      359.747       0.00000
      359.843       0.00000
      359.939       0.00000
      360.035       0.00000
      360.131       0.00000
      360.227       0.00000
      360.323       0.00000
      360.419       0.00000
      360.515       0.00000
      360.611       0.00000
      360.707       0.00000
      360.803       0.00000
      360.899       0.00000
      360.995       0.00000
      361.092       0.00000
      361.188       0.00000
      361.284       0.00000
      361.380       0.00000
      361.477       0.00000
      361.573       0.00000
      361.669       0.00000
      361.766       0.00000
      361.862       0.00000
      361.959       0.00000
      362.055       0.00000
      362.152       0.00000
      362.248       0.00000
      362.345       0.00000
      362.441       0.00000
      362.538       0.00000
      362.635       0.00000
      362.731       0.00000
      362.828       0.00000
      362.925       0.00000
      363.021       0.00000
      363.118       0.00000
      363.215       0.00000
      363.312       0.00000
      363.409       0.00000
      363.505       0.00000
      363.602       0.00000
      363.699       0.00000
      363.796       0.00000
      363.893       0.00000
      363.990       0.00000
      364.087       0.00000
      364.184       0.00000
      364.281       0.00000
      364.378       0.00000
      364.475       0.00000
      364.573       0.00000
      364.670       0.00000
      364.767       0.00000
      364.864       0.00000
      364.961       0.00000
      365.059       0.00000
      365.156       0.00000
      365.253       0.00000
      365.351       0.00000
      365.448       0.00000
      365.545       0.00000
      365.643       0.00000
      365.740       0.00000
      365.838       0.00000
      365.935       0.00000
      366.033       0.00000
      366.130       0.00000
      366.228       0.00000
      366.326       0.00000
      366.423       0.00000
      366.521       0.00000
      366.618       0.00000
      366.716       0.00000
      366.814       0.00000
      366.912       0.00000
      367.010       0.00000
      367.107       0.00000
      367.205       0.00000
      367.303       0.00000
      367.401       0.00000
      367.499       0.00000
      367.597       0.00000
      367.695       0.00000
      367.793       0.00000
      367.891       0.00000
      367.989       0.00000
      368.087       0.00000
      368.185       0.00000
      368.283       0.00000
      368.381       0.00000
      368.480       0.00000
      368.578       0.00000
      368.676       0.00000
      368.774       0.00000
      368.873       0.00000
      368.971       0.00000
      369.069       0.00000
      369.168       0.00000
      369.266       0.00000
      369.364       0.00000
      369.463       0.00000
      369.561       0.00000
      369.660       0.00000
      369.758       0.00000
      369.857       0.00000
      369.955       0.00000
      370.054       0.00000
      370.153       0.00000
      370.251       0.00000
      370.350       0.00000
      370.449       0.00000
      370.547       0.00000
      370.646       0.00000
      370.745       0.00000
      370.844       0.00000
      370.943       0.00000
      371.041       0.00000
      371.140       0.00000
      371.239       0.00000
      371.338       0.00000
      371.437       0.00000
      371.536       0.00000
      371.635       0.00000
      371.734       0.00000
      371.833       0.00000
      371.932       0.00000
      372.032       0.00000
      372.131       0.00000
      372.230       0.00000
      372.329       0.00000
      372.428       0.00000
      372.528       0.00000
      372.627       0.00000
      372.726       0.00000
      372.826       0.00000
      372.925       0.00000
      373.024       0.00000
      373.124       0.00000
      373.223       0.00000
      373.323       0.00000
      373.422       0.00000
      373.522       0.00000
      373.621       0.00000
      373.721       0.00000
      373.820       0.00000
      373.920       0.00000
      374.020       0.00000
      374.119       0.00000
      374.219       0.00000
      374.319       0.00000
      374.419       0.00000
      374.518       0.00000
      374.618       0.00000
      374.718       0.00000
      374.818       0.00000
      374.918       0.00000
      375.018       0.00000
      375.118       0.00000
      375.218       0.00000
      375.318       0.00000
      375.418       0.00000
      375.518       0.00000
      375.618       0.00000
      375.718       0.00000
      375.818       0.00000
      375.918       0.00000
      376.019       0.00000
      376.119       0.00000
      376.219       0.00000
      376.319       0.00000
      376.420       0.00000
      376.520       0.00000
      376.620       0.00000
      376.721       0.00000
      376.821       0.00000
      376.922       0.00000
      377.022       0.00000
      377.122       0.00000
      377.223       0.00000
      377.323       0.00000
      377.424       0.00000
      377.525       0.00000
      377.625       0.00000
      377.726       0.00000
      377.827       0.00000
      377.927       0.00000
      378.028       0.00000
      378.129       0.00000
      378.230       0.00000
      378.330       0.00000
      378.431       0.00000
      378.532       0.00000
      378.633       0.00000
      378.734       0.00000
      378.835       0.00000
      378.936       0.00000
      379.037       0.00000
      379.138       0.00000
      379.239       0.00000
      379.340       0.00000
      379.441       0.00000
      379.542       0.00000
      379.643       0.00000
      379.745       0.00000
      379.846       0.00000
      379.947       0.00000
      380.048       0.00000
      380.150       0.00000
      380.251       0.00000
      380.352       0.00000
      380.454       0.00000
      380.555       0.00000
      380.656       0.00000
      380.758       0.00000
      380.859       0.00000
      380.961       0.00000
      381.062       0.00000
      381.164       0.00000
      381.266       0.00000
      381.367       0.00000
      381.469       0.00000
      381.570       0.00000
      381.672       0.00000
      381.774       0.00000
      381.876       0.00000
      381.977       0.00000
      382.079       0.00000
      382.181       0.00000
      382.283       0.00000
      382.385       0.00000
      382.487       0.00000
      382.589       0.00000
      382.691       0.00000
      382.793       0.00000
      382.895       0.00000
      382.997       0.00000
      383.099       0.00000
      383.201       0.00000
      383.303       0.00000
      383.405       0.00000
      383.507       0.00000
      383.610       0.00000
      383.712       0.00000
      383.814       0.00000
      383.916       0.00000
      384.019       0.00000
      384.121       0.00000
      384.223       0.00000
      384.326       0.00000
      384.428       0.00000
      384.531       0.00000
      384.633       0.00000
      384.736       0.00000
      384.838       0.00000
      384.941       0.00000
      385.043       0.00000
      385.146       0.00000
      385.249       0.00000
      385.351       0.00000
      385.454       0.00000
      385.557       0.00000
      385.660       0.00000
      385.762       0.00000
      385.865       0.00000
      385.968       0.00000
      386.071       0.00000
      386.174       0.00000
      386.277       0.00000
      386.380       0.00000
      386.483       0.00000
      386.586       0.00000
      386.689       0.00000
      386.792       0.00000
      386.895       0.00000
      386.998       0.00000
      387.101       0.00000
      387.204       0.00000
      387.308       0.00000
      387.411       0.00000
      387.514       0.00000
      387.617       0.00000
      387.721       0.00000
      387.824       0.00000
      387.927       0.00000
      388.031       0.00000
      388.134       0.00000
      388.238       0.00000
      388.341       0.00000
      388.445       0.00000
      388.548       0.00000
      388.652       0.00000
      388.755       0.00000
      388.859       0.00000
      388.962       0.00000
      389.066       0.00000
      389.170       0.00000
      389.274       0.00000
      389.377       0.00000
      389.481       0.00000
      389.585       0.00000
      389.689       0.00000
      389.793       0.00000
      389.897       0.00000
      390.000       0.00000
      390.104       0.00000
      390.208       0.00000
      390.312       0.00000
      390.416       0.00000
      390.520       0.00000
      390.625       0.00000
      390.729       0.00000
      390.833       0.00000
      390.937       0.00000
      391.041       0.00000
      391.145       0.00000
      391.250       0.00000
      391.354       0.00000
      391.458       0.00000
      391.563       0.00000
      391.667       0.00000
      391.771       0.00000
      391.876       0.00000
      391.980       0.00000
      392.085       0.00000
      392.189       0.00000
      392.294       0.00000
      392.398       0.00000
      392.503       0.00000
      392.607       0.00000
      392.712       0.00000
      392.817       0.00000
      392.921       0.00000
      393.026       0.00000
      393.131       0.00000
      393.236       0.00000
      393.340       0.00000
      393.445       0.00000
      393.550       0.00000
      393.655       0.00000
      393.760       0.00000
      393.865       0.00000
      393.970       0.00000
      394.075       0.00000
      394.180       0.00000
      394.285       0.00000
      394.390       0.00000
      394.495       0.00000
      394.600       0.00000
      394.706       0.00000
      394.811       0.00000
      394.916       0.00000
      395.021       0.00000
      395.126       0.00000
      395.232       0.00000
      395.337       0.00000
      395.443       0.00000
      395.548       0.00000
      395.653       0.00000
      395.759       0.00000
      395.864       0.00000
      395.970       0.00000
      396.075       0.00000
      396.181       0.00000
      396.286       0.00000
      396.392       0.00000
      396.498       0.00000
      396.603       0.00000
      396.709       0.00000
      396.815       0.00000
      396.921       0.00000
      397.026       0.00000
      397.132       0.00000
      397.238       0.00000
      397.344       0.00000
      397.450       0.00000
      397.556       0.00000
      397.662       0.00000
      397.768       0.00000
      397.874       0.00000
      397.980       0.00000
      398.086       0.00000
      398.192       0.00000
      398.298       0.00000
      398.404       0.00000
      398.510       0.00000
      398.617       0.00000
      398.723       0.00000
      398.829       0.00000
      398.935       0.00000
      399.042       0.00000
      399.148       0.00000
      399.255       0.00000
      399.361       0.00000
      399.467       0.00000
      399.574       0.00000
      399.680       0.00000
      399.787       0.00000
      399.893       0.00000
      400.000       0.00000
