Filter Be-med
observation_date 22-Sept-2013 22:40:45
wavelength effective area 
      1.00000   2.78115e-10
      1.10000   7.93777e-10
      1.20000   2.06299e-09
      1.30000   4.93139e-09
      1.40000   1.11852e-08
      1.50000   2.38508e-08
      1.60000   4.82561e-08
      1.70000   9.36204e-08
      1.80000   1.74162e-07
      1.90000   3.12745e-07
      2.00000   5.43159e-07
      2.10000   9.16388e-07
      2.20000   1.50911e-06
      2.30000   2.42246e-06
      2.40000   3.79717e-06
      2.50000   5.79309e-06
      2.60000   8.82402e-06
      2.70000   1.31285e-05
      2.80000   1.91556e-05
      2.90000   2.76564e-05
      3.00000   3.92987e-05
      3.10000   5.51143e-05
      3.20000   7.64350e-05
      3.30000   0.000104901
      3.40000   0.000142434
      3.50000   0.000191479
      3.60000   0.000256153
      3.70000   0.000338952
      3.80000   0.000446519
      3.90000   0.000584790
      4.00000   0.000760891
      4.10000   0.000985142
      4.20000    0.00127069
      4.30000    0.00163386
      4.40000    0.00209452
      4.50000    0.00267683
      4.60000    0.00340847
      4.70000    0.00433830
      4.80000    0.00551393
      4.90000    0.00691612
      5.00000    0.00889877
      5.10000     0.0112854
      5.20000     0.0143468
      5.30000     0.0180795
      5.40000     0.0227343
      5.50000     0.0286258
      5.60000     0.0349253
      5.70000     0.0448732
      5.80000     0.0519591
      5.90000     0.0783294
      6.00000      0.103915
      6.10000      0.131007
      6.20000      0.158647
      6.30000      0.184082
      6.40000      0.204785
      6.50000      0.218643
      6.60000      0.222765
      6.70000      0.225904
      6.80000      0.222435
      6.90000      0.286769
      7.00000      0.306271
      7.10000      0.317919
      7.20000      0.325346
      7.30000      0.329723
      7.40000      0.331081
      7.50000      0.330439
      7.60000      0.327961
      7.70000      0.322905
      7.80000      0.314828
      7.90000      0.307090
      8.00000      0.433162
      8.10000      0.462475
      8.20000      0.458006
      8.30000      0.451338
      8.40000      0.442682
      8.50000      0.433168
      8.60000      0.422765
      8.70000      0.411798
      8.80000      0.400234
      8.90000      0.388294
      9.00000      0.376026
      9.10000      0.363503
      9.20000      0.350816
      9.30000      0.338031
      9.40000      0.325185
      9.50000      0.312326
      9.60000      0.299537
      9.70000      0.286823
      9.80000      0.274242
      9.90000      0.261862
      10.0000      0.249713
      10.1000      0.237788
      10.2000      0.226110
      10.3000      0.214718
      10.4000      0.203632
      10.5000      0.192842
      10.6000      0.182361
      10.7000      0.172200
      10.8000      0.162387
      10.9000      0.152949
      11.0000      0.143854
      11.1000      0.135113
      11.2000      0.126725
      11.3000      0.118692
      11.4000      0.111008
      11.5000      0.103672
      11.6000     0.0966808
      11.7000     0.0900434
      11.8000     0.0837386
      11.9000     0.0777446
      12.0000     0.0719855
      12.1000     0.0667753
      12.2000     0.0629871
      12.3000     0.0587301
      12.4000     0.0542848
      12.5000     0.0500746
      12.6000     0.0461151
      12.7000     0.0424052
      12.8000     0.0389363
      12.9000     0.0356977
      13.0000     0.0326808
      13.1000     0.0298757
      13.2000     0.0272756
      13.3000     0.0248825
      13.4000     0.0226777
      13.5000     0.0206414
      13.6000     0.0187750
      13.7000     0.0170546
      13.8000     0.0154705
      13.9000     0.0140141
      14.0000     0.0126765
      14.1000     0.0114478
      14.2000     0.0103194
      14.3000    0.00928563
      14.4000    0.00834086
      14.5000    0.00748387
      14.6000    0.00671097
      14.7000    0.00600743
      14.8000    0.00536789
      14.9000    0.00478729
      15.0000    0.00426103
      15.1000    0.00378488
      15.2000    0.00336348
      15.3000    0.00298452
      15.4000    0.00264264
      15.5000    0.00233469
      15.6000    0.00205786
      15.7000    0.00181293
      15.8000    0.00159726
      15.9000    0.00140377
      16.0000    0.00123046
      16.1000    0.00107557
      16.2000   0.000941508
      16.3000   0.000823080
      16.4000   0.000717328
      16.5000   0.000623118
      16.6000   0.000541224
      16.7000   0.000470415
      16.8000   0.000407368
      16.9000   0.000351407
      17.0000   0.000303267
      17.1000   0.000262105
      17.2000   0.000225730
      17.3000   0.000193707
      17.4000   0.000166873
      17.5000   0.000143447
      17.6000   0.000122828
      17.7000   0.000105290
      17.8000   9.10638e-05
      17.9000   7.84207e-05
      18.0000   6.71818e-05
      18.1000   5.79194e-05
      18.2000   4.96224e-05
      18.3000   4.21544e-05
      18.4000   3.57905e-05
      18.5000   3.02604e-05
      18.6000   2.53211e-05
      18.7000   2.11563e-05
      18.8000   1.76692e-05
      18.9000   1.46129e-05
      19.0000   1.21372e-05
      19.1000   1.00755e-05
      19.2000   8.27171e-06
      19.3000   6.84169e-06
      19.4000   5.65105e-06
      19.5000   4.62150e-06
      19.6000   3.85187e-06
      19.7000   3.18378e-06
      19.8000   2.60571e-06
      19.9000   2.16599e-06
      20.0000   1.77459e-06
      20.1000   1.45353e-06
      20.2000   1.19693e-06
      20.3000   9.70172e-07
      20.4000   7.96805e-07
      20.5000   6.48634e-07
      20.6000   5.22918e-07
      20.7000   4.28277e-07
      20.8000   3.43862e-07
      20.9000   2.79053e-07
      21.0000   2.25088e-07
      21.1000   1.79272e-07
      21.2000   1.45529e-07
      21.3000   1.15293e-07
      21.4000   9.28508e-08
      21.5000   7.38697e-08
      21.6000   5.83921e-08
      21.7000   4.67071e-08
      21.8000   3.62933e-08
      21.9000   2.91070e-08
      22.0000   2.26471e-08
      22.1000   1.78654e-08
      22.2000   1.39516e-08
      22.3000   1.07920e-08
      22.4000   8.35118e-09
      22.5000   6.14543e-09
      22.6000   4.42533e-09
      22.7000   2.99419e-09
      22.8000   2.87974e-09
      22.9000   2.86223e-09
      23.0000   2.90982e-09
      23.1000   2.71308e-09
      23.2000   2.28663e-09
      23.3000   1.86786e-09
      23.4000   1.45329e-09
      23.5000   1.15509e-09
      23.6000   8.85933e-10
      23.7000   7.05198e-10
      23.8000   5.34305e-10
      23.9000   4.25137e-10
      24.0000   3.21634e-10
      24.1000   2.53821e-10
      24.2000   1.91603e-10
      24.3000   1.50115e-10
      24.4000   1.13106e-10
      24.5000   8.80126e-11
      24.6000   6.61423e-11
      24.7000   5.11687e-11
      24.8000   3.83372e-11
      24.9000   2.95090e-11
      25.0000   2.20207e-11
      25.1000   1.68828e-11
      25.2000   1.25359e-11
      25.3000   9.58273e-12
      25.4000   7.07086e-12
      25.5000   5.39616e-12
      25.6000   3.95194e-12
      25.7000   3.01464e-12
      25.8000   2.18804e-12
      25.9000   1.67043e-12
      26.0000   1.19969e-12
      26.1000   9.17704e-13
      26.2000   6.51083e-13
      26.3000   4.99653e-13
      26.4000   3.49657e-13
      26.5000   2.69488e-13
      26.6000   1.89703e-13
      26.7000   1.43896e-13
      26.8000   1.02286e-13
      26.9000   7.60266e-14
      27.0000   5.46377e-14
      27.1000   3.97017e-14
      27.2000   2.88720e-14
      27.3000   2.04957e-14
      27.4000   1.51642e-14
      27.5000   1.05389e-14
      27.6000   7.88095e-15
      27.7000   5.31205e-15
      27.8000   4.02515e-15
      27.9000   2.74435e-15
      28.0000   2.02488e-15
      28.1000   1.41692e-15
      28.2000   1.00337e-15
      28.3000   7.19675e-16
      28.4000   4.89330e-16
      28.5000   3.59236e-16
      28.6000   2.34684e-16
      28.7000   1.76093e-16
      28.8000   1.17786e-16
      28.9000   8.47092e-17
      29.0000   5.89007e-17
      29.1000   3.99482e-17
      29.2000   2.87353e-17
      29.3000   1.84567e-17
      29.4000   1.36775e-17
      29.5000   8.92165e-18
      29.6000   6.35213e-18
      29.7000   4.36448e-18
      29.8000   2.87856e-18
      29.9000   2.06406e-18
      30.0000   1.27265e-18
      30.1000   9.45598e-19
      30.2000   6.20161e-19
      30.3000   4.23578e-19
      30.4000   3.00829e-19
      30.5000   1.93342e-19
      30.6000   1.40848e-19
      30.7000   8.86124e-20
      30.8000   6.13709e-20
      30.9000   4.16952e-20
      31.0000   2.58996e-20
      31.1000   1.87436e-20
      31.2000   1.16231e-20
      31.3000   8.18054e-21
      31.4000   5.53403e-21
      31.5000   3.43482e-21
      31.6000   2.47236e-21
      31.7000   1.51472e-21
      31.8000   1.04968e-21
      31.9000   7.09535e-22
      32.0000   4.27858e-22
      32.1000   3.11975e-22
      32.2000   1.96671e-22
      32.3000   1.32918e-22
      32.4000   9.19797e-23
      32.5000   5.41449e-23
      32.6000   3.99274e-23
      32.7000   2.57809e-23
      32.8000   1.63725e-23
      32.9000   1.15643e-23
      33.0000   6.78030e-24
      33.1000   4.80454e-24
      33.2000   3.21567e-24
      33.3000   1.88315e-24
      33.4000   1.36705e-24
      33.5000   8.53486e-25
      33.6000   5.39190e-25
      33.7000   3.76294e-25
      33.8000   2.14180e-25
      33.9000   1.50205e-25
      34.0000   9.99982e-26
      34.1000   5.58641e-26
      34.2000   4.06955e-26
      34.3000   2.55948e-26
      34.4000   1.51627e-26
      34.5000   1.07145e-26
      34.6000   6.28660e-27
      34.7000   4.01237e-27
      34.8000   2.74074e-27
      34.9000   1.47481e-27
      35.0000   1.03445e-27
      35.1000   6.80835e-28
      35.2000   3.56315e-28
      35.3000   2.60159e-28
      35.4000   1.64436e-28
      35.5000   8.91816e-29
      35.6000   6.38577e-29
      35.7000   3.86479e-29
      35.8000   2.17925e-29
      35.9000   1.53072e-29
      36.0000   8.85113e-30
      36.1000   5.19930e-30
      36.2000   3.58573e-30
      36.3000   1.97944e-30
      36.4000   1.21161e-30
      36.5000   8.21698e-31
      36.6000   4.33579e-31
      36.7000   2.75832e-31
      36.8000   1.84380e-31
      36.9000   9.33489e-32
      37.0000   6.13502e-32
      37.1000   4.05427e-32
      37.2000   1.98294e-32
      37.3000   1.33288e-32
      37.4000   8.73997e-33
      37.5000   4.17226e-33
      37.6000   2.82835e-33
      37.7000   1.84811e-33
      37.8000   8.72391e-34
      37.9000   5.86099e-34
      38.0000   3.83307e-34
      38.1000   1.81445e-34
      38.2000   1.18494e-34
      38.3000   7.78977e-35
      38.4000   3.74874e-35
      38.5000   2.33398e-35
      38.6000   1.54884e-35
      38.7000   7.67300e-36
      38.8000   4.47630e-36
      38.9000   3.00951e-36
      39.0000   1.54940e-36
      39.1000   8.35184e-37
      39.2000   5.70512e-37
      39.3000   3.07047e-37
      39.4000   1.51185e-37
      39.5000   1.04827e-37
      39.6000   5.86853e-38
      39.7000   2.57602e-38
      39.8000   1.82147e-38
      39.9000   1.07037e-38
      40.0000   4.23353e-39
      40.1000   3.05566e-39
      40.2000   1.88318e-39
      40.3000   7.16208e-40
      40.4000   4.95052e-40
      40.5000   3.19049e-40
      40.6000   1.43850e-40
      40.7000   7.72606e-41
      40.8000   5.18859e-41
      40.9000   2.66233e-41
      41.0000   1.15887e-41
      41.1000   8.07708e-42
      41.2000   4.58505e-42
      41.3000   1.66755e-42
      41.4000   1.20091e-42
      41.5000   7.38484e-43
      41.6000   2.81661e-43
      41.7000   1.69557e-43
      41.8000   1.12104e-43
      41.9000   5.04467e-44
      42.0000   2.52234e-44
      42.1000   1.96182e-44
      42.2000   9.80909e-45
      42.3000   2.80260e-45
      42.4000   2.80260e-45
      42.5000   2.80260e-45
      42.6000  -2.80260e-45
      42.7000       0.00000
      42.8000       0.00000
      42.9000       0.00000
      43.0000       0.00000
      43.1000       0.00000
      43.2000       0.00000
      43.3000       0.00000
      43.4000       0.00000
      43.5000       0.00000
      43.6000       0.00000
      43.7000       0.00000
      43.8000       0.00000
      43.9000       0.00000
      44.0000       0.00000
      44.1000       0.00000
      44.2000       0.00000
      44.3000       0.00000
      44.4000       0.00000
      44.5000       0.00000
      44.6000       0.00000
      44.7000       0.00000
      44.8000       0.00000
      44.9000       0.00000
      45.0000       0.00000
      45.1000       0.00000
      45.2000       0.00000
      45.3000       0.00000
      45.4000       0.00000
      45.5000       0.00000
      45.6000       0.00000
      45.7000       0.00000
      45.8000       0.00000
      45.9000       0.00000
      46.0000       0.00000
      46.1000       0.00000
      46.2000       0.00000
      46.3000       0.00000
      46.4000       0.00000
      46.5000       0.00000
      46.6000       0.00000
      46.7000       0.00000
      46.8000       0.00000
      46.9000       0.00000
      47.0000       0.00000
      47.1000       0.00000
      47.2000       0.00000
      47.3000       0.00000
      47.4000       0.00000
      47.5000       0.00000
      47.6000       0.00000
      47.7000       0.00000
      47.8000       0.00000
      47.9000       0.00000
      48.0000       0.00000
      48.1000       0.00000
      48.2000       0.00000
      48.3000       0.00000
      48.4000       0.00000
      48.5000       0.00000
      48.6000       0.00000
      48.7000       0.00000
      48.8000       0.00000
      48.9000       0.00000
      49.0000       0.00000
      49.1000       0.00000
      49.2000       0.00000
      49.3000       0.00000
      49.4000       0.00000
      49.5000       0.00000
      49.6000       0.00000
      49.7000       0.00000
      49.8000       0.00000
      49.9000       0.00000
      50.0000       0.00000
      50.1000       0.00000
      50.2000       0.00000
      50.3000       0.00000
      50.4000       0.00000
      50.5000       0.00000
      50.6000       0.00000
      50.7000       0.00000
      50.8000       0.00000
      50.9000       0.00000
      51.0000       0.00000
      51.1000       0.00000
      51.2000       0.00000
      51.3000       0.00000
      51.4000       0.00000
      51.5000       0.00000
      51.6000       0.00000
      51.7000       0.00000
      51.8000       0.00000
      51.9000       0.00000
      52.0000       0.00000
      52.1000       0.00000
      52.2000       0.00000
      52.3000       0.00000
      52.4000       0.00000
      52.5000       0.00000
      52.6000       0.00000
      52.7000       0.00000
      52.8000       0.00000
      52.9000       0.00000
      53.0000       0.00000
      53.1000       0.00000
      53.2000       0.00000
      53.3000       0.00000
      53.4000       0.00000
      53.5000       0.00000
      53.6000       0.00000
      53.7000       0.00000
      53.8000       0.00000
      53.9000       0.00000
      54.0000       0.00000
      54.1000       0.00000
      54.2000       0.00000
      54.3000       0.00000
      54.4000       0.00000
      54.5000       0.00000
      54.6000       0.00000
      54.7000       0.00000
      54.8000       0.00000
      54.9000       0.00000
      55.0000       0.00000
      55.1000       0.00000
      55.2000       0.00000
      55.3000       0.00000
      55.4000       0.00000
      55.5000       0.00000
      55.6000       0.00000
      55.7000       0.00000
      55.8000       0.00000
      55.9000       0.00000
      56.0000       0.00000
      56.1000       0.00000
      56.2000       0.00000
      56.3000       0.00000
      56.4000       0.00000
      56.5000       0.00000
      56.6000       0.00000
      56.7000       0.00000
      56.8000       0.00000
      56.9000       0.00000
      57.0000       0.00000
      57.1000       0.00000
      57.2000       0.00000
      57.3000       0.00000
      57.4000       0.00000
      57.5000       0.00000
      57.6000       0.00000
      57.7000       0.00000
      57.8000       0.00000
      57.9000       0.00000
      58.0000       0.00000
      58.1000       0.00000
      58.2000       0.00000
      58.3000       0.00000
      58.4000       0.00000
      58.5000       0.00000
      58.6000       0.00000
      58.7000       0.00000
      58.8000       0.00000
      58.9000       0.00000
      59.0000       0.00000
      59.1000       0.00000
      59.2000       0.00000
      59.3000       0.00000
      59.4000       0.00000
      59.5000       0.00000
      59.6000       0.00000
      59.7000       0.00000
      59.8000       0.00000
      59.9000       0.00000
      60.0000       0.00000
      60.1000       0.00000
      60.2000       0.00000
      60.3000       0.00000
      60.4000       0.00000
      60.5000       0.00000
      60.6000       0.00000
      60.7000       0.00000
      60.8000       0.00000
      60.9000       0.00000
      61.0000       0.00000
      61.1000       0.00000
      61.2000       0.00000
      61.3000       0.00000
      61.4000       0.00000
      61.5000       0.00000
      61.6000       0.00000
      61.7000       0.00000
      61.8000       0.00000
      61.9000       0.00000
      62.0000       0.00000
      62.1000       0.00000
      62.2000       0.00000
      62.3000       0.00000
      62.4000       0.00000
      62.5000       0.00000
      62.6000       0.00000
      62.7000       0.00000
      62.8000       0.00000
      62.9000       0.00000
      63.0000       0.00000
      63.1000       0.00000
      63.2000       0.00000
      63.3000       0.00000
      63.4000       0.00000
      63.5000       0.00000
      63.6000       0.00000
      63.7000       0.00000
      63.8000       0.00000
      63.9000       0.00000
      64.0000       0.00000
      64.1000       0.00000
      64.2000       0.00000
      64.3000       0.00000
      64.4000       0.00000
      64.5000       0.00000
      64.6000       0.00000
      64.7000       0.00000
      64.8000       0.00000
      64.9000       0.00000
      65.0000       0.00000
      65.1000       0.00000
      65.2000       0.00000
      65.3000       0.00000
      65.4000       0.00000
      65.5000       0.00000
      65.6000       0.00000
      65.7000       0.00000
      65.8000       0.00000
      65.9000       0.00000
      66.0000       0.00000
      66.1000       0.00000
      66.2000       0.00000
      66.3000       0.00000
      66.4000       0.00000
      66.5000       0.00000
      66.6000       0.00000
      66.7000       0.00000
      66.8000       0.00000
      66.9000       0.00000
      67.0000       0.00000
      67.1000       0.00000
      67.2000       0.00000
      67.3000       0.00000
      67.4000       0.00000
      67.5000       0.00000
      67.6000       0.00000
      67.7000       0.00000
      67.8000       0.00000
      67.9000       0.00000
      68.0000       0.00000
      68.1000       0.00000
      68.2000       0.00000
      68.3000       0.00000
      68.4000       0.00000
      68.5000       0.00000
      68.6000       0.00000
      68.7000       0.00000
      68.8000       0.00000
      68.9000       0.00000
      69.0000       0.00000
      69.1000       0.00000
      69.2000       0.00000
      69.3000       0.00000
      69.4000       0.00000
      69.5000       0.00000
      69.6000       0.00000
      69.7000       0.00000
      69.8000       0.00000
      69.9000       0.00000
      70.0000       0.00000
      70.1000       0.00000
      70.2000       0.00000
      70.3000       0.00000
      70.4000       0.00000
      70.5000       0.00000
      70.6000       0.00000
      70.7000       0.00000
      70.8000       0.00000
      70.9000       0.00000
      71.0000       0.00000
      71.1000       0.00000
      71.2000       0.00000
      71.3000       0.00000
      71.4000       0.00000
      71.5000       0.00000
      71.6000       0.00000
      71.7000       0.00000
      71.8000       0.00000
      71.9000       0.00000
      72.0000       0.00000
      72.1000       0.00000
      72.2000       0.00000
      72.3000       0.00000
      72.4000       0.00000
      72.5000       0.00000
      72.6000       0.00000
      72.7000       0.00000
      72.8000       0.00000
      72.9000       0.00000
      73.0000       0.00000
      73.1000       0.00000
      73.2000       0.00000
      73.3000       0.00000
      73.4000       0.00000
      73.5000       0.00000
      73.6000       0.00000
      73.7000       0.00000
      73.8000       0.00000
      73.9000       0.00000
      74.0000       0.00000
      74.1000       0.00000
      74.2000       0.00000
      74.3000       0.00000
      74.4000       0.00000
      74.5000       0.00000
      74.6000       0.00000
      74.7000       0.00000
      74.8000       0.00000
      74.9000       0.00000
      75.0000       0.00000
      75.1000       0.00000
      75.2000       0.00000
      75.3000       0.00000
      75.4000       0.00000
      75.5000       0.00000
      75.6000       0.00000
      75.7000       0.00000
      75.8000       0.00000
      75.9000       0.00000
      76.0000       0.00000
      76.1000       0.00000
      76.2000       0.00000
      76.3000       0.00000
      76.4000       0.00000
      76.5000       0.00000
      76.6000       0.00000
      76.7000       0.00000
      76.8000       0.00000
      76.9000       0.00000
      77.0000       0.00000
      77.1000       0.00000
      77.2000       0.00000
      77.3000       0.00000
      77.4000       0.00000
      77.5000       0.00000
      77.6000       0.00000
      77.7000       0.00000
      77.8000       0.00000
      77.9000       0.00000
      78.0000       0.00000
      78.1000       0.00000
      78.2000       0.00000
      78.3000       0.00000
      78.4000       0.00000
      78.5000       0.00000
      78.6000       0.00000
      78.7000       0.00000
      78.8000       0.00000
      78.9000       0.00000
      79.0000       0.00000
      79.1000       0.00000
      79.2000       0.00000
      79.3000       0.00000
      79.4000       0.00000
      79.5000       0.00000
      79.6000       0.00000
      79.7000       0.00000
      79.8000       0.00000
      79.9000       0.00000
      80.0000       0.00000
      80.1000       0.00000
      80.2000       0.00000
      80.3000       0.00000
      80.4000       0.00000
      80.5000       0.00000
      80.6000       0.00000
      80.7000       0.00000
      80.8000       0.00000
      80.9000       0.00000
      81.0000       0.00000
      81.1000       0.00000
      81.2000       0.00000
      81.3000       0.00000
      81.4000       0.00000
      81.5000       0.00000
      81.6000       0.00000
      81.7000       0.00000
      81.8000       0.00000
      81.9000       0.00000
      82.0000       0.00000
      82.1000       0.00000
      82.2000       0.00000
      82.3000       0.00000
      82.4000       0.00000
      82.5000       0.00000
      82.6000       0.00000
      82.7000       0.00000
      82.8000       0.00000
      82.9000       0.00000
      83.0000       0.00000
      83.1000       0.00000
      83.2000       0.00000
      83.3000       0.00000
      83.4000       0.00000
      83.5000       0.00000
      83.6000       0.00000
      83.7000       0.00000
      83.8000       0.00000
      83.9000       0.00000
      84.0000       0.00000
      84.1000       0.00000
      84.2000       0.00000
      84.3000       0.00000
      84.4000       0.00000
      84.5000       0.00000
      84.6000       0.00000
      84.7000       0.00000
      84.8000       0.00000
      84.9000       0.00000
      85.0000       0.00000
      85.1000       0.00000
      85.2000       0.00000
      85.3000       0.00000
      85.4000       0.00000
      85.5000       0.00000
      85.6000       0.00000
      85.7000       0.00000
      85.8000       0.00000
      85.9000       0.00000
      86.0000       0.00000
      86.1000       0.00000
      86.2000       0.00000
      86.3000       0.00000
      86.4000       0.00000
      86.5000       0.00000
      86.6000       0.00000
      86.7000       0.00000
      86.8000       0.00000
      86.9000       0.00000
      87.0000       0.00000
      87.1000       0.00000
      87.2000       0.00000
      87.3000       0.00000
      87.4000       0.00000
      87.5000       0.00000
      87.6000       0.00000
      87.7000       0.00000
      87.8000       0.00000
      87.9000       0.00000
      88.0000       0.00000
      88.1000       0.00000
      88.2000       0.00000
      88.3000       0.00000
      88.4000       0.00000
      88.5000       0.00000
      88.6000       0.00000
      88.7000       0.00000
      88.8000       0.00000
      88.9000       0.00000
      89.0000       0.00000
      89.1000       0.00000
      89.2000       0.00000
      89.3000       0.00000
      89.4000       0.00000
      89.5000       0.00000
      89.6000       0.00000
      89.7000       0.00000
      89.8000       0.00000
      89.9000       0.00000
      90.0000       0.00000
      90.1000       0.00000
      90.2000       0.00000
      90.3000       0.00000
      90.4000       0.00000
      90.5000       0.00000
      90.6000       0.00000
      90.7000       0.00000
      90.8000       0.00000
      90.9000       0.00000
      91.0000       0.00000
      91.1000       0.00000
      91.2000       0.00000
      91.3000       0.00000
      91.4000       0.00000
      91.5000       0.00000
      91.6000       0.00000
      91.7000       0.00000
      91.8000       0.00000
      91.9000       0.00000
      92.0000       0.00000
      92.1000       0.00000
      92.2000       0.00000
      92.3000       0.00000
      92.4000       0.00000
      92.5000       0.00000
      92.6000       0.00000
      92.7000       0.00000
      92.8000       0.00000
      92.9000       0.00000
      93.0000       0.00000
      93.1000       0.00000
      93.2000       0.00000
      93.3000       0.00000
      93.4000       0.00000
      93.5000       0.00000
      93.6000       0.00000
      93.7000       0.00000
      93.8000       0.00000
      93.9000       0.00000
      94.0000       0.00000
      94.1000       0.00000
      94.2000       0.00000
      94.3000       0.00000
      94.4000       0.00000
      94.5000       0.00000
      94.6000       0.00000
      94.7000       0.00000
      94.8000       0.00000
      94.9000       0.00000
      95.0000       0.00000
      95.1000       0.00000
      95.2000       0.00000
      95.3000       0.00000
      95.4000       0.00000
      95.5000       0.00000
      95.6000       0.00000
      95.7000       0.00000
      95.8000       0.00000
      95.9000       0.00000
      96.0000       0.00000
      96.1000       0.00000
      96.2000       0.00000
      96.3000       0.00000
      96.4000       0.00000
      96.5000       0.00000
      96.6000       0.00000
      96.7000       0.00000
      96.8000       0.00000
      96.9000       0.00000
      97.0000       0.00000
      97.1000       0.00000
      97.2000       0.00000
      97.3000       0.00000
      97.4000       0.00000
      97.5000       0.00000
      97.6000       0.00000
      97.7000       0.00000
      97.8000       0.00000
      97.9000       0.00000
      98.0000       0.00000
      98.1000       0.00000
      98.2000       0.00000
      98.3000       0.00000
      98.4000       0.00000
      98.5000       0.00000
      98.6000       0.00000
      98.7000       0.00000
      98.8000       0.00000
      98.9000       0.00000
      99.0000       0.00000
      99.1000       0.00000
      99.2000       0.00000
      99.3000       0.00000
      99.4000       0.00000
      99.5000       0.00000
      99.6000       0.00000
      99.7000       0.00000
      99.8000       0.00000
      99.9000       0.00000
      100.000       0.00000
      100.100       0.00000
      100.200       0.00000
      100.300       0.00000
      100.400       0.00000
      100.500       0.00000
      100.600       0.00000
      100.700       0.00000
      100.800       0.00000
      100.900       0.00000
      101.000       0.00000
      101.100       0.00000
      101.200       0.00000
      101.300       0.00000
      101.400       0.00000
      101.500       0.00000
      101.600       0.00000
      101.700       0.00000
      101.800       0.00000
      101.900       0.00000
      102.000       0.00000
      102.100       0.00000
      102.200       0.00000
      102.300       0.00000
      102.400       0.00000
      102.500       0.00000
      102.600       0.00000
      102.700       0.00000
      102.800       0.00000
      102.900       0.00000
      103.000       0.00000
      103.100       0.00000
      103.200       0.00000
      103.300       0.00000
      103.400       0.00000
      103.500       0.00000
      103.600       0.00000
      103.700       0.00000
      103.800       0.00000
      103.900       0.00000
      104.000       0.00000
      104.100       0.00000
      104.200       0.00000
      104.300       0.00000
      104.400       0.00000
      104.500       0.00000
      104.600       0.00000
      104.700       0.00000
      104.800       0.00000
      104.900       0.00000
      105.000       0.00000
      105.100       0.00000
      105.200       0.00000
      105.300       0.00000
      105.400       0.00000
      105.500       0.00000
      105.600       0.00000
      105.700       0.00000
      105.800       0.00000
      105.900       0.00000
      106.000       0.00000
      106.100       0.00000
      106.200       0.00000
      106.300       0.00000
      106.400       0.00000
      106.500       0.00000
      106.600       0.00000
      106.700       0.00000
      106.800       0.00000
      106.900       0.00000
      107.000       0.00000
      107.100       0.00000
      107.200       0.00000
      107.300       0.00000
      107.400       0.00000
      107.500       0.00000
      107.600       0.00000
      107.700       0.00000
      107.800       0.00000
      107.900       0.00000
      108.000       0.00000
      108.100       0.00000
      108.200       0.00000
      108.300       0.00000
      108.400       0.00000
      108.500       0.00000
      108.600       0.00000
      108.700       0.00000
      108.800       0.00000
      108.900       0.00000
      109.000       0.00000
      109.100       0.00000
      109.200       0.00000
      109.300       0.00000
      109.400       0.00000
      109.500       0.00000
      109.600       0.00000
      109.700       0.00000
      109.800       0.00000
      109.900       0.00000
      110.000       0.00000
      110.100       0.00000
      110.200       0.00000
      110.300       0.00000
      110.400       0.00000
      110.500       0.00000
      110.600       0.00000
      110.700       0.00000
      110.800       0.00000
      110.900   4.91810e-35
      111.000   2.63944e-28
      111.100   3.11660e-24
      111.200   4.32786e-23
      111.300   2.18238e-22
      111.400   7.21315e-22
      111.500   9.56266e-22
      111.600   1.29642e-21
      111.700   2.39287e-21
      111.800   4.34072e-21
      111.900   5.67813e-21
      112.000   9.12882e-21
      112.100   1.63562e-20
      112.200   2.49281e-20
      112.300   3.20248e-20
      112.400   4.00573e-20
      112.500   5.32543e-20
      112.600   7.56786e-20
      112.700   1.02917e-19
      112.800   1.18897e-19
      112.900   1.54167e-19
      113.000   1.97267e-19
      113.100   2.36330e-19
      113.200   2.71644e-19
      113.300   2.76545e-19
      113.400   3.45988e-19
      113.500   4.28229e-19
      113.600   4.41786e-19
      113.700   5.32134e-19
      113.800   6.05818e-19
      113.900   6.74599e-19
      114.000   7.18828e-19
      114.100   7.50307e-19
      114.200   9.65981e-19
      114.300   1.11111e-18
      114.400   1.07887e-18
      114.500   9.88813e-19
      114.600   9.86560e-19
      114.700   1.00353e-18
      114.800   1.04733e-18
      114.900   1.15743e-18
      115.000   1.27135e-18
      115.100   1.34698e-18
      115.200   1.36781e-18
      115.300   1.39021e-18
      115.400   1.41170e-18
      115.500   1.43412e-18
      115.600   1.45629e-18
      115.700   1.47792e-18
      115.800   1.50097e-18
      115.900   1.52373e-18
      116.000   1.54295e-18
      116.100   1.55117e-18
      116.200   1.55776e-18
      116.300   1.56399e-18
      116.400   1.56385e-18
      116.500   1.53031e-18
      116.600   1.49714e-18
      116.700   1.46495e-18
      116.800   1.43313e-18
      116.900   1.40070e-18
      117.000   1.37043e-18
      117.100   1.34484e-18
      117.200   1.32254e-18
      117.300   1.29790e-18
      117.400   1.27354e-18
      117.500   1.24372e-18
      117.600   1.20118e-18
      117.700   1.15628e-18
      117.800   1.11231e-18
      117.900   1.06964e-18
      118.000   1.02795e-18
      118.100   9.87294e-19
      118.200   9.48714e-19
      118.300   9.11814e-19
      118.400   8.74253e-19
      118.500   8.38386e-19
      118.600   8.04841e-19
      118.700   7.72321e-19
      118.800   7.40699e-19
      118.900   7.10615e-19
      119.000   6.80830e-19
      119.100   6.51278e-19
      119.200   6.29071e-19
      119.300   6.17256e-19
      119.400   6.08367e-19
      119.500   5.96984e-19
      119.600   5.81300e-19
      119.700   5.64226e-19
      119.800   5.46475e-19
      119.900   5.27752e-19
      120.000   5.10089e-19
      120.100   4.93347e-19
      120.200   4.78856e-19
      120.300   4.65755e-19
      120.400   4.52991e-19
      120.500   4.39257e-19
      120.600   4.24945e-19
      120.700   4.10765e-19
      120.800   3.97222e-19
      120.900   3.85667e-19
      121.000   3.76825e-19
      121.100   3.68344e-19
      121.200   3.60663e-19
      121.300   3.52406e-19
      121.400   3.43725e-19
      121.500   3.34692e-19
      121.600   3.20496e-19
      121.700   3.06578e-19
      121.800   2.92661e-19
      121.900   2.79252e-19
      122.000   2.66049e-19
      122.100   2.53670e-19
      122.200   2.41860e-19
      122.300   2.31702e-19
      122.400   2.23156e-19
      122.500   2.15168e-19
      122.600   2.07316e-19
      122.700   1.99735e-19
      122.800   1.92184e-19
      122.900   1.85046e-19
      123.000   1.79338e-19
      123.100   1.75846e-19
      123.200   1.73428e-19
      123.300   1.74786e-19
      123.400   1.76914e-19
      123.500   1.80134e-19
      123.600   1.82401e-19
      123.700   1.81039e-19
      123.800   1.76661e-19
      123.900   1.72875e-19
      124.000   1.69934e-19
      124.100   1.69689e-19
      124.200   1.75730e-19
      124.300   1.86698e-19
      124.400   1.96595e-19
      124.500   1.96259e-19
      124.600   1.90967e-19
      124.700   1.83562e-19
      124.800   1.76489e-19
      124.900   1.69682e-19
      125.000   1.63127e-19
      125.100   1.56767e-19
      125.200   1.50647e-19
      125.300   1.44760e-19
      125.400   1.39103e-19
      125.500   1.33667e-19
      125.600   1.26954e-19
      125.700   1.20240e-19
      125.800   1.14690e-19
      125.900   1.12624e-19
      126.000   1.10828e-19
      126.100   1.09060e-19
      126.200   1.07321e-19
      126.300   1.05610e-19
      126.400   1.03926e-19
      126.500   1.02269e-19
      126.600   1.00639e-19
      126.700   9.90351e-20
      126.800   9.74577e-20
      126.900   9.59047e-20
      127.000   9.43741e-20
      127.100   9.23527e-20
      127.200   8.97806e-20
      127.300   8.70831e-20
      127.400   8.44657e-20
      127.500   8.19261e-20
      127.600   7.94626e-20
      127.700   7.70726e-20
      127.800   7.47537e-20
      127.900   7.25037e-20
      128.000   7.03210e-20
      128.100   6.82029e-20
      128.200   6.61480e-20
      128.300   6.41542e-20
      128.400   6.22206e-20
      128.500   6.03442e-20
      128.600   5.85245e-20
      128.700   5.67595e-20
      128.800   5.50467e-20
      128.900   5.33864e-20
      129.000   5.17768e-20
      129.100   5.02147e-20
      129.200   4.86961e-20
      129.300   4.72226e-20
      129.400   4.57936e-20
      129.500   4.44077e-20
      129.600   4.30635e-20
      129.700   4.17597e-20
      129.800   4.04949e-20
      129.900   3.92685e-20
      130.000   3.80792e-20
      130.100   3.69258e-20
      130.200   3.58068e-20
      130.300   3.47219e-20
      130.400   3.36698e-20
      130.500   3.26486e-20
      130.600   3.16548e-20
      130.700   3.06898e-20
      130.800   2.97539e-20
      130.900   2.88474e-20
      131.000   2.79687e-20
      131.100   2.71168e-20
      131.200   2.62905e-20
      131.300   2.54883e-20
      131.400   2.47106e-20
      131.500   2.39564e-20
      131.600   2.32249e-20
      131.700   2.25156e-20
      131.800   2.18276e-20
      131.900   2.11602e-20
      132.000   2.05131e-20
      132.100   1.98854e-20
      132.200   1.92768e-20
      132.300   1.86865e-20
      132.400   1.81140e-20
      132.500   1.75596e-20
      132.600   1.70224e-20
      132.700   1.64702e-20
      132.800   1.59250e-20
      132.900   1.53962e-20
      133.000   1.48845e-20
      133.100   1.43897e-20
      133.200   1.39112e-20
      133.300   1.34482e-20
      133.400   1.30004e-20
      133.500   1.25672e-20
      133.600   1.21484e-20
      133.700   1.17433e-20
      133.800   1.13516e-20
      133.900   1.09740e-20
      134.000   1.06088e-20
      134.100   1.02555e-20
      134.200   9.91397e-21
      134.300   9.58360e-21
      134.400   9.26413e-21
      134.500   8.95529e-21
      134.600   8.65654e-21
      134.700   8.36765e-21
      134.800   8.08835e-21
      134.900   7.81843e-21
      135.000   7.55733e-21
      135.100   7.30553e-21
      135.200   7.06212e-21
      135.300   6.82676e-21
      135.400   6.59911e-21
      135.500   6.37873e-21
      135.600   6.16545e-21
      135.700   5.95921e-21
      135.800   5.75972e-21
      135.900   5.56684e-21
      136.000   5.38026e-21
      136.100   5.19981e-21
      136.200   5.02583e-21
      136.300   4.85763e-21
      136.400   4.69503e-21
      136.500   4.53778e-21
      136.600   4.38565e-21
      136.700   4.23853e-21
      136.800   4.09627e-21
      136.900   3.95874e-21
      137.000   3.82583e-21
      137.100   3.69752e-21
      137.200   3.57363e-21
      137.300   3.45414e-21
      137.400   3.33857e-21
      137.500   3.22677e-21
      137.600   3.11863e-21
      137.700   3.01399e-21
      137.800   2.91277e-21
      137.900   2.81488e-21
      138.000   2.72024e-21
      138.100   2.62872e-21
      138.200   2.54054e-21
      138.300   2.45532e-21
      138.400   2.37293e-21
      138.500   2.29325e-21
      138.600   2.21619e-21
      138.700   2.14168e-21
      138.800   2.06964e-21
      138.900   1.99996e-21
      139.000   1.93259e-21
      139.100   1.86765e-21
      139.200   1.80526e-21
      139.300   1.74524e-21
      139.400   1.68728e-21
      139.500   1.63121e-21
      139.600   1.57694e-21
      139.700   1.52445e-21
      139.800   1.47367e-21
      139.900   1.42455e-21
      140.000   1.37723e-21
      140.100   1.33145e-21
      140.200   1.28717e-21
      140.300   1.24433e-21
      140.400   1.20287e-21
      140.500   1.16276e-21
      140.600   1.12394e-21
      140.700   1.08639e-21
      140.800   1.05021e-21
      140.900   1.01525e-21
      141.000   9.81409e-22
      141.100   9.48672e-22
      141.200   9.17004e-22
      141.300   8.86359e-22
      141.400   8.56806e-22
      141.500   8.28681e-22
      141.600   8.01844e-22
      141.700   7.75888e-22
      141.800   7.50753e-22
      141.900   7.26409e-22
      142.000   7.02834e-22
      142.100   6.80264e-22
      142.200   6.59168e-22
      142.300   6.39361e-22
      142.400   6.20222e-22
      142.500   6.01634e-22
      142.600   5.83582e-22
      142.700   5.66054e-22
      142.800   5.49038e-22
      142.900   5.32520e-22
      143.000   5.16481e-22
      143.100   5.00963e-22
      143.200   4.85925e-22
      143.300   4.71320e-22
      143.400   4.57145e-22
      143.500   4.43382e-22
      143.600   4.30018e-22
      143.700   4.17137e-22
      143.800   4.05900e-22
      143.900   3.95198e-22
      144.000   3.84787e-22
      144.100   3.74642e-22
      144.200   3.64758e-22
      144.300   3.55122e-22
      144.400   3.45769e-22
      144.500   3.37186e-22
      144.600   3.28980e-22
      144.700   3.20982e-22
      144.800   3.13168e-22
      144.900   3.05534e-22
      145.000   2.98076e-22
      145.100   2.90792e-22
      145.200   2.83701e-22
      145.300   2.76784e-22
      145.400   2.70024e-22
      145.500   2.63419e-22
      145.600   2.56966e-22
      145.700   2.50662e-22
      145.800   2.44513e-22
      145.900   2.38530e-22
      146.000   2.32678e-22
      146.100   2.26897e-22
      146.200   2.21206e-22
      146.300   2.15650e-22
      146.400   2.10223e-22
      146.500   2.04951e-22
      146.600   1.99807e-22
      146.700   1.94785e-22
      146.800   1.89870e-22
      146.900   1.85056e-22
      147.000   1.80358e-22
      147.100   1.75785e-22
      147.200   1.71333e-22
      147.300   1.66988e-22
      147.400   1.62748e-22
      147.500   1.58610e-22
      147.600   1.54570e-22
      147.700   1.50638e-22
      147.800   1.46813e-22
      147.900   1.43078e-22
      148.000   1.39434e-22
      148.100   1.35878e-22
      148.200   1.32409e-22
      148.300   1.29031e-22
      148.400   1.26261e-22
      148.500   1.23945e-22
      148.600   1.21807e-22
      148.700   1.19703e-22
      148.800   1.17632e-22
      148.900   1.15600e-22
      149.000   1.13605e-22
      149.100   1.11642e-22
      149.200   1.09710e-22
      149.300   1.07809e-22
      149.400   1.05939e-22
      149.500   1.04104e-22
      149.600   1.02300e-22
      149.700   1.00526e-22
      149.800   9.87799e-23
      149.900   9.70630e-23
      150.000   9.53738e-23
      150.100   9.37162e-23
      150.200   9.20852e-23
      150.300   9.04831e-23
      150.400   8.89071e-23
      150.500   8.73573e-23
      150.600   8.58331e-23
      150.700   8.43341e-23
      150.800   8.28611e-23
      150.900   8.14145e-23
      151.000   7.99901e-23
      151.100   7.85906e-23
      151.200   7.72141e-23
      151.300   7.58602e-23
      151.400   7.45290e-23
      151.500   7.32227e-23
      151.600   7.19383e-23
      151.700   7.06770e-23
      151.800   6.94365e-23
      151.900   6.82162e-23
      152.000   6.70857e-23
      152.100   6.66786e-23
      152.200   6.63639e-23
      152.300   6.60482e-23
      152.400   6.57330e-23
      152.500   6.54198e-23
      152.600   6.51073e-23
      152.700   6.41055e-23
      152.800   6.28725e-23
      152.900   6.16615e-23
      153.000   6.04728e-23
      153.100   5.93066e-23
      153.200   5.81615e-23
      153.300   5.72408e-23
      153.400   5.65288e-23
      153.500   5.58466e-23
      153.600   5.51734e-23
      153.700   5.45087e-23
      153.800   5.38508e-23
      153.900   5.32003e-23
      154.000   5.25641e-23
      154.100   5.19488e-23
      154.200   5.13444e-23
      154.300   5.07465e-23
      154.400   5.01564e-23
      154.500   4.95721e-23
      154.600   4.89943e-23
      154.700   4.84236e-23
      154.800   4.78591e-23
      154.900   4.73005e-23
      155.000   4.67478e-23
      155.100   4.62016e-23
      155.200   4.56610e-23
      155.300   4.51267e-23
      155.400   4.45984e-23
      155.500   4.40760e-23
      155.600   4.35585e-23
      155.700   4.30468e-23
      155.800   4.25410e-23
      155.900   4.20402e-23
      156.000   4.15454e-23
      156.100   4.10557e-23
      156.200   4.05717e-23
      156.300   4.00928e-23
      156.400   3.96189e-23
      156.500   3.91484e-23
      156.600   3.86745e-23
      156.700   3.82056e-23
      156.800   3.77417e-23
      156.900   3.72830e-23
      157.000   3.68305e-23
      157.100   3.63500e-23
      157.200   3.56519e-23
      157.300   3.47286e-23
      157.400   3.38290e-23
      157.500   3.29516e-23
      157.600   3.20966e-23
      157.700   3.12628e-23
      157.800   3.04503e-23
      157.900   3.01051e-23
      158.000   2.98037e-23
      158.100   2.95055e-23
      158.200   2.92096e-23
      158.300   2.89164e-23
      158.400   2.86262e-23
      158.500   2.83386e-23
      158.600   2.80534e-23
      158.700   2.77705e-23
      158.800   2.74910e-23
      158.900   2.72138e-23
      159.000   2.69391e-23
      159.100   2.66550e-23
      159.200   2.62291e-23
      159.300   2.55744e-23
      159.400   2.49358e-23
      159.500   2.43130e-23
      159.600   2.37050e-23
      159.700   2.31124e-23
      159.800   2.25338e-23
      159.900   2.22272e-23
      160.000   2.21012e-23
      160.100   2.19814e-23
      160.200   2.18619e-23
      160.300   2.17432e-23
      160.400   2.16251e-23
      160.500   2.14786e-23
      160.600   2.11686e-23
      160.700   2.07424e-23
      160.800   2.03245e-23
      160.900   1.99146e-23
      161.000   1.95128e-23
      161.100   1.91190e-23
      161.200   1.87332e-23
      161.300   1.83552e-23
      161.400   1.79844e-23
      161.500   1.76212e-23
      161.600   1.72649e-23
      161.700   1.69154e-23
      161.800   1.65729e-23
      161.900   1.62431e-23
      162.000   1.59708e-23
      162.100   1.57335e-23
      162.200   1.54996e-23
      162.300   1.52690e-23
      162.400   1.50418e-23
      162.500   1.48177e-23
      162.600   1.45970e-23
      162.700   1.43793e-23
      162.800   1.41647e-23
      162.900   1.39533e-23
      163.000   1.37449e-23
      163.100   1.35395e-23
      163.200   1.33369e-23
      163.300   1.31372e-23
      163.400   1.29404e-23
      163.500   1.27464e-23
      163.600   1.25552e-23
      163.700   1.23666e-23
      163.800   1.21810e-23
      163.900   1.19980e-23
      164.000   1.18175e-23
      164.100   1.16025e-23
      164.200   1.12915e-23
      164.300   1.09893e-23
      164.400   1.06951e-23
      164.500   1.04087e-23
      164.600   1.01299e-23
      164.700   9.85832e-24
      164.800   9.62457e-24
      164.900   9.46310e-24
      165.000   9.33120e-24
      165.100   9.20101e-24
      165.200   9.07259e-24
      165.300   8.94591e-24
      165.400   8.82105e-24
      165.500   8.69784e-24
      165.600   8.49666e-24
      165.700   8.26596e-24
      165.800   8.03889e-24
      165.900   7.81801e-24
      166.000   7.60348e-24
      166.100   7.39470e-24
      166.200   7.19161e-24
      166.300   6.99409e-24
      166.400   6.80191e-24
      166.500   6.61487e-24
      166.600   6.43293e-24
      166.700   6.25596e-24
      166.800   6.08371e-24
      166.900   5.91619e-24
      167.000   5.75332e-24
      167.100   5.59475e-24
      167.200   5.44050e-24
      167.300   5.29045e-24
      167.400   5.14450e-24
      167.500   5.00249e-24
      167.600   4.86435e-24
      167.700   4.72999e-24
      167.800   4.59930e-24
      167.900   4.47215e-24
      168.000   4.34846e-24
      168.100   4.22813e-24
      168.200   4.11109e-24
      168.300   3.99723e-24
      168.400   3.88650e-24
      168.500   3.77974e-24
      168.600   3.69788e-24
      168.700   3.62930e-24
      168.800   3.56199e-24
      168.900   3.49590e-24
      169.000   3.43104e-24
      169.100   3.36729e-24
      169.200   3.30475e-24
      169.300   3.24332e-24
      169.400   3.18301e-24
      169.500   3.12361e-24
      169.600   3.06455e-24
      169.700   3.00580e-24
      169.800   2.94790e-24
      169.900   2.89105e-24
      170.000   2.83524e-24
      170.100   2.75496e-24
      170.200   2.64004e-24
      170.300   3.33127e-24
      170.400   6.93559e-24
      170.500   1.27957e-23
      170.600   1.83207e-23
      170.700   2.23650e-23
      170.800   2.37827e-23
      170.900   2.33437e-23
      171.000   2.26014e-23
      171.100   2.19067e-23
      171.200   2.12320e-23
      171.300   2.05767e-23
      171.400   1.99406e-23
      171.500   1.93228e-23
      171.600   1.87229e-23
      171.700   1.81410e-23
      171.800   1.75763e-23
      171.900   1.70287e-23
      172.000   1.64978e-23
      172.100   1.59833e-23
      172.200   1.54847e-23
      172.300   1.50013e-23
      172.400   1.45299e-23
      172.500   1.40728e-23
      172.600   1.36303e-23
      172.700   1.32020e-23
      172.800   1.27872e-23
      172.900   1.23855e-23
      173.000   1.19968e-23
      173.100   1.16205e-23
      173.200   1.12560e-23
      173.300   1.09033e-23
      173.400   1.05616e-23
      173.500   1.02310e-23
      173.600   9.91090e-24
      173.700   9.60087e-24
      173.800   9.30084e-24
      173.900   9.01037e-24
      174.000   8.72896e-24
      174.100   8.45654e-24
      174.200   8.19275e-24
      174.300   7.93717e-24
      174.400   7.68968e-24
      174.500   7.44988e-24
      174.600   7.21755e-24
      174.700   6.99256e-24
      174.800   6.77462e-24
      174.900   6.56340e-24
      175.000   6.35867e-24
      175.100   6.16029e-24
      175.200   5.96835e-24
      175.300   5.78226e-24
      175.400   5.60193e-24
      175.500   5.42730e-24
      175.600   5.25798e-24
      175.700   5.09397e-24
      175.800   4.93498e-24
      175.900   4.78094e-24
      176.000   4.63166e-24
      176.100   4.48707e-24
      176.200   4.34696e-24
      176.300   4.21117e-24
      176.400   4.07963e-24
      176.500   3.95183e-24
      176.600   3.76928e-24
      176.700   3.56775e-24
      176.800   3.37689e-24
      176.900   3.19617e-24
      177.000   3.02501e-24
      177.100   2.86291e-24
      177.200   2.70946e-24
      177.300   2.56416e-24
      177.400   2.42652e-24
      177.500   2.29617e-24
      177.600   2.17278e-24
      177.700   2.05597e-24
      177.800   1.94537e-24
      177.900   1.84062e-24
      178.000   1.74158e-24
      178.100   1.64782e-24
      178.200   1.55902e-24
      178.300   1.47496e-24
      178.400   1.39541e-24
      178.500   1.32010e-24
      178.600   1.25029e-24
      178.700   1.19214e-24
      178.800   1.14907e-24
      178.900   1.10755e-24
      179.000   1.06751e-24
      179.100   1.02889e-24
      179.200   9.91661e-25
      179.300   9.55770e-25
      179.400   9.21159e-25
      179.500   8.87816e-25
      179.600   8.55693e-25
      179.700   8.24728e-25
      179.800   7.94874e-25
      179.900   7.66098e-25
      180.000   7.38352e-25
      180.100   7.11615e-25
      180.200   6.85855e-25
      180.300   6.61021e-25
      180.400   6.37086e-25
      180.500   6.14025e-25
      180.600   5.91793e-25
      180.700   5.70370e-25
      180.800   5.49726e-25
      180.900   5.29828e-25
      181.000   5.10647e-25
      181.100   4.92164e-25
      181.200   4.74354e-25
      181.300   4.57190e-25
      181.400   4.40652e-25
      181.500   4.24710e-25
      181.600   4.09346e-25
      181.700   3.94539e-25
      181.800   3.80268e-25
      181.900   3.66514e-25
      182.000   3.53265e-25
      182.100   3.40489e-25
      182.200   3.28297e-25
      182.300   3.17508e-25
      182.400   3.07141e-25
      182.500   2.97110e-25
      182.600   2.87407e-25
      182.700   2.78020e-25
      182.800   2.68939e-25
      182.900   2.60152e-25
      183.000   2.51654e-25
      183.100   2.43434e-25
      183.200   2.35481e-25
      183.300   2.27783e-25
      183.400   2.20337e-25
      183.500   2.13135e-25
      183.600   2.06166e-25
      183.700   1.99423e-25
      183.800   1.92903e-25
      183.900   1.86597e-25
      184.000   1.80494e-25
      184.100   1.74597e-25
      184.200   1.68894e-25
      184.300   1.63378e-25
      184.400   1.58044e-25
      184.500   1.52882e-25
      184.600   1.47887e-25
      184.700   1.43055e-25
      184.800   1.38381e-25
      184.900   1.33858e-25
      185.000   1.29482e-25
      185.100   1.25300e-25
      185.200   1.21506e-25
      185.300   1.18159e-25
      185.400   1.14903e-25
      185.500   1.11735e-25
      185.600   1.08654e-25
      185.700   1.05658e-25
      185.800   1.02748e-25
      185.900   9.99190e-26
      186.000   9.71676e-26
      186.100   9.44909e-26
      186.200   9.18865e-26
      186.300   8.93523e-26
      186.400   8.68887e-26
      186.500   8.44923e-26
      186.600   8.21601e-26
      186.700   7.98904e-26
      186.800   7.76826e-26
      186.900   7.55355e-26
      187.000   7.34467e-26
      187.100   7.14129e-26
      187.200   6.94363e-26
      187.300   6.75164e-26
      187.400   6.56484e-26
      187.500   6.38315e-26
      187.600   6.20639e-26
      187.700   6.03445e-26
      187.800   5.86720e-26
      187.900   5.70450e-26
      188.000   5.54626e-26
      188.100   5.38384e-26
      188.200   5.19665e-26
      188.300   4.97925e-26
      188.400   4.77085e-26
      188.500   4.57107e-26
      188.600   4.37984e-26
      188.700   4.19683e-26
      188.800   4.02146e-26
      188.900   3.85333e-26
      189.000   3.69212e-26
      189.100   3.53755e-26
      189.200   3.38936e-26
      189.300   3.24734e-26
      189.400   3.11122e-26
      189.500   2.98146e-26
      189.600   2.86724e-26
      189.700   2.79665e-26
      189.800   2.72809e-26
      189.900   2.66129e-26
      190.000   2.59618e-26
      190.100   2.53269e-26
      190.200   2.47074e-26
      190.300   2.41031e-26
      190.400   2.35135e-26
      190.500   2.29384e-26
      190.600   2.23775e-26
      190.700   2.18303e-26
      190.800   2.12965e-26
      190.900   2.07759e-26
      191.000   2.02688e-26
      191.100   1.97747e-26
      191.200   1.92922e-26
      191.300   1.88217e-26
      191.400   1.83629e-26
      191.500   1.79151e-26
      191.600   1.74783e-26
      191.700   1.70521e-26
      191.800   1.66361e-26
      191.900   1.62302e-26
      192.000   1.58346e-26
      192.100   1.54488e-26
      192.200   1.50732e-26
      192.300   1.47065e-26
      192.400   1.43486e-26
      192.500   1.39733e-26
      192.600   1.35239e-26
      192.700   1.30222e-26
      192.800   1.25389e-26
      192.900   1.20731e-26
      193.000   1.16245e-26
      193.100   1.11931e-26
      193.200   1.07784e-26
      193.300   1.03791e-26
      193.400   9.99444e-27
      193.500   9.62385e-27
      193.600   9.26675e-27
      193.700   8.92272e-27
      193.800   8.59142e-27
      193.900   8.27237e-27
      194.000   7.97121e-27
      194.100   7.80397e-27
      194.200   7.68169e-27
      194.300   7.56429e-27
      194.400   7.44875e-27
      194.500   7.33507e-27
      194.600   7.22313e-27
      194.700   7.11291e-27
      194.800   7.00442e-27
      194.900   6.89755e-27
      195.000   6.79238e-27
      195.100   6.68904e-27
      195.200   6.58724e-27
      195.300   6.48695e-27
      195.400   6.38818e-27
      195.500   6.28888e-27
      195.600   6.13919e-27
      195.700   5.90631e-27
      195.800   5.68211e-27
      195.900   5.46632e-27
      196.000   5.25840e-27
      196.100   5.05821e-27
      196.200   4.86553e-27
      196.300   4.68001e-27
      196.400   4.50139e-27
      196.500   4.32938e-27
      196.600   4.16385e-27
      196.700   4.00447e-27
      196.800   3.85134e-27
      196.900   3.70439e-27
      197.000   3.56295e-27
      197.100   3.42675e-27
      197.200   3.29563e-27
      197.300   3.16938e-27
      197.400   3.04780e-27
      197.500   2.93078e-27
      197.600   2.81813e-27
      197.700   2.71025e-27
      197.800   2.60647e-27
      197.900   2.50652e-27
      198.000   2.41030e-27
      198.100   2.31769e-27
      198.200   2.22854e-27
      198.300   2.14269e-27
      198.400   2.06012e-27
      198.500   1.98096e-27
      198.600   1.90488e-27
      198.700   1.83911e-27
      198.800   1.78602e-27
      198.900   1.73954e-27
      199.000   1.69421e-27
      199.100   1.65004e-27
      199.200   1.60700e-27
      199.300   1.56520e-27
      199.400   1.52450e-27
      199.500   1.48484e-27
      199.600   1.44617e-27
      199.700   1.40849e-27
      199.800   1.37179e-27
      199.900   1.33602e-27
      200.000   1.30115e-27
      200.100   1.26733e-27
      200.200   1.23435e-27
      200.300   1.20225e-27
      200.400   1.17096e-27
      200.500   1.14047e-27
      200.600   1.11079e-27
      200.700   1.08187e-27
      200.800   1.05368e-27
      200.900   1.02624e-27
      201.000   9.99524e-28
      201.100   9.73539e-28
      201.200   9.48223e-28
      201.300   9.23556e-28
      201.400   8.99538e-28
      201.500   8.76140e-28
      201.600   8.53336e-28
      201.700   8.31133e-28
      201.800   8.09501e-28
      201.900   7.87813e-28
      202.000   7.56530e-28
      202.100   7.21770e-28
      202.200   6.88603e-28
      202.300   6.56993e-28
      202.400   6.26909e-28
      202.500   5.98216e-28
      202.600   5.70810e-28
      202.700   5.44659e-28
      202.800   5.19720e-28
      202.900   4.95961e-28
      203.000   4.73282e-28
      203.100   4.51644e-28
      203.200   4.30971e-28
      203.300   4.11230e-28
      203.400   3.92386e-28
      203.500   3.74401e-28
      203.600   3.57880e-28
      203.700   3.43867e-28
      203.800   3.30647e-28
      203.900   3.17952e-28
      204.000   3.05739e-28
      204.100   2.93992e-28
      204.200   2.82698e-28
      204.300   2.71833e-28
      204.400   2.61385e-28
      204.500   2.51336e-28
      204.600   2.41671e-28
      204.700   2.32375e-28
      204.800   2.23449e-28
      204.900   2.14877e-28
      205.000   2.06633e-28
      205.100   1.98705e-28
      205.200   1.91077e-28
      205.300   1.83744e-28
      205.400   1.76691e-28
      205.500   1.69906e-28
      205.600   1.63366e-28
      205.700   1.56995e-28
      205.800   1.50853e-28
      205.900   1.44955e-28
      206.000   1.39298e-28
      206.100   1.33857e-28
      206.200   1.28627e-28
      206.300   1.23601e-28
      206.400   1.18772e-28
      206.500   1.14127e-28
      206.600   1.09663e-28
      206.700   1.05374e-28
      206.800   1.01249e-28
      206.900   9.72843e-29
      207.000   9.34742e-29
      207.100   8.98187e-29
      207.200   8.63080e-29
      207.300   8.29315e-29
      207.400   7.96856e-29
      207.500   7.65654e-29
      207.600   7.35670e-29
      207.700   7.06833e-29
      207.800   6.79117e-29
      207.900   6.52475e-29
      208.000   6.26866e-29
      208.100   6.02255e-29
      208.200   5.78594e-29
      208.300   5.55861e-29
      208.400   5.34050e-29
      208.500   5.13090e-29
      208.600   4.92935e-29
      208.700   4.73557e-29
      208.800   4.54935e-29
      208.900   4.36364e-29
      209.000   4.15707e-29
      209.100   3.94115e-29
      209.200   3.73630e-29
      209.300   3.54189e-29
      209.400   3.35757e-29
      209.500   3.18268e-29
      209.600   3.01674e-29
      209.700   2.85958e-29
      209.800   2.71084e-29
      209.900   2.56964e-29
      210.000   2.43578e-29
      210.100   2.30879e-29
      210.200   2.18834e-29
      210.300   2.07412e-29
      210.400   1.96579e-29
      210.500   1.86304e-29
      210.600   1.76561e-29
      210.700   1.67323e-29
      210.800   1.58563e-29
      210.900   1.50255e-29
      211.000   1.42378e-29
      211.100   1.34912e-29
      211.200   1.27832e-29
      211.300   1.21137e-29
      211.400   1.14793e-29
      211.500   1.08775e-29
      211.600   1.03071e-29
      211.700   9.76632e-30
      211.800   9.25336e-30
      211.900   8.76712e-30
      212.000   8.30650e-30
      212.100   7.86968e-30
      212.200   7.45552e-30
      212.300   7.04545e-30
      212.400   6.60803e-30
      212.500   6.17825e-30
      212.600   5.77617e-30
      212.700   5.39998e-30
      212.800   5.04802e-30
      212.900   4.71888e-30
      213.000   4.41119e-30
      213.100   4.12396e-30
      213.200   3.85523e-30
      213.300   3.60388e-30
      213.400   3.36870e-30
      213.500   3.14874e-30
      213.600   2.94298e-30
      213.700   2.75059e-30
      213.800   2.57061e-30
      213.900   2.40238e-30
      214.000   2.24502e-30
      214.100   2.10046e-30
      214.200   1.99541e-30
      214.300   1.91557e-30
      214.400   1.83890e-30
      214.500   1.76528e-30
      214.600   1.69461e-30
      214.700   1.62677e-30
      214.800   1.56164e-30
      214.900   1.49912e-30
      215.000   1.43908e-30
      215.100   1.38145e-30
      215.200   1.32620e-30
      215.300   1.27317e-30
      215.400   1.22225e-30
      215.500   1.17336e-30
      215.600   1.12646e-30
      215.700   1.08140e-30
      215.800   1.03814e-30
      215.900   9.96629e-31
      216.000   9.52810e-31
      216.100   9.01523e-31
      216.200   8.49555e-31
      216.300   8.00575e-31
      216.400   7.54407e-31
      216.500   7.10870e-31
      216.600   6.69846e-31
      216.700   6.31186e-31
      216.800   5.94738e-31
      216.900   5.60394e-31
      217.000   5.28025e-31
      217.100   4.97505e-31
      217.200   4.68750e-31
      217.300   4.41652e-31
      217.400   4.16107e-31
      217.500   3.92045e-31
      217.600   3.69354e-31
      217.700   3.47968e-31
      217.800   3.27823e-31
      217.900   3.08764e-31
      218.000   2.88874e-31
      218.100   2.70255e-31
      218.200   2.52830e-31
      218.300   2.36531e-31
      218.400   2.21291e-31
      218.500   2.07021e-31
      218.600   1.93670e-31
      218.700   1.81172e-31
      218.800   1.69474e-31
      218.900   1.58532e-31
      219.000   1.48287e-31
      219.100   1.38697e-31
      219.200   1.29726e-31
      219.300   1.21333e-31
      219.400   1.13476e-31
      219.500   1.06125e-31
      219.600   9.92473e-32
      219.700   9.28112e-32
      219.800   8.67919e-32
      219.900   8.11588e-32
      220.000   7.58870e-32
      220.100   7.09555e-32
      220.200   6.63424e-32
      220.300   6.20278e-32
      220.400   5.79905e-32
      220.500   5.42154e-32
      220.600   5.06846e-32
      220.700   4.73804e-32
      220.800   4.42896e-32
      220.900   4.14008e-32
      221.000   3.86980e-32
      221.100   3.61696e-32
      221.200   3.38065e-32
      221.300   3.15962e-32
      221.400   2.95290e-32
      221.500   2.75965e-32
      221.600   2.57894e-32
      221.700   2.40995e-32
      221.800   2.26320e-32
      221.900   2.15425e-32
      222.000   2.05863e-32
      222.100   1.96719e-32
      222.200   1.87981e-32
      222.300   1.79627e-32
      222.400   1.71643e-32
      222.500   1.64011e-32
      222.600   1.56717e-32
      222.700   1.49745e-32
      222.800   1.43080e-32
      222.900   1.36712e-32
      223.000   1.30625e-32
      223.100   1.24806e-32
      223.200   1.19246e-32
      223.300   1.13931e-32
      223.400   1.08853e-32
      223.500   1.03998e-32
      223.600   9.93597e-33
      223.700   9.49266e-33
      223.800   9.06002e-33
      223.900   8.58679e-33
      224.000   8.12939e-33
      224.100   7.69626e-33
      224.200   7.28605e-33
      224.300   6.89761e-33
      224.400   6.52957e-33
      224.500   6.18123e-33
      224.600   5.85121e-33
      224.700   5.53888e-33
      224.800   5.24298e-33
      224.900   4.96273e-33
      225.000   4.69742e-33
      225.100   4.44616e-33
      225.200   4.20821e-33
      225.300   3.98308e-33
      225.400   3.76973e-33
      225.500   3.56777e-33
      225.600   3.37655e-33
      225.700   3.19558e-33
      225.800   3.02415e-33
      225.900   2.90566e-33
      226.000   2.80962e-33
      226.100   2.71857e-33
      226.200   2.63043e-33
      226.300   2.54534e-33
      226.400   2.46311e-33
      226.500   2.38345e-33
      226.600   2.30629e-33
      226.700   2.23160e-33
      226.800   2.15930e-33
      226.900   2.08933e-33
      227.000   2.02159e-33
      227.100   1.95603e-33
      227.200   1.89262e-33
      227.300   1.83126e-33
      227.400   1.77187e-33
      227.500   1.71440e-33
      227.600   1.65879e-33
      227.700   1.60499e-33
      227.800   1.55293e-33
      227.900   1.49753e-33
      228.000   1.43135e-33
      228.100   1.36090e-33
      228.200   1.29389e-33
      228.300   1.23018e-33
      228.400   1.16961e-33
      228.500   1.11199e-33
      228.600   1.05721e-33
      228.700   1.00512e-33
      228.800   9.55578e-34
      228.900   9.08490e-34
      229.000   8.63710e-34
      229.100   8.21128e-34
      229.200   7.80637e-34
      229.300   7.42141e-34
      229.400   7.05540e-34
      229.500   6.70738e-34
      229.600   6.37645e-34
      229.700   6.06183e-34
      229.800   5.76270e-34
      229.900   5.47833e-34
      230.000   5.20467e-34
      230.100   4.91968e-34
      230.200   4.63553e-34
      230.300   4.36789e-34
      230.400   4.11552e-34
      230.500   3.87785e-34
      230.600   3.65407e-34
      230.700   3.44311e-34
      230.800   3.24431e-34
      230.900   3.05698e-34
      231.000   2.88037e-34
      231.100   2.71390e-34
      231.200   2.55706e-34
      231.300   2.40927e-34
      231.400   2.27002e-34
      231.500   2.13871e-34
      231.600   2.01495e-34
      231.700   1.89835e-34
      231.800   1.78849e-34
      231.900   1.68494e-34
      232.000   1.58735e-34
      232.100   1.49538e-34
      232.200   1.42131e-34
      232.300   1.36863e-34
      232.400   1.32254e-34
      232.500   1.27801e-34
      232.600   1.23499e-34
      232.700   1.19341e-34
      232.800   1.15324e-34
      232.900   1.11440e-34
      233.000   1.07682e-34
      233.100   1.04052e-34
      233.200   1.00545e-34
      233.300   9.71561e-35
      233.400   9.38821e-35
      233.500   9.07199e-35
      233.600   8.76662e-35
      233.700   8.47153e-35
      233.800   8.18329e-35
      233.900   7.90432e-35
      234.000   7.63486e-35
      234.100   7.37454e-35
      234.200   7.12322e-35
      234.300   6.88037e-35
      234.400   6.64579e-35
      234.500   6.41920e-35
      234.600   6.20029e-35
      234.700   5.98892e-35
      234.800   5.78476e-35
      234.900   5.58750e-35
      235.000   5.39692e-35
      235.100   5.21284e-35
      235.200   5.03506e-35
      235.300   4.86334e-35
      235.400   4.69738e-35
      235.500   4.53716e-35
      235.600   4.38241e-35
      235.700   4.23288e-35
      235.800   4.08866e-35
      235.900   3.94935e-35
      236.000   3.81482e-35
      236.100   3.68481e-35
      236.200   3.55921e-35
      236.300   3.43788e-35
      236.400   3.32072e-35
      236.500   3.20751e-35
      236.600   3.10402e-35
      236.700   3.01667e-35
      236.800   2.93982e-35
      236.900   2.86492e-35
      237.000   2.79190e-35
      237.100   2.72075e-35
      237.200   2.65140e-35
      237.300   2.58382e-35
      237.400   2.51794e-35
      237.500   2.45376e-35
      237.600   2.39114e-35
      237.700   2.33022e-35
      237.800   2.27086e-35
      237.900   2.21295e-35
      238.000   2.15654e-35
      238.100   2.10155e-35
      238.200   2.04795e-35
      238.300   1.99571e-35
      238.400   1.94477e-35
      238.500   1.89512e-35
      238.600   1.84674e-35
      238.700   1.79958e-35
      238.800   1.75361e-35
      238.900   1.71240e-35
      239.000   1.68476e-35
      239.100   1.65900e-35
      239.200   1.63364e-35
      239.300   1.60865e-35
      239.400   1.58404e-35
      239.500   1.55982e-35
      239.600   1.53592e-35
      239.700   1.51239e-35
      239.800   1.48923e-35
      239.900   1.46641e-35
      240.000   1.44391e-35
      240.100   1.42175e-35
      240.200   1.39993e-35
      240.300   1.37842e-35
      240.400   1.35724e-35
      240.500   1.33637e-35
      240.600   1.31583e-35
      240.700   1.29556e-35
      240.800   1.27560e-35
      240.900   1.25596e-35
      241.000   1.23661e-35
      241.100   1.21754e-35
      241.200   1.19877e-35
      241.300   1.18027e-35
      241.400   1.16205e-35
      241.500   1.14411e-35
      241.600   1.12643e-35
      241.700   1.10903e-35
      241.800   1.09187e-35
      241.900   1.07497e-35
      242.000   1.05834e-35
      242.100   1.04196e-35
      242.200   1.02583e-35
      242.300   1.00997e-35
      242.400   9.94336e-36
      242.500   9.78946e-36
      242.600   9.63782e-36
      242.700   9.48850e-36
      242.800   9.34157e-36
      242.900   9.19685e-36
      243.000   9.05430e-36
      243.100   8.91392e-36
      243.200   8.77574e-36
      243.300   8.63963e-36
      243.400   8.50568e-36
      243.500   8.37386e-36
      243.600   8.24416e-36
      243.700   8.11642e-36
      243.800   7.99070e-36
      243.900   7.86689e-36
      244.000   7.74499e-36
      244.100   7.62503e-36
      244.200   7.50695e-36
      244.300   7.39063e-36
      244.400   7.27612e-36
      244.500   7.16349e-36
      244.600   7.05251e-36
      244.700   6.94333e-36
      244.800   6.83602e-36
      244.900   6.73030e-36
      245.000   6.62622e-36
      245.100   6.52379e-36
      245.200   6.42298e-36
      245.300   6.32373e-36
      245.400   6.22600e-36
      245.500   6.12982e-36
      245.600   6.03516e-36
      245.700   5.94196e-36
      245.800   5.85025e-36
      245.900   5.76001e-36
      246.000   5.67128e-36
      246.100   5.58392e-36
      246.200   5.49788e-36
      246.300   5.41322e-36
      246.400   5.32995e-36
      246.500   5.24792e-36
      246.600   5.16715e-36
      246.700   5.08767e-36
      246.800   5.00945e-36
      246.900   4.93247e-36
      247.000   4.85672e-36
      247.100   4.78213e-36
      247.200   4.70882e-36
      247.300   4.63662e-36
      247.400   4.56556e-36
      247.500   4.49560e-36
      247.600   4.42669e-36
      247.700   4.35890e-36
      247.800   4.29218e-36
      247.900   4.22646e-36
      248.000   4.16182e-36
      248.100   4.09829e-36
      248.200   4.03577e-36
      248.300   3.97415e-36
      248.400   3.91348e-36
      248.500   3.82867e-36
      248.600   3.70458e-36
      248.700   3.55841e-36
      248.800   3.41792e-36
      248.900   3.28298e-36
      249.000   3.15329e-36
      249.100   3.02915e-36
      249.200   2.90996e-36
      249.300   2.79540e-36
      249.400   2.68530e-36
      249.500   2.57948e-36
      249.600   2.47779e-36
      249.700   2.38007e-36
      249.800   2.28614e-36
      249.900   2.19589e-36
      250.000   2.10917e-36
      250.100   2.02610e-36
      250.200   1.94632e-36
      250.300   1.86975e-36
      250.400   1.79614e-36
      250.500   1.72541e-36
      250.600   1.65747e-36
      250.700   1.59217e-36
      250.800   1.52943e-36
      250.900   1.46915e-36
      251.000   1.41123e-36
      251.100   1.35558e-36
      251.200   1.30217e-36
      251.300   1.25095e-36
      251.400   1.20175e-36
      251.500   1.15445e-36
      251.600   1.08848e-36
      251.700   9.87802e-37
      251.800   8.91111e-37
      251.900   8.03753e-37
      252.000   7.24835e-37
      252.100   6.53596e-37
      252.200   5.89243e-37
      252.300   5.31278e-37
      252.400   4.79181e-37
      252.500   4.32151e-37
      252.600   3.91957e-37
      252.700   3.68886e-37
      252.800   3.60892e-37
      252.900   3.53075e-37
      253.000   3.45426e-37
      253.100   3.37943e-37
      253.200   3.30624e-37
      253.300   3.23531e-37
      253.400   3.16621e-37
      253.500   3.09868e-37
      253.600   3.03263e-37
      253.700   2.96655e-37
      253.800   2.89504e-37
      253.900   2.82392e-37
      254.000   2.75454e-37
      254.100   2.68684e-37
      254.200   2.62080e-37
      254.300   2.55638e-37
      254.400   2.49355e-37
      254.500   2.43226e-37
      254.600   2.37243e-37
      254.700   2.31412e-37
      254.800   2.25729e-37
      254.900   2.20185e-37
      255.000   2.14778e-37
      255.100   2.09497e-37
      255.200   2.04349e-37
      255.300   1.99326e-37
      255.400   1.94425e-37
      255.500   1.89644e-37
      255.600   1.84980e-37
      255.700   1.80429e-37
      255.800   1.75988e-37
      255.900   1.71657e-37
      256.000   1.67428e-37
      256.100   1.63309e-37
      256.200   1.59291e-37
      256.300   1.55369e-37
      256.400   1.51549e-37
      256.500   1.47817e-37
      256.600   1.44177e-37
      256.700   1.40625e-37
      256.800   1.37160e-37
      256.900   1.32952e-37
      257.000   1.27564e-37
      257.100   1.21993e-37
      257.200   1.16665e-37
      257.300   1.11567e-37
      257.400   1.06704e-37
      257.500   1.02055e-37
      257.600   9.76172e-38
      257.700   9.33726e-38
      257.800   8.93091e-38
      257.900   8.54224e-38
      258.000   8.17035e-38
      258.100   7.81440e-38
      258.200   7.47390e-38
      258.300   7.14819e-38
      258.400   6.83635e-38
      258.500   6.53801e-38
      258.600   6.25266e-38
      258.700   5.97960e-38
      258.800   5.71833e-38
      258.900   5.46850e-38
      259.000   5.22938e-38
      259.100   5.00068e-38
      259.200   4.78204e-38
      259.300   4.57324e-38
      259.400   4.37338e-38
      259.500   4.18217e-38
      259.600   3.99929e-38
      259.700   3.82438e-38
      259.800   3.65702e-38
      259.900   3.49685e-38
      260.000   3.34370e-38
      260.100   3.18612e-38
      260.200   3.02229e-38
      260.300   2.86442e-38
      260.400   2.71475e-38
      260.500   2.57287e-38
      260.600   2.43827e-38
      260.700   2.31067e-38
      260.800   2.18978e-38
      260.900   2.07509e-38
      261.000   1.96648e-38
      261.100   1.86361e-38
      261.200   1.76553e-38
      261.300   1.67253e-38
      261.400   1.58440e-38
      261.500   1.50092e-38
      261.600   1.42191e-38
      261.700   1.34707e-38
      261.800   1.27615e-38
      261.900   1.20890e-38
      262.000   1.14519e-38
      262.100   1.08481e-38
      262.200   1.02762e-38
      262.300   9.73399e-39
      262.400   9.22032e-39
      262.500   8.73345e-39
      262.600   8.27209e-39
      262.700   7.83511e-39
      262.800   7.42106e-39
      262.900   7.02856e-39
      263.000   6.65703e-39
      263.100   6.30490e-39
      263.200   5.97186e-39
      263.300   5.65635e-39
      263.400   5.35734e-39
      263.500   5.07419e-39
      263.600   4.80589e-39
      263.700   4.55168e-39
      263.800   4.31079e-39
      263.900   4.08278e-39
      264.000   3.86666e-39
      264.100   3.66185e-39
      264.200   3.46783e-39
      264.300   3.28418e-39
      264.400   3.11018e-39
      264.500   2.94529e-39
      264.600   2.78909e-39
      264.700   2.64118e-39
      264.800   2.50102e-39
      264.900   2.36834e-39
      265.000   2.24266e-39
      265.100   2.12356e-39
      265.200   2.01078e-39
      265.300   1.90397e-39
      265.400   1.80138e-39
      265.500   1.70374e-39
      265.600   1.61141e-39
      265.700   1.52398e-39
      265.800   1.44138e-39
      265.900   1.36328e-39
      266.000   1.28944e-39
      266.100   1.21958e-39
      266.200   1.15351e-39
      266.300   1.09096e-39
      266.400   1.03183e-39
      266.500   9.75868e-40
      266.600   9.22941e-40
      266.700   8.72863e-40
      266.800   8.25527e-40
      266.900   7.80721e-40
      267.000   7.38340e-40
      267.100   6.98246e-40
      267.200   6.60356e-40
      267.300   6.24497e-40
      267.400   5.90569e-40
      267.500   5.58486e-40
      267.600   5.28142e-40
      267.700   4.99442e-40
      267.800   4.72288e-40
      267.900   4.46611e-40
      268.000   4.22336e-40
      268.100   3.99363e-40
      268.200   3.77654e-40
      268.300   3.57114e-40
      268.400   3.37688e-40
      268.500   3.19304e-40
      268.600   3.01931e-40
      268.700   2.85499e-40
      268.800   2.69959e-40
      268.900   2.55262e-40
      269.000   2.41369e-40
      269.100   2.28222e-40
      269.200   2.15800e-40
      269.300   2.04043e-40
      269.400   1.92928e-40
      269.500   1.82410e-40
      269.600   1.72473e-40
      269.700   1.61601e-40
      269.800   1.51074e-40
      269.900   1.41210e-40
      270.000   1.31997e-40
      270.100   1.23380e-40
      270.200   1.15328e-40
      270.300   1.07805e-40
      270.400   1.00769e-40
      270.500   9.41869e-41
      270.600   8.80310e-41
      270.700   8.22800e-41
      270.800   7.68991e-41
      270.900   7.18768e-41
      271.000   6.71740e-41
      271.100   6.27810e-41
      271.200   5.86696e-41
      271.300   5.48286e-41
      271.400   5.12441e-41
      271.500   4.78894e-41
      271.600   4.47491e-41
      271.700   4.18119e-41
      271.800   3.90738e-41
      271.900   3.65094e-41
      272.000   3.41160e-41
      272.100   3.18767e-41
      272.200   2.97902e-41
      272.300   2.78340e-41
      272.400   2.60039e-41
      272.500   2.42943e-41
      272.600   2.26940e-41
      272.700   2.12087e-41
      272.800   1.98732e-41
      272.900   1.88082e-41
      273.000   1.78792e-41
      273.100   1.69978e-41
      273.200   1.61542e-41
      273.300   1.53554e-41
      273.400   1.45945e-41
      273.500   1.38729e-41
      273.600   1.31862e-41
      273.700   1.25332e-41
      273.800   1.19138e-41
      273.900   1.12300e-41
      274.000   1.03906e-41
      274.100   9.61010e-42
      274.200   8.88563e-42
      274.300   8.22002e-42
      274.400   7.60345e-42
      274.500   7.03172e-42
      274.600   6.50202e-42
      274.700   6.00597e-42
      274.800   5.55615e-42
      274.900   5.13436e-42
      275.000   4.74480e-42
      275.100   4.39027e-42
      275.200   4.05816e-42
      275.300   3.74707e-42
      275.400   3.46681e-42
      275.500   3.20477e-42
      275.600   2.95534e-42
      275.700   2.73113e-42
      275.800   2.52654e-42
      275.900   2.33877e-42
      276.000   2.17201e-42
      276.100   2.04449e-42
      276.200   1.94640e-42
      276.300   1.83990e-42
      276.400   1.74181e-42
      276.500   1.64793e-42
      276.600   1.56805e-42
      276.700   1.48538e-42
      276.800   1.40550e-42
      276.900   1.33263e-42
      277.000   1.25837e-42
      277.100   1.19110e-42
      277.200   1.13365e-42
      277.300   1.07339e-42
      277.400   1.01874e-42
      277.500   9.61291e-43
      277.600   9.10844e-43
      277.700   8.58996e-43
      277.800   8.18358e-43
      277.900   7.73517e-43
      278.000   7.38484e-43
      278.100   6.99248e-43
      278.200   6.48801e-43
      278.300   6.01157e-43
      278.400   5.56315e-43
      278.500   5.14277e-43
      278.600   4.76441e-43
      278.700   4.44212e-43
      278.800   4.09179e-43
      278.900   3.74147e-43
      279.000   3.51726e-43
      279.100   3.26503e-43
      279.200   2.97075e-43
      279.300   2.81661e-43
      279.400   2.62043e-43
      279.500   2.46629e-43
      279.600   2.29813e-43
      279.700   2.24208e-43
      279.800   2.07392e-43
      279.900   1.94780e-43
      280.000   1.82169e-43
      280.100   1.69557e-43
      280.200   1.59748e-43
      280.300   1.47136e-43
      280.400   1.37327e-43
      280.500   1.27518e-43
      280.600   1.21913e-43
      280.700   1.12104e-43
      280.800   1.05097e-43
      280.900   1.05097e-43
      281.000   9.94922e-44
      281.100   9.24857e-44
      281.200   8.68805e-44
      281.300   8.26766e-44
      281.400   7.70714e-44
      281.500   7.28675e-44
      281.600   7.00649e-44
      281.700   6.44597e-44
      281.800   6.44597e-44
      281.900   5.74532e-44
      282.000   5.74532e-44
      282.100   5.46506e-44
      282.200   5.04467e-44
      282.300   5.04467e-44
      282.400   4.76441e-44
      282.500   4.48416e-44
      282.600   4.48416e-44
      282.700   4.20390e-44
      282.800   3.78351e-44
      282.900   3.50325e-44
      283.000   3.50325e-44
      283.100   3.50325e-44
      283.200   3.22299e-44
      283.300   3.22299e-44
      283.400   2.94273e-44
      283.500   2.94273e-44
      283.600   2.52234e-44
      283.700   2.24208e-44
      283.800   2.24208e-44
      283.900   2.24208e-44
      284.000   2.24208e-44
      284.100   1.96182e-44
      284.200   1.96182e-44
      284.300   1.96182e-44
      284.400   1.54143e-44
      284.500   1.54143e-44
      284.600   1.54143e-44
      284.700   1.54143e-44
      284.800   1.26117e-44
      284.900   1.26117e-44
      285.000   1.26117e-44
      285.100   9.80909e-45
      285.200   9.80909e-45
      285.300   9.80909e-45
      285.400   9.80909e-45
      285.500   9.80909e-45
      285.600   7.00649e-45
      285.700   7.00649e-45
      285.800   7.00649e-45
      285.900   7.00649e-45
      286.000   7.00649e-45
      286.100   7.00649e-45
      286.200   7.00649e-45
      286.300   2.80260e-45
      286.400   2.80260e-45
      286.500   2.80260e-45
      286.600   2.80260e-45
      286.700   2.80260e-45
      286.800   2.80260e-45
      286.900   2.80260e-45
      287.000   2.80260e-45
      287.100   2.80260e-45
      287.200   2.80260e-45
      287.300   2.80260e-45
      287.400   2.80260e-45
      287.500   2.80260e-45
      287.600   2.80260e-45
      287.700   2.80260e-45
      287.800       0.00000
      287.900       0.00000
      288.000       0.00000
      288.100       0.00000
      288.200       0.00000
      288.300       0.00000
      288.400       0.00000
      288.500       0.00000
      288.600       0.00000
      288.700       0.00000
      288.800       0.00000
      288.900       0.00000
      289.000       0.00000
      289.100       0.00000
      289.200       0.00000
      289.300       0.00000
      289.400       0.00000
      289.500       0.00000
      289.600       0.00000
      289.700       0.00000
      289.800       0.00000
      289.900       0.00000
      290.000       0.00000
      290.100       0.00000
      290.200       0.00000
      290.300       0.00000
      290.400       0.00000
      290.500       0.00000
      290.600       0.00000
      290.700       0.00000
      290.800       0.00000
      290.900       0.00000
      291.000       0.00000
      291.100       0.00000
      291.200       0.00000
      291.300       0.00000
      291.400       0.00000
      291.500       0.00000
      291.600       0.00000
      291.700       0.00000
      291.800       0.00000
      291.900       0.00000
      292.000       0.00000
      292.100       0.00000
      292.200       0.00000
      292.300       0.00000
      292.400       0.00000
      292.500       0.00000
      292.600       0.00000
      292.700       0.00000
      292.800       0.00000
      292.900       0.00000
      293.000       0.00000
      293.100       0.00000
      293.200       0.00000
      293.300       0.00000
      293.400       0.00000
      293.500       0.00000
      293.600       0.00000
      293.700       0.00000
      293.800       0.00000
      293.900       0.00000
      294.000       0.00000
      294.100       0.00000
      294.200       0.00000
      294.300       0.00000
      294.400       0.00000
      294.500       0.00000
      294.600       0.00000
      294.700       0.00000
      294.800       0.00000
      294.900       0.00000
      295.000       0.00000
      295.100       0.00000
      295.200       0.00000
      295.300       0.00000
      295.400       0.00000
      295.500       0.00000
      295.600       0.00000
      295.700       0.00000
      295.800       0.00000
      295.900       0.00000
      296.000       0.00000
      296.100       0.00000
      296.200       0.00000
      296.300       0.00000
      296.400       0.00000
      296.500       0.00000
      296.600       0.00000
      296.700       0.00000
      296.800       0.00000
      296.900       0.00000
      297.000       0.00000
      297.100       0.00000
      297.200       0.00000
      297.300       0.00000
      297.400       0.00000
      297.500       0.00000
      297.600       0.00000
      297.700       0.00000
      297.800       0.00000
      297.900       0.00000
      298.000       0.00000
      298.100       0.00000
      298.200       0.00000
      298.300       0.00000
      298.400       0.00000
      298.500       0.00000
      298.600       0.00000
      298.700       0.00000
      298.800       0.00000
      298.900       0.00000
      299.000       0.00000
      299.100       0.00000
      299.200       0.00000
      299.300       0.00000
      299.400       0.00000
      299.500       0.00000
      299.600       0.00000
      299.700       0.00000
      299.800       0.00000
      299.900       0.00000
      300.000       0.00000
      300.100       0.00000
      300.192       0.00000
      300.285       0.00000
      300.377       0.00000
      300.470       0.00000
      300.562       0.00000
      300.654       0.00000
      300.747       0.00000
      300.839       0.00000
      300.932       0.00000
      301.025       0.00000
      301.117       0.00000
      301.210       0.00000
      301.303       0.00000
      301.395       0.00000
      301.488       0.00000
      301.581       0.00000
      301.674       0.00000
      301.766       0.00000
      301.859       0.00000
      301.952       0.00000
      302.045       0.00000
      302.138       0.00000
      302.231       0.00000
      302.324       0.00000
      302.417       0.00000
      302.510       0.00000
      302.603       0.00000
      302.696       0.00000
      302.789       0.00000
      302.882       0.00000
      302.976       0.00000
      303.069       0.00000
      303.162       0.00000
      303.255       0.00000
      303.349       0.00000
      303.442       0.00000
      303.535       0.00000
      303.629       0.00000
      303.722       0.00000
      303.816       0.00000
      303.909       0.00000
      304.003       0.00000
      304.096       0.00000
      304.190       0.00000
      304.283       0.00000
      304.377       0.00000
      304.471       0.00000
      304.564       0.00000
      304.658       0.00000
      304.752       0.00000
      304.846       0.00000
      304.939       0.00000
      305.033       0.00000
      305.127       0.00000
      305.221       0.00000
      305.315       0.00000
      305.409       0.00000
      305.503       0.00000
      305.597       0.00000
      305.691       0.00000
      305.785       0.00000
      305.879       0.00000
      305.973       0.00000
      306.067       0.00000
      306.161       0.00000
      306.255       0.00000
      306.350       0.00000
      306.444       0.00000
      306.538       0.00000
      306.633       0.00000
      306.727       0.00000
      306.821       0.00000
      306.916       0.00000
      307.010       0.00000
      307.105       0.00000
      307.199       0.00000
      307.294       0.00000
      307.388       0.00000
      307.483       0.00000
      307.577       0.00000
      307.672       0.00000
      307.767       0.00000
      307.861       0.00000
      307.956       0.00000
      308.051       0.00000
      308.146       0.00000
      308.240       0.00000
      308.335       0.00000
      308.430       0.00000
      308.525       0.00000
      308.620       0.00000
      308.715       0.00000
      308.810       0.00000
      308.905       0.00000
      309.000       0.00000
      309.095       0.00000
      309.190       0.00000
      309.285       0.00000
      309.380       0.00000
      309.476       0.00000
      309.571       0.00000
      309.666       0.00000
      309.761       0.00000
      309.857       0.00000
      309.952       0.00000
      310.047       0.00000
      310.143       0.00000
      310.238       0.00000
      310.334       0.00000
      310.429       0.00000
      310.525       0.00000
      310.620       0.00000
      310.716       0.00000
      310.811       0.00000
      310.907       0.00000
      311.003       0.00000
      311.098       0.00000
      311.194       0.00000
      311.290       0.00000
      311.386       0.00000
      311.481       0.00000
      311.577       0.00000
      311.673       0.00000
      311.769       0.00000
      311.865       0.00000
      311.961       0.00000
      312.057       0.00000
      312.153       0.00000
      312.249       0.00000
      312.345       0.00000
      312.441       0.00000
      312.537       0.00000
      312.633       0.00000
      312.730       0.00000
      312.826       0.00000
      312.922       0.00000
      313.018       0.00000
      313.115       0.00000
      313.211       0.00000
      313.307       0.00000
      313.404       0.00000
      313.500       0.00000
      313.597       0.00000
      313.693       0.00000
      313.790       0.00000
      313.886       0.00000
      313.983       0.00000
      314.079       0.00000
      314.176       0.00000
      314.273       0.00000
      314.369       0.00000
      314.466       0.00000
      314.563       0.00000
      314.660       0.00000
      314.756       0.00000
      314.853       0.00000
      314.950       0.00000
      315.047       0.00000
      315.144       0.00000
      315.241       0.00000
      315.338       0.00000
      315.435       0.00000
      315.532       0.00000
      315.629       0.00000
      315.726       0.00000
      315.823       0.00000
      315.921       0.00000
      316.018       0.00000
      316.115       0.00000
      316.212       0.00000
      316.310       0.00000
      316.407       0.00000
      316.504       0.00000
      316.602       0.00000
      316.699       0.00000
      316.796       0.00000
      316.894       0.00000
      316.991       0.00000
      317.089       0.00000
      317.187       0.00000
      317.284       0.00000
      317.382       0.00000
      317.479       0.00000
      317.577       0.00000
      317.675       0.00000
      317.773       0.00000
      317.870       0.00000
      317.968       0.00000
      318.066       0.00000
      318.164       0.00000
      318.262       0.00000
      318.360       0.00000
      318.458       0.00000
      318.556       0.00000
      318.654       0.00000
      318.752       0.00000
      318.850       0.00000
      318.948       0.00000
      319.046       0.00000
      319.144       0.00000
      319.242       0.00000
      319.341       0.00000
      319.439       0.00000
      319.537       0.00000
      319.635       0.00000
      319.734       0.00000
      319.832       0.00000
      319.930       0.00000
      320.029       0.00000
      320.127       0.00000
      320.226       0.00000
      320.324       0.00000
      320.423       0.00000
      320.522       0.00000
      320.620       0.00000
      320.719       0.00000
      320.818       0.00000
      320.916       0.00000
      321.015       0.00000
      321.114       0.00000
      321.213       0.00000
      321.311       0.00000
      321.410       0.00000
      321.509       0.00000
      321.608       0.00000
      321.707       0.00000
      321.806       0.00000
      321.905       0.00000
      322.004       0.00000
      322.103       0.00000
      322.202       0.00000
      322.301       0.00000
      322.401       0.00000
      322.500       0.00000
      322.599       0.00000
      322.698       0.00000
      322.798       0.00000
      322.897       0.00000
      322.996       0.00000
      323.096       0.00000
      323.195       0.00000
      323.294       0.00000
      323.394       0.00000
      323.493       0.00000
      323.593       0.00000
      323.692       0.00000
      323.792       0.00000
      323.892       0.00000
      323.991       0.00000
      324.091       0.00000
      324.191       0.00000
      324.291       0.00000
      324.390       0.00000
      324.490       0.00000
      324.590       0.00000
      324.690       0.00000
      324.790       0.00000
      324.890       0.00000
      324.990       0.00000
      325.090       0.00000
      325.190       0.00000
      325.290       0.00000
      325.390       0.00000
      325.490       0.00000
      325.590       0.00000
      325.690       0.00000
      325.790       0.00000
      325.891       0.00000
      325.991       0.00000
      326.091       0.00000
      326.192       0.00000
      326.292       0.00000
      326.392       0.00000
      326.493       0.00000
      326.593       0.00000
      326.694       0.00000
      326.794       0.00000
      326.895       0.00000
      326.995       0.00000
      327.096       0.00000
      327.197       0.00000
      327.297       0.00000
      327.398       0.00000
      327.499       0.00000
      327.599       0.00000
      327.700       0.00000
      327.801       0.00000
      327.902       0.00000
      328.003       0.00000
      328.104       0.00000
      328.205       0.00000
      328.306       0.00000
      328.407       0.00000
      328.508       0.00000
      328.609       0.00000
      328.710       0.00000
      328.811       0.00000
      328.912       0.00000
      329.013       0.00000
      329.115       0.00000
      329.216       0.00000
      329.317       0.00000
      329.419       0.00000
      329.520       0.00000
      329.621       0.00000
      329.723       0.00000
      329.824       0.00000
      329.926       0.00000
      330.027       0.00000
      330.129       0.00000
      330.230       0.00000
      330.332       0.00000
      330.434       0.00000
      330.535       0.00000
      330.637       0.00000
      330.739       0.00000
      330.840       0.00000
      330.942       0.00000
      331.044       0.00000
      331.146       0.00000
      331.248       0.00000
      331.350       0.00000
      331.452       0.00000
      331.554       0.00000
      331.656       0.00000
      331.758       0.00000
      331.860       0.00000
      331.962       0.00000
      332.064       0.00000
      332.166       0.00000
      332.268       0.00000
      332.371       0.00000
      332.473       0.00000
      332.575       0.00000
      332.677       0.00000
      332.780       0.00000
      332.882       0.00000
      332.985       0.00000
      333.087       0.00000
      333.190       0.00000
      333.292       0.00000
      333.395       0.00000
      333.497       0.00000
      333.600       0.00000
      333.702       0.00000
      333.805       0.00000
      333.908       0.00000
      334.011       0.00000
      334.113       0.00000
      334.216       0.00000
      334.319       0.00000
      334.422       0.00000
      334.525       0.00000
      334.628       0.00000
      334.731       0.00000
      334.834       0.00000
      334.937       0.00000
      335.040       0.00000
      335.143       0.00000
      335.246       0.00000
      335.349       0.00000
      335.452       0.00000
      335.555       0.00000
      335.659       0.00000
      335.762       0.00000
      335.865       0.00000
      335.969       0.00000
      336.072       0.00000
      336.175       0.00000
      336.279       0.00000
      336.382       0.00000
      336.486       0.00000
      336.589       0.00000
      336.693       0.00000
      336.796       0.00000
      336.900       0.00000
      337.004       0.00000
      337.107       0.00000
      337.211       0.00000
      337.315       0.00000
      337.419       0.00000
      337.523       0.00000
      337.626       0.00000
      337.730       0.00000
      337.834       0.00000
      337.938       0.00000
      338.042       0.00000
      338.146       0.00000
      338.250       0.00000
      338.354       0.00000
      338.458       0.00000
      338.562       0.00000
      338.667       0.00000
      338.771       0.00000
      338.875       0.00000
      338.979       0.00000
      339.084       0.00000
      339.188       0.00000
      339.292       0.00000
      339.397       0.00000
      339.501       0.00000
      339.606       0.00000
      339.710       0.00000
      339.815       0.00000
      339.919       0.00000
      340.024       0.00000
      340.128       0.00000
      340.233       0.00000
      340.338       0.00000
      340.442       0.00000
      340.547       0.00000
      340.652       0.00000
      340.757       0.00000
      340.862       0.00000
      340.966       0.00000
      341.071       0.00000
      341.176       0.00000
      341.281       0.00000
      341.386       0.00000
      341.491       0.00000
      341.596       0.00000
      341.702       0.00000
      341.807       0.00000
      341.912       0.00000
      342.017       0.00000
      342.122       0.00000
      342.228       0.00000
      342.333       0.00000
      342.438       0.00000
      342.544       0.00000
      342.649       0.00000
      342.754       0.00000
      342.860       0.00000
      342.965       0.00000
      343.071       0.00000
      343.176       0.00000
      343.282       0.00000
      343.388       0.00000
      343.493       0.00000
      343.599       0.00000
      343.705       0.00000
      343.810       0.00000
      343.916       0.00000
      344.022       0.00000
      344.128       0.00000
      344.234       0.00000
      344.340       0.00000
      344.446       0.00000
      344.552       0.00000
      344.658       0.00000
      344.764       0.00000
      344.870       0.00000
      344.976       0.00000
      345.082       0.00000
      345.188       0.00000
      345.294       0.00000
      345.401       0.00000
      345.507       0.00000
      345.613       0.00000
      345.719       0.00000
      345.826       0.00000
      345.932       0.00000
      346.039       0.00000
      346.145       0.00000
      346.252       0.00000
      346.358       0.00000
      346.465       0.00000
      346.571       0.00000
      346.678       0.00000
      346.785       0.00000
      346.891       0.00000
      346.998       0.00000
      347.105       0.00000
      347.212       0.00000
      347.319       0.00000
      347.425       0.00000
      347.532       0.00000
      347.639       0.00000
      347.746       0.00000
      347.853       0.00000
      347.960       0.00000
      348.067       0.00000
      348.174       0.00000
      348.281       0.00000
      348.389       0.00000
      348.496       0.00000
      348.603       0.00000
      348.710       0.00000
      348.818       0.00000
      348.925       0.00000
      349.032       0.00000
      349.140       0.00000
      349.247       0.00000
      349.355       0.00000
      349.462       0.00000
      349.570       0.00000
      349.677       0.00000
      349.785       0.00000
      349.892       0.00000
      350.000       0.00000
      350.100       0.00000
      350.193       0.00000
      350.287       0.00000
      350.380       0.00000
      350.473       0.00000
      350.567       0.00000
      350.660       0.00000
      350.754       0.00000
      350.847       0.00000
      350.941       0.00000
      351.034       0.00000
      351.128       0.00000
      351.221       0.00000
      351.315       0.00000
      351.409       0.00000
      351.502       0.00000
      351.596       0.00000
      351.690       0.00000
      351.783       0.00000
      351.877       0.00000
      351.971       0.00000
      352.065       0.00000
      352.159       0.00000
      352.252       0.00000
      352.346       0.00000
      352.440       0.00000
      352.534       0.00000
      352.628       0.00000
      352.722       0.00000
      352.816       0.00000
      352.910       0.00000
      353.004       0.00000
      353.098       0.00000
      353.192       0.00000
      353.287       0.00000
      353.381       0.00000
      353.475       0.00000
      353.569       0.00000
      353.663       0.00000
      353.758       0.00000
      353.852       0.00000
      353.946       0.00000
      354.041       0.00000
      354.135       0.00000
      354.229       0.00000
      354.324       0.00000
      354.418       0.00000
      354.513       0.00000
      354.607       0.00000
      354.702       0.00000
      354.796       0.00000
      354.891       0.00000
      354.985       0.00000
      355.080       0.00000
      355.175       0.00000
      355.269       0.00000
      355.364       0.00000
      355.459       0.00000
      355.553       0.00000
      355.648       0.00000
      355.743       0.00000
      355.838       0.00000
      355.933       0.00000
      356.027       0.00000
      356.122       0.00000
      356.217       0.00000
      356.312       0.00000
      356.407       0.00000
      356.502       0.00000
      356.597       0.00000
      356.692       0.00000
      356.787       0.00000
      356.882       0.00000
      356.977       0.00000
      357.073       0.00000
      357.168       0.00000
      357.263       0.00000
      357.358       0.00000
      357.453       0.00000
      357.549       0.00000
      357.644       0.00000
      357.739       0.00000
      357.835       0.00000
      357.930       0.00000
      358.025       0.00000
      358.121       0.00000
      358.216       0.00000
      358.312       0.00000
      358.407       0.00000
      358.503       0.00000
      358.598       0.00000
      358.694       0.00000
      358.790       0.00000
      358.885       0.00000
      358.981       0.00000
      359.076       0.00000
      359.172       0.00000
      359.268       0.00000
      359.364       0.00000
      359.459       0.00000
      359.555       0.00000
      359.651       0.00000
      359.747       0.00000
      359.843       0.00000
      359.939       0.00000
      360.035       0.00000
      360.131       0.00000
      360.227       0.00000
      360.323       0.00000
      360.419       0.00000
      360.515       0.00000
      360.611       0.00000
      360.707       0.00000
      360.803       0.00000
      360.899       0.00000
      360.995       0.00000
      361.092       0.00000
      361.188       0.00000
      361.284       0.00000
      361.380       0.00000
      361.477       0.00000
      361.573       0.00000
      361.669       0.00000
      361.766       0.00000
      361.862       0.00000
      361.959       0.00000
      362.055       0.00000
      362.152       0.00000
      362.248       0.00000
      362.345       0.00000
      362.441       0.00000
      362.538       0.00000
      362.635       0.00000
      362.731       0.00000
      362.828       0.00000
      362.925       0.00000
      363.021       0.00000
      363.118       0.00000
      363.215       0.00000
      363.312       0.00000
      363.409       0.00000
      363.505       0.00000
      363.602       0.00000
      363.699       0.00000
      363.796       0.00000
      363.893       0.00000
      363.990       0.00000
      364.087       0.00000
      364.184       0.00000
      364.281       0.00000
      364.378       0.00000
      364.475       0.00000
      364.573       0.00000
      364.670       0.00000
      364.767       0.00000
      364.864       0.00000
      364.961       0.00000
      365.059       0.00000
      365.156       0.00000
      365.253       0.00000
      365.351       0.00000
      365.448       0.00000
      365.545       0.00000
      365.643       0.00000
      365.740       0.00000
      365.838       0.00000
      365.935       0.00000
      366.033       0.00000
      366.130       0.00000
      366.228       0.00000
      366.326       0.00000
      366.423       0.00000
      366.521       0.00000
      366.618       0.00000
      366.716       0.00000
      366.814       0.00000
      366.912       0.00000
      367.010       0.00000
      367.107       0.00000
      367.205       0.00000
      367.303       0.00000
      367.401       0.00000
      367.499       0.00000
      367.597       0.00000
      367.695       0.00000
      367.793       0.00000
      367.891       0.00000
      367.989       0.00000
      368.087       0.00000
      368.185       0.00000
      368.283       0.00000
      368.381       0.00000
      368.480       0.00000
      368.578       0.00000
      368.676       0.00000
      368.774       0.00000
      368.873       0.00000
      368.971       0.00000
      369.069       0.00000
      369.168       0.00000
      369.266       0.00000
      369.364       0.00000
      369.463       0.00000
      369.561       0.00000
      369.660       0.00000
      369.758       0.00000
      369.857       0.00000
      369.955       0.00000
      370.054       0.00000
      370.153       0.00000
      370.251       0.00000
      370.350       0.00000
      370.449       0.00000
      370.547       0.00000
      370.646       0.00000
      370.745       0.00000
      370.844       0.00000
      370.943       0.00000
      371.041       0.00000
      371.140       0.00000
      371.239       0.00000
      371.338       0.00000
      371.437       0.00000
      371.536       0.00000
      371.635       0.00000
      371.734       0.00000
      371.833       0.00000
      371.932       0.00000
      372.032       0.00000
      372.131       0.00000
      372.230       0.00000
      372.329       0.00000
      372.428       0.00000
      372.528       0.00000
      372.627       0.00000
      372.726       0.00000
      372.826       0.00000
      372.925       0.00000
      373.024       0.00000
      373.124       0.00000
      373.223       0.00000
      373.323       0.00000
      373.422       0.00000
      373.522       0.00000
      373.621       0.00000
      373.721       0.00000
      373.820       0.00000
      373.920       0.00000
      374.020       0.00000
      374.119       0.00000
      374.219       0.00000
      374.319       0.00000
      374.419       0.00000
      374.518       0.00000
      374.618       0.00000
      374.718       0.00000
      374.818       0.00000
      374.918       0.00000
      375.018       0.00000
      375.118       0.00000
      375.218       0.00000
      375.318       0.00000
      375.418       0.00000
      375.518       0.00000
      375.618       0.00000
      375.718       0.00000
      375.818       0.00000
      375.918       0.00000
      376.019       0.00000
      376.119       0.00000
      376.219       0.00000
      376.319       0.00000
      376.420       0.00000
      376.520       0.00000
      376.620       0.00000
      376.721       0.00000
      376.821       0.00000
      376.922       0.00000
      377.022       0.00000
      377.122       0.00000
      377.223       0.00000
      377.323       0.00000
      377.424       0.00000
      377.525       0.00000
      377.625       0.00000
      377.726       0.00000
      377.827       0.00000
      377.927       0.00000
      378.028       0.00000
      378.129       0.00000
      378.230       0.00000
      378.330       0.00000
      378.431       0.00000
      378.532       0.00000
      378.633       0.00000
      378.734       0.00000
      378.835       0.00000
      378.936       0.00000
      379.037       0.00000
      379.138       0.00000
      379.239       0.00000
      379.340       0.00000
      379.441       0.00000
      379.542       0.00000
      379.643       0.00000
      379.745       0.00000
      379.846       0.00000
      379.947       0.00000
      380.048       0.00000
      380.150       0.00000
      380.251       0.00000
      380.352       0.00000
      380.454       0.00000
      380.555       0.00000
      380.656       0.00000
      380.758       0.00000
      380.859       0.00000
      380.961       0.00000
      381.062       0.00000
      381.164       0.00000
      381.266       0.00000
      381.367       0.00000
      381.469       0.00000
      381.570       0.00000
      381.672       0.00000
      381.774       0.00000
      381.876       0.00000
      381.977       0.00000
      382.079       0.00000
      382.181       0.00000
      382.283       0.00000
      382.385       0.00000
      382.487       0.00000
      382.589       0.00000
      382.691       0.00000
      382.793       0.00000
      382.895       0.00000
      382.997       0.00000
      383.099       0.00000
      383.201       0.00000
      383.303       0.00000
      383.405       0.00000
      383.507       0.00000
      383.610       0.00000
      383.712       0.00000
      383.814       0.00000
      383.916       0.00000
      384.019       0.00000
      384.121       0.00000
      384.223       0.00000
      384.326       0.00000
      384.428       0.00000
      384.531       0.00000
      384.633       0.00000
      384.736       0.00000
      384.838       0.00000
      384.941       0.00000
      385.043       0.00000
      385.146       0.00000
      385.249       0.00000
      385.351       0.00000
      385.454       0.00000
      385.557       0.00000
      385.660       0.00000
      385.762       0.00000
      385.865       0.00000
      385.968       0.00000
      386.071       0.00000
      386.174       0.00000
      386.277       0.00000
      386.380       0.00000
      386.483       0.00000
      386.586       0.00000
      386.689       0.00000
      386.792       0.00000
      386.895       0.00000
      386.998       0.00000
      387.101       0.00000
      387.204       0.00000
      387.308       0.00000
      387.411       0.00000
      387.514       0.00000
      387.617       0.00000
      387.721       0.00000
      387.824       0.00000
      387.927       0.00000
      388.031       0.00000
      388.134       0.00000
      388.238       0.00000
      388.341       0.00000
      388.445       0.00000
      388.548       0.00000
      388.652       0.00000
      388.755       0.00000
      388.859       0.00000
      388.962       0.00000
      389.066       0.00000
      389.170       0.00000
      389.274       0.00000
      389.377       0.00000
      389.481       0.00000
      389.585       0.00000
      389.689       0.00000
      389.793       0.00000
      389.897       0.00000
      390.000       0.00000
      390.104       0.00000
      390.208       0.00000
      390.312       0.00000
      390.416       0.00000
      390.520       0.00000
      390.625       0.00000
      390.729       0.00000
      390.833       0.00000
      390.937       0.00000
      391.041       0.00000
      391.145       0.00000
      391.250       0.00000
      391.354       0.00000
      391.458       0.00000
      391.563       0.00000
      391.667       0.00000
      391.771       0.00000
      391.876       0.00000
      391.980       0.00000
      392.085       0.00000
      392.189       0.00000
      392.294       0.00000
      392.398       0.00000
      392.503       0.00000
      392.607       0.00000
      392.712       0.00000
      392.817       0.00000
      392.921       0.00000
      393.026       0.00000
      393.131       0.00000
      393.236       0.00000
      393.340       0.00000
      393.445       0.00000
      393.550       0.00000
      393.655       0.00000
      393.760       0.00000
      393.865       0.00000
      393.970       0.00000
      394.075       0.00000
      394.180       0.00000
      394.285       0.00000
      394.390       0.00000
      394.495       0.00000
      394.600       0.00000
      394.706       0.00000
      394.811       0.00000
      394.916       0.00000
      395.021       0.00000
      395.126       0.00000
      395.232       0.00000
      395.337       0.00000
      395.443       0.00000
      395.548       0.00000
      395.653       0.00000
      395.759       0.00000
      395.864       0.00000
      395.970       0.00000
      396.075       0.00000
      396.181       0.00000
      396.286       0.00000
      396.392       0.00000
      396.498       0.00000
      396.603       0.00000
      396.709       0.00000
      396.815       0.00000
      396.921       0.00000
      397.026       0.00000
      397.132       0.00000
      397.238       0.00000
      397.344       0.00000
      397.450       0.00000
      397.556       0.00000
      397.662       0.00000
      397.768       0.00000
      397.874       0.00000
      397.980       0.00000
      398.086       0.00000
      398.192       0.00000
      398.298       0.00000
      398.404       0.00000
      398.510       0.00000
      398.617       0.00000
      398.723       0.00000
      398.829       0.00000
      398.935       0.00000
      399.042       0.00000
      399.148       0.00000
      399.255       0.00000
      399.361       0.00000
      399.467       0.00000
      399.574       0.00000
      399.680       0.00000
      399.787       0.00000
      399.893       0.00000
      400.000       0.00000
