Filter Be-med
observation_date 7-an-224 0
wavelength effective area
      1.00000   2.78113e-10
      1.10000   7.93771e-10
      1.20000   2.06297e-09
      1.30000   4.93133e-09
      1.40000   1.11850e-08
      1.50000   2.38504e-08
      1.60000   4.82549e-08
      1.70000   9.36177e-08
      1.80000   1.74156e-07
      1.90000   3.12732e-07
      2.00000   5.43133e-07
      2.10000   9.16337e-07
      2.20000   1.50901e-06
      2.30000   2.42228e-06
      2.40000   3.79685e-06
      2.50000   5.79254e-06
      2.60000   8.82308e-06
      2.70000   1.31269e-05
      2.80000   1.91530e-05
      2.90000   2.76522e-05
      3.00000   3.92921e-05
      3.10000   5.51042e-05
      3.20000   7.64196e-05
      3.30000   0.000104878
      3.40000   0.000142400
      3.50000   0.000191429
      3.60000   0.000256079
      3.70000   0.000338846
      3.80000   0.000446368
      3.90000   0.000584576
      4.00000   0.000760591
      4.10000   0.000984724
      4.20000    0.00127012
      4.30000    0.00163306
      4.40000    0.00209343
      4.50000    0.00267533
      4.60000    0.00340644
      4.70000    0.00433554
      4.80000    0.00551020
      4.90000    0.00691115
      5.00000    0.00889198
      5.10000     0.0112763
      5.20000     0.0143345
      5.30000     0.0180631
      5.40000     0.0227126
      5.50000     0.0285970
      5.60000     0.0348882
      5.70000     0.0448231
      5.80000     0.0518980
      5.90000     0.0782326
      6.00000      0.103780
      6.10000      0.130828
      6.20000      0.158421
      6.30000      0.183807
      6.40000      0.204465
      6.50000      0.218285
      6.60000      0.222385
      6.70000      0.225501
      6.80000      0.222021
      6.90000      0.286212
      7.00000      0.305651
      7.10000      0.317249
      7.20000      0.324632
      7.30000      0.328971
      7.40000      0.330295
      7.50000      0.329625
      7.60000      0.327122
      7.70000      0.322047
      7.80000      0.313961
      7.90000      0.306212
      8.00000      0.431879
      8.10000      0.461055
      8.20000      0.456550
      8.30000      0.449853
      8.40000      0.441175
      8.50000      0.431643
      8.60000      0.421227
      8.70000      0.410250
      8.80000      0.398680
      8.90000      0.386738
      9.00000      0.374471
      9.10000      0.361952
      9.20000      0.349272
      9.30000      0.336498
      9.40000      0.323665
      9.50000      0.310822
      9.60000      0.298052
      9.70000      0.285359
      9.80000      0.272800
      9.90000      0.260446
      10.0000      0.248324
      10.1000      0.236429
      10.2000      0.224782
      10.3000      0.213422
      10.4000      0.202370
      10.5000      0.191615
      10.6000      0.181169
      10.7000      0.171046
      10.8000      0.161270
      10.9000      0.151869
      11.0000      0.142814
      11.1000      0.134111
      11.2000      0.125761
      11.3000      0.117766
      11.4000      0.110122
      11.5000      0.102824
      11.6000     0.0958707
      11.7000     0.0892709
      11.8000     0.0830031
      11.9000     0.0770458
      12.0000     0.0713235
      12.1000     0.0661473
      12.2000     0.0623813
      12.3000     0.0581526
      12.4000     0.0537391
      12.5000     0.0495602
      12.6000     0.0456309
      12.7000     0.0419503
      12.8000     0.0385096
      12.9000     0.0352982
      13.0000     0.0323073
      13.1000     0.0295270
      13.2000     0.0269507
      13.3000     0.0245800
      13.4000     0.0223964
      13.5000     0.0203802
      13.6000     0.0185327
      13.7000     0.0168302
      13.8000     0.0152630
      13.9000     0.0138225
      14.0000     0.0124999
      14.1000     0.0112852
      14.2000     0.0101701
      14.3000    0.00914876
      14.4000    0.00821562
      14.5000    0.00736941
      14.6000    0.00660644
      14.7000    0.00591214
      14.8000    0.00528119
      14.9000    0.00470857
      15.0000    0.00418970
      15.1000    0.00372038
      15.2000    0.00330514
      15.3000    0.00293184
      15.4000    0.00259518
      15.5000    0.00229202
      15.6000    0.00201960
      15.7000    0.00177864
      15.8000    0.00156654
      15.9000    0.00137631
      16.0000    0.00120599
      16.1000    0.00105382
      16.2000   0.000922157
      16.3000   0.000805886
      16.4000   0.000702100
      16.5000   0.000609677
      16.6000   0.000529363
      16.7000   0.000459941
      16.8000   0.000398154
      16.9000   0.000343334
      17.0000   0.000296191
      17.1000   0.000255894
      17.2000   0.000220298
      17.3000   0.000188974
      17.4000   0.000162735
      17.5000   0.000139838
      17.6000   0.000119694
      17.7000   0.000102566
      17.8000   8.86768e-05
      17.9000   7.63382e-05
      18.0000   6.53743e-05
      18.1000   5.63408e-05
      18.2000   4.82523e-05
      18.3000   4.09751e-05
      18.4000   3.47759e-05
      18.5000   2.93912e-05
      18.6000   2.45839e-05
      18.7000   2.05321e-05
      18.8000   1.71408e-05
      18.9000   1.41699e-05
      19.0000   1.17644e-05
      19.1000   9.76195e-06
      19.2000   8.01087e-06
      19.3000   6.62313e-06
      19.4000   5.46819e-06
      19.5000   4.47003e-06
      19.6000   3.72402e-06
      19.7000   3.07677e-06
      19.8000   2.51704e-06
      19.9000   2.09136e-06
      20.0000   1.71269e-06
      20.1000   1.40221e-06
      20.2000   1.15416e-06
      20.3000   9.35077e-07
      20.4000   7.67634e-07
      20.5000   6.24602e-07
      20.6000   5.03312e-07
      20.7000   4.12028e-07
      20.8000   3.30661e-07
      20.9000   2.68214e-07
      21.0000   2.16243e-07
      21.1000   1.72145e-07
      21.2000   1.39676e-07
      21.3000   1.10602e-07
      21.4000   8.90302e-08
      21.5000   7.07953e-08
      21.6000   5.59342e-08
      21.7000   4.47188e-08
      21.8000   3.47307e-08
      21.9000   2.78397e-08
      22.0000   2.16500e-08
      22.1000   1.70700e-08
      22.2000   1.33235e-08
      22.3000   1.03008e-08
      22.4000   7.96689e-09
      22.5000   5.85954e-09
      22.6000   4.21722e-09
      22.7000   2.85775e-09
      22.8000   2.76614e-09
      22.9000   2.76104e-09
      23.0000   2.80702e-09
      23.1000   2.61669e-09
      23.2000   2.20387e-09
      23.3000   1.79952e-09
      23.4000   1.39956e-09
      23.5000   1.11193e-09
      23.6000   8.52478e-10
      23.7000   6.78287e-10
      23.8000   5.13701e-10
      23.9000   4.08572e-10
      24.0000   3.08972e-10
      24.1000   2.43724e-10
      24.2000   1.83903e-10
      24.3000   1.44020e-10
      24.4000   1.08467e-10
      24.5000   8.43660e-11
      24.6000   6.33740e-11
      24.7000   4.90055e-11
      24.8000   3.67002e-11
      24.9000   2.82363e-11
      25.0000   2.10615e-11
      25.1000   1.61401e-11
      25.2000   1.19790e-11
      25.3000   9.15283e-12
      25.4000   6.75055e-12
      25.5000   5.14934e-12
      25.6000   3.76944e-12
      25.7000   2.87410e-12
      25.8000   2.08507e-12
      25.9000   1.59108e-12
      26.0000   1.14216e-12
      26.1000   8.73292e-13
      26.2000   6.19281e-13
      26.3000   4.75021e-13
      26.4000   3.32261e-13
      26.5000   2.55957e-13
      26.6000   1.80091e-13
      26.7000   1.36539e-13
      26.8000   9.70089e-14
      26.9000   7.20689e-14
      27.0000   5.17678e-14
      27.1000   3.75976e-14
      27.2000   2.73282e-14
      27.3000   1.93901e-14
      27.4000   1.43389e-14
      27.5000   9.96028e-15
      27.6000   7.44447e-15
      27.7000   5.01527e-15
      27.8000   3.79831e-15
      27.9000   2.58834e-15
      28.0000   1.90877e-15
      28.1000   1.33498e-15
      28.2000   9.44845e-16
      28.3000   6.77338e-16
      28.4000   4.60299e-16
      28.5000   3.37742e-16
      28.6000   2.20523e-16
      28.7000   1.65379e-16
      28.8000   1.10559e-16
      28.9000   7.94681e-17
      29.0000   5.52261e-17
      29.1000   3.74353e-17
      29.2000   2.69128e-17
      29.3000   1.72765e-17
      29.4000   1.27957e-17
      29.5000   8.34176e-18
      29.6000   5.93589e-18
      29.7000   4.07616e-18
      29.8000   2.68687e-18
      29.9000   1.92550e-18
      30.0000   1.18653e-18
      30.1000   8.81100e-19
      30.2000   5.77523e-19
      30.3000   3.94224e-19
      30.4000   2.79817e-19
      30.5000   1.79731e-19
      30.6000   1.30854e-19
      30.7000   8.22760e-20
      30.8000   5.69482e-20
      30.9000   3.86671e-20
      31.0000   2.40042e-20
      31.1000   1.73613e-20
      31.2000   1.07593e-20
      31.3000   7.56792e-21
      31.4000   5.11643e-21
      31.5000   3.17366e-21
      31.6000   2.28295e-21
      31.7000   1.39780e-21
      31.8000   9.68046e-22
      31.9000   6.53941e-22
      32.0000   3.94084e-22
      32.1000   2.87165e-22
      32.2000   1.80914e-22
      32.3000   1.22191e-22
      32.4000   8.45015e-23
      32.5000   4.97105e-23
      32.6000   3.66342e-23
      32.7000   2.36397e-23
      32.8000   1.50033e-23
      32.9000   1.05904e-23
      33.0000   6.20535e-24
      33.1000   4.39445e-24
      33.2000   2.93943e-24
      33.3000   1.72036e-24
      33.4000   1.24812e-24
      33.5000   7.78759e-25
      33.6000   4.91680e-25
      33.7000   3.42928e-25
      33.8000   1.95068e-25
      33.9000   1.36718e-25
      34.0000   9.09629e-26
      34.1000   5.07850e-26
      34.2000   3.69724e-26
      34.3000   2.32387e-26
      34.4000   1.37582e-26
      34.5000   9.71594e-27
      34.6000   5.69711e-27
      34.7000   3.63382e-27
      34.8000   2.48058e-27
      34.9000   1.33396e-27
      35.0000   9.35061e-28
      35.1000   6.15023e-28
      35.2000   3.21665e-28
      35.3000   2.34708e-28
      35.4000   1.48253e-28
      35.5000   8.03521e-29
      35.6000   5.74978e-29
      35.7000   3.47759e-29
      35.8000   1.95962e-29
      35.9000   1.37554e-29
      36.0000   7.94855e-30
      36.1000   4.66599e-30
      36.2000   3.21578e-30
      36.3000   1.77402e-30
      36.4000   1.08514e-30
      36.5000   7.35435e-31
      36.6000   3.87799e-31
      36.7000   2.46540e-31
      36.8000   1.64687e-31
      36.9000   8.33217e-32
      37.0000   5.47226e-32
      37.1000   3.61379e-32
      37.2000   1.76628e-32
      37.3000   1.18643e-32
      37.4000   7.77422e-33
      37.5000   3.70864e-33
      37.6000   2.51230e-33
      37.7000   1.64044e-33
      37.8000   7.73816e-34
      37.9000   5.19506e-34
      38.0000   3.39515e-34
      38.1000   1.60601e-34
      38.2000   1.04807e-34
      38.3000   6.88504e-35
      38.4000   3.31097e-35
      38.5000   2.05993e-35
      38.6000   1.36599e-35
      38.7000   6.76224e-36
      38.8000   3.94211e-36
      38.9000   2.64843e-36
      39.0000   1.36250e-36
      39.1000   7.33900e-37
      39.2000   5.00954e-37
      39.3000   2.69412e-37
      39.4000   1.32556e-37
      39.5000   9.18421e-38
      39.6000   5.13774e-38
      39.7000   2.25355e-38
      39.8000   1.59226e-38
      39.9000   9.34977e-39
      40.0000   3.69520e-39
      40.1000   2.66508e-39
      40.2000   1.64122e-39
      40.3000   6.23711e-40
      40.4000   4.30786e-40
      40.5000   2.77418e-40
      40.6000   1.24983e-40
      40.7000   6.70746e-41
      40.8000   4.50111e-41
      40.9000   2.30766e-41
      41.0000   1.00347e-41
      41.1000   6.99108e-42
      41.2000   3.96427e-42
      41.3000   1.44053e-42
      41.4000   1.03836e-42
      41.5000   6.36190e-43
      41.6000   2.42425e-43
      41.7000   1.47136e-43
      41.8000   9.52883e-44
      41.9000   4.48416e-44
      42.0000   1.96182e-44
      42.1000   1.54143e-44
      42.2000   7.00649e-45
      42.3000   2.80260e-45
      42.4000   2.80260e-45
      42.5000   2.80260e-45
      42.6000  -2.80260e-45
      42.7000       0.00000
      42.8000       0.00000
      42.9000       0.00000
      43.0000       0.00000
      43.1000       0.00000
      43.2000       0.00000
      43.3000       0.00000
      43.4000       0.00000
      43.5000       0.00000
      43.6000       0.00000
      43.7000       0.00000
      43.8000       0.00000
      43.9000       0.00000
      44.0000       0.00000
      44.1000       0.00000
      44.2000       0.00000
      44.3000       0.00000
      44.4000       0.00000
      44.5000       0.00000
      44.6000       0.00000
      44.7000       0.00000
      44.8000       0.00000
      44.9000       0.00000
      45.0000       0.00000
      45.1000       0.00000
      45.2000       0.00000
      45.3000       0.00000
      45.4000       0.00000
      45.5000       0.00000
      45.6000       0.00000
      45.7000       0.00000
      45.8000       0.00000
      45.9000       0.00000
      46.0000       0.00000
      46.1000       0.00000
      46.2000       0.00000
      46.3000       0.00000
      46.4000       0.00000
      46.5000       0.00000
      46.6000       0.00000
      46.7000       0.00000
      46.8000       0.00000
      46.9000       0.00000
      47.0000       0.00000
      47.1000       0.00000
      47.2000       0.00000
      47.3000       0.00000
      47.4000       0.00000
      47.5000       0.00000
      47.6000       0.00000
      47.7000       0.00000
      47.8000       0.00000
      47.9000       0.00000
      48.0000       0.00000
      48.1000       0.00000
      48.2000       0.00000
      48.3000       0.00000
      48.4000       0.00000
      48.5000       0.00000
      48.6000       0.00000
      48.7000       0.00000
      48.8000       0.00000
      48.9000       0.00000
      49.0000       0.00000
      49.1000       0.00000
      49.2000       0.00000
      49.3000       0.00000
      49.4000       0.00000
      49.5000       0.00000
      49.6000       0.00000
      49.7000       0.00000
      49.8000       0.00000
      49.9000       0.00000
      50.0000       0.00000
      50.1000       0.00000
      50.2000       0.00000
      50.3000       0.00000
      50.4000       0.00000
      50.5000       0.00000
      50.6000       0.00000
      50.7000       0.00000
      50.8000       0.00000
      50.9000       0.00000
      51.0000       0.00000
      51.1000       0.00000
      51.2000       0.00000
      51.3000       0.00000
      51.4000       0.00000
      51.5000       0.00000
      51.6000       0.00000
      51.7000       0.00000
      51.8000       0.00000
      51.9000       0.00000
      52.0000       0.00000
      52.1000       0.00000
      52.2000       0.00000
      52.3000       0.00000
      52.4000       0.00000
      52.5000       0.00000
      52.6000       0.00000
      52.7000       0.00000
      52.8000       0.00000
      52.9000       0.00000
      53.0000       0.00000
      53.1000       0.00000
      53.2000       0.00000
      53.3000       0.00000
      53.4000       0.00000
      53.5000       0.00000
      53.6000       0.00000
      53.7000       0.00000
      53.8000       0.00000
      53.9000       0.00000
      54.0000       0.00000
      54.1000       0.00000
      54.2000       0.00000
      54.3000       0.00000
      54.4000       0.00000
      54.5000       0.00000
      54.6000       0.00000
      54.7000       0.00000
      54.8000       0.00000
      54.9000       0.00000
      55.0000       0.00000
      55.1000       0.00000
      55.2000       0.00000
      55.3000       0.00000
      55.4000       0.00000
      55.5000       0.00000
      55.6000       0.00000
      55.7000       0.00000
      55.8000       0.00000
      55.9000       0.00000
      56.0000       0.00000
      56.1000       0.00000
      56.2000       0.00000
      56.3000       0.00000
      56.4000       0.00000
      56.5000       0.00000
      56.6000       0.00000
      56.7000       0.00000
      56.8000       0.00000
      56.9000       0.00000
      57.0000       0.00000
      57.1000       0.00000
      57.2000       0.00000
      57.3000       0.00000
      57.4000       0.00000
      57.5000       0.00000
      57.6000       0.00000
      57.7000       0.00000
      57.8000       0.00000
      57.9000       0.00000
      58.0000       0.00000
      58.1000       0.00000
      58.2000       0.00000
      58.3000       0.00000
      58.4000       0.00000
      58.5000       0.00000
      58.6000       0.00000
      58.7000       0.00000
      58.8000       0.00000
      58.9000       0.00000
      59.0000       0.00000
      59.1000       0.00000
      59.2000       0.00000
      59.3000       0.00000
      59.4000       0.00000
      59.5000       0.00000
      59.6000       0.00000
      59.7000       0.00000
      59.8000       0.00000
      59.9000       0.00000
      60.0000       0.00000
      60.1000       0.00000
      60.2000       0.00000
      60.3000       0.00000
      60.4000       0.00000
      60.5000       0.00000
      60.6000       0.00000
      60.7000       0.00000
      60.8000       0.00000
      60.9000       0.00000
      61.0000       0.00000
      61.1000       0.00000
      61.2000       0.00000
      61.3000       0.00000
      61.4000       0.00000
      61.5000       0.00000
      61.6000       0.00000
      61.7000       0.00000
      61.8000       0.00000
      61.9000       0.00000
      62.0000       0.00000
      62.1000       0.00000
      62.2000       0.00000
      62.3000       0.00000
      62.4000       0.00000
      62.5000       0.00000
      62.6000       0.00000
      62.7000       0.00000
      62.8000       0.00000
      62.9000       0.00000
      63.0000       0.00000
      63.1000       0.00000
      63.2000       0.00000
      63.3000       0.00000
      63.4000       0.00000
      63.5000       0.00000
      63.6000       0.00000
      63.7000       0.00000
      63.8000       0.00000
      63.9000       0.00000
      64.0000       0.00000
      64.1000       0.00000
      64.2000       0.00000
      64.3000       0.00000
      64.4000       0.00000
      64.5000       0.00000
      64.6000       0.00000
      64.7000       0.00000
      64.8000       0.00000
      64.9000       0.00000
      65.0000       0.00000
      65.1000       0.00000
      65.2000       0.00000
      65.3000       0.00000
      65.4000       0.00000
      65.5000       0.00000
      65.6000       0.00000
      65.7000       0.00000
      65.8000       0.00000
      65.9000       0.00000
      66.0000       0.00000
      66.1000       0.00000
      66.2000       0.00000
      66.3000       0.00000
      66.4000       0.00000
      66.5000       0.00000
      66.6000       0.00000
      66.7000       0.00000
      66.8000       0.00000
      66.9000       0.00000
      67.0000       0.00000
      67.1000       0.00000
      67.2000       0.00000
      67.3000       0.00000
      67.4000       0.00000
      67.5000       0.00000
      67.6000       0.00000
      67.7000       0.00000
      67.8000       0.00000
      67.9000       0.00000
      68.0000       0.00000
      68.1000       0.00000
      68.2000       0.00000
      68.3000       0.00000
      68.4000       0.00000
      68.5000       0.00000
      68.6000       0.00000
      68.7000       0.00000
      68.8000       0.00000
      68.9000       0.00000
      69.0000       0.00000
      69.1000       0.00000
      69.2000       0.00000
      69.3000       0.00000
      69.4000       0.00000
      69.5000       0.00000
      69.6000       0.00000
      69.7000       0.00000
      69.8000       0.00000
      69.9000       0.00000
      70.0000       0.00000
      70.1000       0.00000
      70.2000       0.00000
      70.3000       0.00000
      70.4000       0.00000
      70.5000       0.00000
      70.6000       0.00000
      70.7000       0.00000
      70.8000       0.00000
      70.9000       0.00000
      71.0000       0.00000
      71.1000       0.00000
      71.2000       0.00000
      71.3000       0.00000
      71.4000       0.00000
      71.5000       0.00000
      71.6000       0.00000
      71.7000       0.00000
      71.8000       0.00000
      71.9000       0.00000
      72.0000       0.00000
      72.1000       0.00000
      72.2000       0.00000
      72.3000       0.00000
      72.4000       0.00000
      72.5000       0.00000
      72.6000       0.00000
      72.7000       0.00000
      72.8000       0.00000
      72.9000       0.00000
      73.0000       0.00000
      73.1000       0.00000
      73.2000       0.00000
      73.3000       0.00000
      73.4000       0.00000
      73.5000       0.00000
      73.6000       0.00000
      73.7000       0.00000
      73.8000       0.00000
      73.9000       0.00000
      74.0000       0.00000
      74.1000       0.00000
      74.2000       0.00000
      74.3000       0.00000
      74.4000       0.00000
      74.5000       0.00000
      74.6000       0.00000
      74.7000       0.00000
      74.8000       0.00000
      74.9000       0.00000
      75.0000       0.00000
      75.1000       0.00000
      75.2000       0.00000
      75.3000       0.00000
      75.4000       0.00000
      75.5000       0.00000
      75.6000       0.00000
      75.7000       0.00000
      75.8000       0.00000
      75.9000       0.00000
      76.0000       0.00000
      76.1000       0.00000
      76.2000       0.00000
      76.3000       0.00000
      76.4000       0.00000
      76.5000       0.00000
      76.6000       0.00000
      76.7000       0.00000
      76.8000       0.00000
      76.9000       0.00000
      77.0000       0.00000
      77.1000       0.00000
      77.2000       0.00000
      77.3000       0.00000
      77.4000       0.00000
      77.5000       0.00000
      77.6000       0.00000
      77.7000       0.00000
      77.8000       0.00000
      77.9000       0.00000
      78.0000       0.00000
      78.1000       0.00000
      78.2000       0.00000
      78.3000       0.00000
      78.4000       0.00000
      78.5000       0.00000
      78.6000       0.00000
      78.7000       0.00000
      78.8000       0.00000
      78.9000       0.00000
      79.0000       0.00000
      79.1000       0.00000
      79.2000       0.00000
      79.3000       0.00000
      79.4000       0.00000
      79.5000       0.00000
      79.6000       0.00000
      79.7000       0.00000
      79.8000       0.00000
      79.9000       0.00000
      80.0000       0.00000
      80.1000       0.00000
      80.2000       0.00000
      80.3000       0.00000
      80.4000       0.00000
      80.5000       0.00000
      80.6000       0.00000
      80.7000       0.00000
      80.8000       0.00000
      80.9000       0.00000
      81.0000       0.00000
      81.1000       0.00000
      81.2000       0.00000
      81.3000       0.00000
      81.4000       0.00000
      81.5000       0.00000
      81.6000       0.00000
      81.7000       0.00000
      81.8000       0.00000
      81.9000       0.00000
      82.0000       0.00000
      82.1000       0.00000
      82.2000       0.00000
      82.3000       0.00000
      82.4000       0.00000
      82.5000       0.00000
      82.6000       0.00000
      82.7000       0.00000
      82.8000       0.00000
      82.9000       0.00000
      83.0000       0.00000
      83.1000       0.00000
      83.2000       0.00000
      83.3000       0.00000
      83.4000       0.00000
      83.5000       0.00000
      83.6000       0.00000
      83.7000       0.00000
      83.8000       0.00000
      83.9000       0.00000
      84.0000       0.00000
      84.1000       0.00000
      84.2000       0.00000
      84.3000       0.00000
      84.4000       0.00000
      84.5000       0.00000
      84.6000       0.00000
      84.7000       0.00000
      84.8000       0.00000
      84.9000       0.00000
      85.0000       0.00000
      85.1000       0.00000
      85.2000       0.00000
      85.3000       0.00000
      85.4000       0.00000
      85.5000       0.00000
      85.6000       0.00000
      85.7000       0.00000
      85.8000       0.00000
      85.9000       0.00000
      86.0000       0.00000
      86.1000       0.00000
      86.2000       0.00000
      86.3000       0.00000
      86.4000       0.00000
      86.5000       0.00000
      86.6000       0.00000
      86.7000       0.00000
      86.8000       0.00000
      86.9000       0.00000
      87.0000       0.00000
      87.1000       0.00000
      87.2000       0.00000
      87.3000       0.00000
      87.4000       0.00000
      87.5000       0.00000
      87.6000       0.00000
      87.7000       0.00000
      87.8000       0.00000
      87.9000       0.00000
      88.0000       0.00000
      88.1000       0.00000
      88.2000       0.00000
      88.3000       0.00000
      88.4000       0.00000
      88.5000       0.00000
      88.6000       0.00000
      88.7000       0.00000
      88.8000       0.00000
      88.9000       0.00000
      89.0000       0.00000
      89.1000       0.00000
      89.2000       0.00000
      89.3000       0.00000
      89.4000       0.00000
      89.5000       0.00000
      89.6000       0.00000
      89.7000       0.00000
      89.8000       0.00000
      89.9000       0.00000
      90.0000       0.00000
      90.1000       0.00000
      90.2000       0.00000
      90.3000       0.00000
      90.4000       0.00000
      90.5000       0.00000
      90.6000       0.00000
      90.7000       0.00000
      90.8000       0.00000
      90.9000       0.00000
      91.0000       0.00000
      91.1000       0.00000
      91.2000       0.00000
      91.3000       0.00000
      91.4000       0.00000
      91.5000       0.00000
      91.6000       0.00000
      91.7000       0.00000
      91.8000       0.00000
      91.9000       0.00000
      92.0000       0.00000
      92.1000       0.00000
      92.2000       0.00000
      92.3000       0.00000
      92.4000       0.00000
      92.5000       0.00000
      92.6000       0.00000
      92.7000       0.00000
      92.8000       0.00000
      92.9000       0.00000
      93.0000       0.00000
      93.1000       0.00000
      93.2000       0.00000
      93.3000       0.00000
      93.4000       0.00000
      93.5000       0.00000
      93.6000       0.00000
      93.7000       0.00000
      93.8000       0.00000
      93.9000       0.00000
      94.0000       0.00000
      94.1000       0.00000
      94.2000       0.00000
      94.3000       0.00000
      94.4000       0.00000
      94.5000       0.00000
      94.6000       0.00000
      94.7000       0.00000
      94.8000       0.00000
      94.9000       0.00000
      95.0000       0.00000
      95.1000       0.00000
      95.2000       0.00000
      95.3000       0.00000
      95.4000       0.00000
      95.5000       0.00000
      95.6000       0.00000
      95.7000       0.00000
      95.8000       0.00000
      95.9000       0.00000
      96.0000       0.00000
      96.1000       0.00000
      96.2000       0.00000
      96.3000       0.00000
      96.4000       0.00000
      96.5000       0.00000
      96.6000       0.00000
      96.7000       0.00000
      96.8000       0.00000
      96.9000       0.00000
      97.0000       0.00000
      97.1000       0.00000
      97.2000       0.00000
      97.3000       0.00000
      97.4000       0.00000
      97.5000       0.00000
      97.6000       0.00000
      97.7000       0.00000
      97.8000       0.00000
      97.9000       0.00000
      98.0000       0.00000
      98.1000       0.00000
      98.2000       0.00000
      98.3000       0.00000
      98.4000       0.00000
      98.5000       0.00000
      98.6000       0.00000
      98.7000       0.00000
      98.8000       0.00000
      98.9000       0.00000
      99.0000       0.00000
      99.1000       0.00000
      99.2000       0.00000
      99.3000       0.00000
      99.4000       0.00000
      99.5000       0.00000
      99.6000       0.00000
      99.7000       0.00000
      99.8000       0.00000
      99.9000       0.00000
      100.000       0.00000
      100.100       0.00000
      100.200       0.00000
      100.300       0.00000
      100.400       0.00000
      100.500       0.00000
      100.600       0.00000
      100.700       0.00000
      100.800       0.00000
      100.900       0.00000
      101.000       0.00000
      101.100       0.00000
      101.200       0.00000
      101.300       0.00000
      101.400       0.00000
      101.500       0.00000
      101.600       0.00000
      101.700       0.00000
      101.800       0.00000
      101.900       0.00000
      102.000       0.00000
      102.100       0.00000
      102.200       0.00000
      102.300       0.00000
      102.400       0.00000
      102.500       0.00000
      102.600       0.00000
      102.700       0.00000
      102.800       0.00000
      102.900       0.00000
      103.000       0.00000
      103.100       0.00000
      103.200       0.00000
      103.300       0.00000
      103.400       0.00000
      103.500       0.00000
      103.600       0.00000
      103.700       0.00000
      103.800       0.00000
      103.900       0.00000
      104.000       0.00000
      104.100       0.00000
      104.200       0.00000
      104.300       0.00000
      104.400       0.00000
      104.500       0.00000
      104.600       0.00000
      104.700       0.00000
      104.800       0.00000
      104.900       0.00000
      105.000       0.00000
      105.100       0.00000
      105.200       0.00000
      105.300       0.00000
      105.400       0.00000
      105.500       0.00000
      105.600       0.00000
      105.700       0.00000
      105.800       0.00000
      105.900       0.00000
      106.000       0.00000
      106.100       0.00000
      106.200       0.00000
      106.300       0.00000
      106.400       0.00000
      106.500       0.00000
      106.600       0.00000
      106.700       0.00000
      106.800       0.00000
      106.900       0.00000
      107.000       0.00000
      107.100       0.00000
      107.200       0.00000
      107.300       0.00000
      107.400       0.00000
      107.500       0.00000
      107.600       0.00000
      107.700       0.00000
      107.800       0.00000
      107.900       0.00000
      108.000       0.00000
      108.100       0.00000
      108.200       0.00000
      108.300       0.00000
      108.400       0.00000
      108.500       0.00000
      108.600       0.00000
      108.700       0.00000
      108.800       0.00000
      108.900       0.00000
      109.000       0.00000
      109.100       0.00000
      109.200       0.00000
      109.300       0.00000
      109.400       0.00000
      109.500       0.00000
      109.600       0.00000
      109.700       0.00000
      109.800       0.00000
      109.900       0.00000
      110.000       0.00000
      110.100       0.00000
      110.200       0.00000
      110.300       0.00000
      110.400       0.00000
      110.500       0.00000
      110.600       0.00000
      110.700       0.00000
      110.800       0.00000
      110.900   4.44940e-35
      111.000   2.38746e-28
      111.100   2.81855e-24
      111.200   3.91324e-23
      111.300   1.97293e-22
      111.400   6.51969e-22
      111.500   8.64172e-22
      111.600   1.17135e-21
      111.700   2.16161e-21
      111.800   3.92049e-21
      111.900   5.12745e-21
      112.000   8.24193e-21
      112.100   1.47644e-20
      112.200   2.24977e-20
      112.300   2.88970e-20
      112.400   3.61380e-20
      112.500   4.80346e-20
      112.600   6.82477e-20
      112.700   9.27939e-20
      112.800   1.07181e-19
      112.900   1.38947e-19
      113.000   1.77757e-19
      113.100   2.12914e-19
      113.200   2.44680e-19
      113.300   2.49044e-19
      113.400   3.11518e-19
      113.500   3.85486e-19
      113.600   3.97609e-19
      113.700   4.78824e-19
      113.800   5.45012e-19
      113.900   6.06762e-19
      114.000   6.46409e-19
      114.100   6.74574e-19
      114.200   8.68295e-19
      114.300   9.98531e-19
      114.400   9.69359e-19
      114.500   8.88249e-19
      114.600   8.86036e-19
      114.700   9.01082e-19
      114.800   9.40209e-19
      114.900   1.03882e-18
      115.000   1.14082e-18
      115.100   1.20843e-18
      115.200   1.22685e-18
      115.300   1.24667e-18
      115.400   1.26567e-18
      115.500   1.28548e-18
      115.600   1.30508e-18
      115.700   1.32418e-18
      115.800   1.34453e-18
      115.900   1.36463e-18
      116.000   1.38154e-18
      116.100   1.38860e-18
      116.200   1.39420e-18
      116.300   1.39947e-18
      116.400   1.39906e-18
      116.500   1.36876e-18
      116.600   1.33880e-18
      116.700   1.30974e-18
      116.800   1.28102e-18
      116.900   1.25176e-18
      117.000   1.22445e-18
      117.100   1.20134e-18
      117.200   1.18116e-18
      117.300   1.15892e-18
      117.400   1.13692e-18
      117.500   1.11007e-18
      117.600   1.07188e-18
      117.700   1.03159e-18
      117.800   9.92162e-19
      117.900   9.53905e-19
      118.000   9.16529e-19
      118.100   8.80100e-19
      118.200   8.45532e-19
      118.300   8.12477e-19
      118.400   7.78846e-19
      118.500   7.46738e-19
      118.600   7.16711e-19
      118.700   6.87609e-19
      118.800   6.59318e-19
      118.900   6.32407e-19
      119.000   6.05773e-19
      119.100   5.79359e-19
      119.200   5.59486e-19
      119.300   5.48863e-19
      119.400   5.40845e-19
      119.500   5.30613e-19
      119.600   5.16564e-19
      119.700   5.01285e-19
      119.800   4.85410e-19
      119.900   4.68679e-19
      120.000   4.52896e-19
      120.100   4.37937e-19
      120.200   4.24982e-19
      120.300   4.13265e-19
      120.400   4.01853e-19
      120.500   3.89585e-19
      120.600   3.76809e-19
      120.700   3.64155e-19
      120.800   3.52071e-19
      120.900   3.41754e-19
      121.000   3.33845e-19
      121.100   3.26260e-19
      121.200   3.19385e-19
      121.300   3.12003e-19
      121.400   3.04250e-19
      121.500   2.96188e-19
      121.600   2.83562e-19
      121.700   2.71187e-19
      121.800   2.58818e-19
      121.900   2.46904e-19
      122.000   2.35177e-19
      122.100   2.24184e-19
      122.200   2.13699e-19
      122.300   2.04677e-19
      122.400   1.97084e-19
      122.500   1.89986e-19
      122.600   1.83011e-19
      122.700   1.76279e-19
      122.800   1.69577e-19
      122.900   1.63241e-19
      123.000   1.58170e-19
      123.100   1.55056e-19
      123.200   1.52889e-19
      123.300   1.54052e-19
      123.400   1.55893e-19
      123.500   1.58695e-19
      123.600   1.60656e-19
      123.700   1.59421e-19
      123.800   1.55531e-19
      123.900   1.52164e-19
      124.000   1.49543e-19
      124.100   1.49294e-19
      124.200   1.54575e-19
      124.300   1.64187e-19
      124.400   1.72853e-19
      124.500   1.72520e-19
      124.600   1.67831e-19
      124.700   1.61288e-19
      124.800   1.55039e-19
      124.900   1.49027e-19
      125.000   1.43239e-19
      125.100   1.37627e-19
      125.200   1.32227e-19
      125.300   1.27034e-19
      125.400   1.22045e-19
      125.500   1.17251e-19
      125.600   1.11340e-19
      125.700   1.05431e-19
      125.800   1.00544e-19
      125.900   9.87131e-20
      126.000   9.71187e-20
      126.100   9.55505e-20
      126.200   9.40077e-20
      126.300   9.24902e-20
      126.400   9.09968e-20
      126.500   8.95272e-20
      126.600   8.80823e-20
      126.700   8.66608e-20
      126.800   8.52629e-20
      126.900   8.38869e-20
      127.000   8.25310e-20
      127.100   8.07468e-20
      127.200   7.84819e-20
      127.300   7.61083e-20
      127.400   7.38056e-20
      127.500   7.15718e-20
      127.600   6.94052e-20
      127.700   6.73036e-20
      127.800   6.52651e-20
      127.900   6.32873e-20
      128.000   6.13691e-20
      128.100   5.95080e-20
      128.200   5.77027e-20
      128.300   5.59515e-20
      128.400   5.42534e-20
      128.500   5.26059e-20
      128.600   5.10085e-20
      128.700   4.94593e-20
      128.800   4.79562e-20
      128.900   4.64995e-20
      129.000   4.50875e-20
      129.100   4.37175e-20
      129.200   4.23858e-20
      129.300   4.10940e-20
      129.400   3.98415e-20
      129.500   3.86269e-20
      129.600   3.74492e-20
      129.700   3.63070e-20
      129.800   3.51993e-20
      129.900   3.41254e-20
      130.000   3.30842e-20
      130.100   3.20746e-20
      130.200   3.10954e-20
      130.300   3.01463e-20
      130.400   2.92259e-20
      130.500   2.83328e-20
      130.600   2.74640e-20
      130.700   2.66205e-20
      130.800   2.58026e-20
      130.900   2.50106e-20
      131.000   2.42430e-20
      131.100   2.34990e-20
      131.200   2.27776e-20
      131.300   2.20774e-20
      131.400   2.13987e-20
      131.500   2.07406e-20
      131.600   2.01026e-20
      131.700   1.94841e-20
      131.800   1.88842e-20
      131.900   1.83025e-20
      132.000   1.77386e-20
      132.100   1.71918e-20
      132.200   1.66617e-20
      132.300   1.61477e-20
      132.400   1.56493e-20
      132.500   1.51668e-20
      132.600   1.46994e-20
      132.700   1.42192e-20
      132.800   1.37454e-20
      132.900   1.32858e-20
      133.000   1.28413e-20
      133.100   1.24116e-20
      133.200   1.19961e-20
      133.300   1.15941e-20
      133.400   1.12055e-20
      133.500   1.08297e-20
      133.600   1.04664e-20
      133.700   1.01151e-20
      133.800   9.77548e-21
      133.900   9.44813e-21
      134.000   9.13164e-21
      134.100   8.82558e-21
      134.200   8.52976e-21
      134.300   8.24367e-21
      134.400   7.96709e-21
      134.500   7.69976e-21
      134.600   7.44124e-21
      134.700   7.19131e-21
      134.800   6.94973e-21
      134.900   6.71631e-21
      135.000   6.49059e-21
      135.100   6.27293e-21
      135.200   6.06259e-21
      135.300   5.85924e-21
      135.400   5.66261e-21
      135.500   5.47229e-21
      135.600   5.28816e-21
      135.700   5.11013e-21
      135.800   4.93797e-21
      135.900   4.77156e-21
      136.000   4.61061e-21
      136.100   4.45499e-21
      136.200   4.30497e-21
      136.300   4.15998e-21
      136.400   4.01984e-21
      136.500   3.88433e-21
      136.600   3.75327e-21
      136.700   3.62656e-21
      136.800   3.50406e-21
      136.900   3.38565e-21
      137.000   3.27125e-21
      137.100   3.16082e-21
      137.200   3.05423e-21
      137.300   2.95143e-21
      137.400   2.85204e-21
      137.500   2.75591e-21
      137.600   2.66293e-21
      137.700   2.57299e-21
      137.800   2.48602e-21
      137.900   2.40192e-21
      138.000   2.32063e-21
      138.100   2.24203e-21
      138.200   2.16632e-21
      138.300   2.09316e-21
      138.400   2.02246e-21
      138.500   1.95409e-21
      138.600   1.88798e-21
      138.700   1.82408e-21
      138.800   1.76231e-21
      138.900   1.70257e-21
      139.000   1.64483e-21
      139.100   1.58918e-21
      139.200   1.53573e-21
      139.300   1.48431e-21
      139.400   1.43468e-21
      139.500   1.38667e-21
      139.600   1.34021e-21
      139.700   1.29529e-21
      139.800   1.25185e-21
      139.900   1.20983e-21
      140.000   1.16936e-21
      140.100   1.13022e-21
      140.200   1.09236e-21
      140.300   1.05575e-21
      140.400   1.02033e-21
      140.500   9.86064e-22
      140.600   9.52916e-22
      140.700   9.20858e-22
      140.800   8.89976e-22
      140.900   8.60138e-22
      141.000   8.31266e-22
      141.100   8.03343e-22
      141.200   7.76338e-22
      141.300   7.50212e-22
      141.400   7.25023e-22
      141.500   7.01054e-22
      141.600   6.78187e-22
      141.700   6.56075e-22
      141.800   6.34669e-22
      141.900   6.13941e-22
      142.000   5.93872e-22
      142.100   5.74664e-22
      142.200   5.56709e-22
      142.300   5.39851e-22
      142.400   5.23566e-22
      142.500   5.07753e-22
      142.600   4.92400e-22
      142.700   4.77497e-22
      142.800   4.63033e-22
      142.900   4.48996e-22
      143.000   4.35369e-22
      143.100   4.22188e-22
      143.200   4.09418e-22
      143.300   3.97019e-22
      143.400   3.84988e-22
      143.500   3.73309e-22
      143.600   3.61973e-22
      143.700   3.51047e-22
      143.800   3.41511e-22
      143.900   3.32428e-22
      144.000   3.23596e-22
      144.100   3.14990e-22
      144.200   3.06608e-22
      144.300   2.98439e-22
      144.400   2.90511e-22
      144.500   2.83234e-22
      144.600   2.76276e-22
      144.700   2.69497e-22
      144.800   2.62875e-22
      144.900   2.56408e-22
      145.000   2.50090e-22
      145.100   2.43923e-22
      145.200   2.37919e-22
      145.300   2.32064e-22
      145.400   2.26344e-22
      145.500   2.20756e-22
      145.600   2.15298e-22
      145.700   2.09967e-22
      145.800   2.04768e-22
      145.900   1.99711e-22
      146.000   1.94766e-22
      146.100   1.89882e-22
      146.200   1.85076e-22
      146.300   1.80384e-22
      146.400   1.75803e-22
      146.500   1.71354e-22
      146.600   1.67014e-22
      146.700   1.62777e-22
      146.800   1.58632e-22
      146.900   1.54573e-22
      147.000   1.50613e-22
      147.100   1.46758e-22
      147.200   1.43007e-22
      147.300   1.39346e-22
      147.400   1.35775e-22
      147.500   1.32290e-22
      147.600   1.28889e-22
      147.700   1.25579e-22
      147.800   1.22360e-22
      147.900   1.19218e-22
      148.000   1.16153e-22
      148.100   1.13162e-22
      148.200   1.10246e-22
      148.300   1.07406e-22
      148.400   1.05073e-22
      148.500   1.03120e-22
      148.600   1.01315e-22
      148.700   9.95393e-23
      148.800   9.77922e-23
      148.900   9.60783e-23
      149.000   9.43955e-23
      149.100   9.27400e-23
      149.200   9.11115e-23
      149.300   8.95094e-23
      149.400   8.79335e-23
      149.500   8.63879e-23
      149.600   8.48687e-23
      149.700   8.33743e-23
      149.800   8.19044e-23
      149.900   8.04592e-23
      150.000   7.90378e-23
      150.100   7.76432e-23
      150.200   7.62713e-23
      150.300   7.49240e-23
      150.400   7.35990e-23
      150.500   7.22964e-23
      150.600   7.10156e-23
      150.700   6.97562e-23
      150.800   6.85191e-23
      150.900   6.73044e-23
      151.000   6.61086e-23
      151.100   6.49341e-23
      151.200   6.37791e-23
      151.300   6.26434e-23
      151.400   6.15271e-23
      151.500   6.04319e-23
      151.600   5.93554e-23
      151.700   5.82984e-23
      151.800   5.72593e-23
      151.900   5.62373e-23
      152.000   5.52899e-23
      152.100   5.49391e-23
      152.200   5.46645e-23
      152.300   5.43893e-23
      152.400   5.41147e-23
      152.500   5.38418e-23
      152.600   5.35696e-23
      152.700   5.27306e-23
      152.800   5.17020e-23
      152.900   5.06920e-23
      153.000   4.97010e-23
      153.100   4.87290e-23
      153.200   4.77748e-23
      153.300   4.70054e-23
      153.400   4.64079e-23
      153.500   4.58352e-23
      153.600   4.52701e-23
      153.700   4.47124e-23
      153.800   4.41605e-23
      153.900   4.36151e-23
      154.000   4.30817e-23
      154.100   4.25657e-23
      154.200   4.20589e-23
      154.300   4.15578e-23
      154.400   4.10634e-23
      154.500   4.05740e-23
      154.600   4.00902e-23
      154.700   3.96124e-23
      154.800   3.91401e-23
      154.900   3.86728e-23
      155.000   3.82106e-23
      155.100   3.77541e-23
      155.200   3.73023e-23
      155.300   3.68559e-23
      155.400   3.64147e-23
      155.500   3.59786e-23
      155.600   3.55468e-23
      155.700   3.51198e-23
      155.800   3.46980e-23
      155.900   3.42805e-23
      156.000   3.38681e-23
      156.100   3.34601e-23
      156.200   3.30569e-23
      156.300   3.26582e-23
      156.400   3.22637e-23
      156.500   3.18723e-23
      156.600   3.14783e-23
      156.700   3.10885e-23
      156.800   3.07030e-23
      156.900   3.03221e-23
      157.000   2.99463e-23
      157.100   2.95480e-23
      157.200   2.89730e-23
      157.300   2.82154e-23
      157.400   2.74775e-23
      157.500   2.67579e-23
      157.600   2.60569e-23
      157.700   2.53735e-23
      157.800   2.47077e-23
      157.900   2.44214e-23
      158.000   2.41706e-23
      158.100   2.39226e-23
      158.200   2.36767e-23
      158.300   2.34330e-23
      158.400   2.31919e-23
      158.500   2.29530e-23
      158.600   2.27162e-23
      158.700   2.24814e-23
      158.800   2.22493e-23
      158.900   2.20193e-23
      159.000   2.17915e-23
      159.100   2.15561e-23
      159.200   2.12062e-23
      159.300   2.06716e-23
      159.400   2.01502e-23
      159.500   1.96418e-23
      159.600   1.91457e-23
      159.700   1.86622e-23
      159.800   1.81903e-23
      159.900   1.79381e-23
      160.000   1.78318e-23
      160.100   1.77305e-23
      160.200   1.76296e-23
      160.300   1.75292e-23
      160.400   1.74295e-23
      160.500   1.73068e-23
      160.600   1.70525e-23
      160.700   1.67048e-23
      160.800   1.63639e-23
      160.900   1.60296e-23
      161.000   1.57021e-23
      161.100   1.53810e-23
      161.200   1.50667e-23
      161.300   1.47586e-23
      161.400   1.44566e-23
      161.500   1.41609e-23
      161.600   1.38708e-23
      161.700   1.35864e-23
      161.800   1.33076e-23
      161.900   1.30393e-23
      162.000   1.28172e-23
      162.100   1.26233e-23
      162.200   1.24322e-23
      162.300   1.22439e-23
      162.400   1.20584e-23
      162.500   1.18755e-23
      162.600   1.16954e-23
      162.700   1.15177e-23
      162.800   1.13427e-23
      162.900   1.11703e-23
      163.000   1.10004e-23
      163.100   1.08330e-23
      163.200   1.06679e-23
      163.300   1.05052e-23
      163.400   1.03449e-23
      163.500   1.01870e-23
      163.600   1.00314e-23
      163.700   9.87793e-24
      163.800   9.72691e-24
      163.900   9.57804e-24
      164.000   9.43130e-24
      164.100   9.25703e-24
      164.200   9.00641e-24
      164.300   8.76286e-24
      164.400   8.52582e-24
      164.500   8.29514e-24
      164.600   8.07064e-24
      164.700   7.85202e-24
      164.800   7.66364e-24
      164.900   7.53292e-24
      165.000   7.42578e-24
      165.100   7.32008e-24
      165.200   7.21584e-24
      165.300   7.11304e-24
      165.400   7.01175e-24
      165.500   6.91182e-24
      165.600   6.75001e-24
      165.700   6.56484e-24
      165.800   6.38267e-24
      165.900   6.20551e-24
      166.000   6.03348e-24
      166.100   5.86612e-24
      166.200   5.70338e-24
      166.300   5.54513e-24
      166.400   5.39122e-24
      166.500   5.24146e-24
      166.600   5.09583e-24
      166.700   4.95422e-24
      166.800   4.81643e-24
      166.900   4.68245e-24
      167.000   4.55224e-24
      167.100   4.42551e-24
      167.200   4.30225e-24
      167.300   4.18239e-24
      167.400   4.06585e-24
      167.500   3.95249e-24
      167.600   3.84224e-24
      167.700   3.73505e-24
      167.800   3.63081e-24
      167.900   3.52943e-24
      168.000   3.43083e-24
      168.100   3.33494e-24
      168.200   3.24170e-24
      168.300   3.15102e-24
      168.400   3.06286e-24
      168.500   2.97788e-24
      168.600   2.91256e-24
      168.700   2.85774e-24
      168.800   2.80394e-24
      168.900   2.75114e-24
      169.000   2.69933e-24
      169.100   2.64842e-24
      169.200   2.59850e-24
      169.300   2.54948e-24
      169.400   2.50137e-24
      169.500   2.45399e-24
      169.600   2.40692e-24
      169.700   2.36010e-24
      169.800   2.31399e-24
      169.900   2.26873e-24
      170.000   2.22431e-24
      170.100   2.16072e-24
      170.200   2.07000e-24
      170.300   2.61125e-24
      170.400   5.43500e-24
      170.500   1.00244e-23
      170.600   1.43488e-23
      170.700   1.75113e-23
      170.800   1.86161e-23
      170.900   1.82674e-23
      171.000   1.76815e-23
      171.100   1.71332e-23
      171.200   1.66009e-23
      171.300   1.60840e-23
      171.400   1.55823e-23
      171.500   1.50953e-23
      171.600   1.46225e-23
      171.700   1.41641e-23
      171.800   1.37193e-23
      171.900   1.32881e-23
      172.000   1.28702e-23
      172.100   1.24653e-23
      172.200   1.20730e-23
      172.300   1.16928e-23
      172.400   1.13221e-23
      172.500   1.09628e-23
      172.600   1.06151e-23
      172.700   1.02786e-23
      172.800   9.95279e-24
      172.900   9.63735e-24
      173.000   9.33221e-24
      173.100   9.03691e-24
      173.200   8.75098e-24
      173.300   8.47430e-24
      173.400   8.20636e-24
      173.500   7.94713e-24
      173.600   7.69628e-24
      173.700   7.45335e-24
      173.800   7.21832e-24
      173.900   6.99085e-24
      174.000   6.77053e-24
      174.100   6.55730e-24
      174.200   6.35088e-24
      174.300   6.15094e-24
      174.400   5.95739e-24
      174.500   5.76989e-24
      174.600   5.58829e-24
      174.700   5.41247e-24
      174.800   5.24221e-24
      174.900   5.07724e-24
      175.000   4.91739e-24
      175.100   4.76254e-24
      175.200   4.61275e-24
      175.300   4.46758e-24
      175.400   4.32693e-24
      175.500   4.19076e-24
      175.600   4.05878e-24
      175.700   3.93097e-24
      175.800   3.80711e-24
      175.900   3.68713e-24
      176.000   3.57090e-24
      176.100   3.45835e-24
      176.200   3.34932e-24
      176.300   3.24368e-24
      176.400   3.14138e-24
      176.500   3.04201e-24
      176.600   2.90058e-24
      176.700   2.74463e-24
      176.800   2.59698e-24
      176.900   2.45722e-24
      177.000   2.32489e-24
      177.100   2.19960e-24
      177.200   2.08105e-24
      177.300   1.96881e-24
      177.400   1.86253e-24
      177.500   1.76191e-24
      177.600   1.66669e-24
      177.700   1.57658e-24
      177.800   1.49129e-24
      177.900   1.41052e-24
      178.000   1.33419e-24
      178.100   1.26195e-24
      178.200   1.19356e-24
      178.300   1.12883e-24
      178.400   1.06760e-24
      178.500   1.00965e-24
      178.600   9.55937e-25
      178.700   9.11173e-25
      178.800   8.77969e-25
      178.900   8.45963e-25
      179.000   8.15105e-25
      179.100   7.85354e-25
      179.200   7.56687e-25
      179.300   7.29058e-25
      179.400   7.02421e-25
      179.500   6.76769e-25
      179.600   6.52064e-25
      179.700   6.28257e-25
      179.800   6.05312e-25
      179.900   5.83203e-25
      180.000   5.61892e-25
      180.100   5.41363e-25
      180.200   5.21590e-25
      180.300   5.02534e-25
      180.400   4.84175e-25
      180.500   4.66491e-25
      180.600   4.49450e-25
      180.700   4.33033e-25
      180.800   4.17219e-25
      180.900   4.01982e-25
      181.000   3.87298e-25
      181.100   3.73154e-25
      181.200   3.59530e-25
      181.300   3.46403e-25
      181.400   3.33760e-25
      181.500   3.21577e-25
      181.600   3.09839e-25
      181.700   2.98531e-25
      181.800   2.87635e-25
      181.900   2.77138e-25
      182.000   2.67030e-25
      182.100   2.57287e-25
      182.200   2.47991e-25
      182.300   2.39760e-25
      182.400   2.31854e-25
      182.500   2.24206e-25
      182.600   2.16812e-25
      182.700   2.09660e-25
      182.800   2.02744e-25
      182.900   1.96055e-25
      183.000   1.89587e-25
      183.100   1.83334e-25
      183.200   1.77285e-25
      183.300   1.71433e-25
      183.400   1.65774e-25
      183.500   1.60301e-25
      183.600   1.55009e-25
      183.700   1.49889e-25
      183.800   1.44941e-25
      183.900   1.40157e-25
      184.000   1.35528e-25
      184.100   1.31057e-25
      184.200   1.26735e-25
      184.300   1.22556e-25
      184.400   1.18515e-25
      184.500   1.14607e-25
      184.600   1.10826e-25
      184.700   1.07170e-25
      184.800   1.03635e-25
      184.900   1.00215e-25
      185.000   9.69078e-26
      185.100   9.37474e-26
      185.200   9.08798e-26
      185.300   8.83479e-26
      185.400   8.58858e-26
      185.500   8.34912e-26
      185.600   8.11630e-26
      185.700   7.88996e-26
      185.800   7.67023e-26
      185.900   7.45664e-26
      186.000   7.24899e-26
      186.100   7.04706e-26
      186.200   6.85066e-26
      186.300   6.65961e-26
      186.400   6.47394e-26
      186.500   6.29340e-26
      186.600   6.11775e-26
      186.700   5.94688e-26
      186.800   5.78071e-26
      186.900   5.61917e-26
      187.000   5.46207e-26
      187.100   5.30916e-26
      187.200   5.16059e-26
      187.300   5.01633e-26
      187.400   4.87602e-26
      187.500   4.73959e-26
      187.600   4.60691e-26
      187.700   4.47789e-26
      187.800   4.35243e-26
      187.900   4.23041e-26
      188.000   4.11180e-26
      188.100   3.99014e-26
      188.200   3.85022e-26
      188.300   3.68800e-26
      188.400   3.53255e-26
      188.500   3.38358e-26
      188.600   3.24103e-26
      188.700   3.10464e-26
      188.800   2.97399e-26
      188.900   2.84878e-26
      189.000   2.72875e-26
      189.100   2.61370e-26
      189.200   2.50345e-26
      189.300   2.39781e-26
      189.400   2.29659e-26
      189.500   2.20012e-26
      189.600   2.11518e-26
      189.700   2.06248e-26
      189.800   2.01130e-26
      189.900   1.96144e-26
      190.000   1.91286e-26
      190.100   1.86550e-26
      190.200   1.81931e-26
      190.300   1.77427e-26
      190.400   1.73033e-26
      190.500   1.68748e-26
      190.600   1.64572e-26
      190.700   1.60497e-26
      190.800   1.56525e-26
      190.900   1.52651e-26
      191.000   1.48879e-26
      191.100   1.45204e-26
      191.200   1.41617e-26
      191.300   1.38121e-26
      191.400   1.34711e-26
      191.500   1.31385e-26
      191.600   1.28141e-26
      191.700   1.24978e-26
      191.800   1.21891e-26
      191.900   1.18880e-26
      192.000   1.15945e-26
      192.100   1.13085e-26
      192.200   1.10301e-26
      192.300   1.07583e-26
      192.400   1.04932e-26
      192.500   1.02155e-26
      192.600   9.88383e-27
      192.700   9.51413e-27
      192.800   9.15807e-27
      192.900   8.81505e-27
      193.000   8.48479e-27
      193.100   8.16731e-27
      193.200   7.86222e-27
      193.300   7.56848e-27
      193.400   7.28567e-27
      193.500   7.01325e-27
      193.600   6.75084e-27
      193.700   6.49811e-27
      193.800   6.25481e-27
      193.900   6.02057e-27
      194.000   5.79950e-27
      194.100   5.67597e-27
      194.200   5.58521e-27
      194.300   5.49805e-27
      194.400   5.41229e-27
      194.500   5.32794e-27
      194.600   5.24490e-27
      194.700   5.16316e-27
      194.800   5.08273e-27
      194.900   5.00352e-27
      195.000   4.92559e-27
      195.100   4.84904e-27
      195.200   4.77364e-27
      195.300   4.69940e-27
      195.400   4.62629e-27
      195.500   4.55285e-27
      195.600   4.44299e-27
      195.700   4.27302e-27
      195.800   4.10942e-27
      195.900   3.95203e-27
      196.000   3.80042e-27
      196.100   3.65450e-27
      196.200   3.51409e-27
      196.300   3.37895e-27
      196.400   3.24888e-27
      196.500   3.12367e-27
      196.600   3.00321e-27
      196.700   2.88726e-27
      196.800   2.77590e-27
      196.900   2.66907e-27
      197.000   2.56627e-27
      197.100   2.46732e-27
      197.200   2.37209e-27
      197.300   2.28043e-27
      197.400   2.19219e-27
      197.500   2.10729e-27
      197.600   2.02559e-27
      197.700   1.94737e-27
      197.800   1.87215e-27
      197.900   1.79973e-27
      198.000   1.73003e-27
      198.100   1.66298e-27
      198.200   1.59846e-27
      198.300   1.53634e-27
      198.400   1.47661e-27
      198.500   1.41938e-27
      198.600   1.36439e-27
      198.700   1.31681e-27
      198.800   1.27835e-27
      198.900   1.24464e-27
      199.000   1.21178e-27
      199.100   1.17977e-27
      199.200   1.14859e-27
      199.300   1.11832e-27
      199.400   1.08885e-27
      199.500   1.06014e-27
      199.600   1.03217e-27
      199.700   1.00492e-27
      199.800   9.78389e-28
      199.900   9.52534e-28
      200.000   9.27343e-28
      200.100   9.02919e-28
      200.200   8.79110e-28
      200.300   8.55941e-28
      200.400   8.33367e-28
      200.500   8.11376e-28
      200.600   7.89978e-28
      200.700   7.69135e-28
      200.800   7.48827e-28
      200.900   7.29068e-28
      201.000   7.09833e-28
      201.100   6.91132e-28
      201.200   6.72918e-28
      201.300   6.55179e-28
      201.400   6.37911e-28
      201.500   6.21096e-28
      201.600   6.04714e-28
      201.700   5.88768e-28
      201.800   5.73239e-28
      201.900   5.57681e-28
      202.000   5.35344e-28
      202.100   5.10564e-28
      202.200   4.86928e-28
      202.300   4.64413e-28
      202.400   4.43003e-28
      202.500   4.22591e-28
      202.600   4.03101e-28
      202.700   3.84509e-28
      202.800   3.66785e-28
      202.900   3.49905e-28
      203.000   3.33797e-28
      203.100   3.18433e-28
      203.200   3.03760e-28
      203.300   2.89753e-28
      203.400   2.76386e-28
      203.500   2.63633e-28
      203.600   2.51919e-28
      203.700   2.41977e-28
      203.800   2.32600e-28
      203.900   2.23597e-28
      204.000   2.14940e-28
      204.100   2.06615e-28
      204.200   1.98614e-28
      204.300   1.90920e-28
      204.400   1.83522e-28
      204.500   1.76411e-28
      204.600   1.69572e-28
      204.700   1.62998e-28
      204.800   1.56687e-28
      204.900   1.50628e-28
      205.000   1.44802e-28
      205.100   1.39202e-28
      205.200   1.33815e-28
      205.300   1.28639e-28
      205.400   1.23661e-28
      205.500   1.18875e-28
      205.600   1.14264e-28
      205.700   1.09774e-28
      205.800   1.05447e-28
      205.900   1.01294e-28
      206.000   9.73109e-29
      206.100   9.34820e-29
      206.200   8.98016e-29
      206.300   8.62667e-29
      206.400   8.28709e-29
      206.500   7.96062e-29
      206.600   7.64695e-29
      206.700   7.34560e-29
      206.800   7.05593e-29
      206.900   6.77757e-29
      207.000   6.51016e-29
      207.100   6.25367e-29
      207.200   6.00741e-29
      207.300   5.77064e-29
      207.400   5.54310e-29
      207.500   5.32444e-29
      207.600   5.11438e-29
      207.700   4.91242e-29
      207.800   4.71836e-29
      207.900   4.53188e-29
      208.000   4.35270e-29
      208.100   4.18054e-29
      208.200   4.01508e-29
      208.300   3.85615e-29
      208.400   3.70372e-29
      208.500   3.55728e-29
      208.600   3.41651e-29
      208.700   3.28121e-29
      208.800   3.15122e-29
      208.900   3.02166e-29
      209.000   2.87775e-29
      209.100   2.72744e-29
      209.200   2.58489e-29
      209.300   2.44964e-29
      209.400   2.32146e-29
      209.500   2.19987e-29
      209.600   2.08454e-29
      209.700   1.97533e-29
      209.800   1.87202e-29
      209.900   1.77397e-29
      210.000   1.68104e-29
      210.100   1.59291e-29
      210.200   1.50935e-29
      210.300   1.43012e-29
      210.400   1.35501e-29
      210.500   1.28379e-29
      210.600   1.21628e-29
      210.700   1.15229e-29
      210.800   1.09163e-29
      210.900   1.03411e-29
      211.000   9.79595e-30
      211.100   9.27935e-30
      211.200   8.78970e-30
      211.300   8.32674e-30
      211.400   7.88823e-30
      211.500   7.47238e-30
      211.600   7.07829e-30
      211.700   6.70485e-30
      211.800   6.35070e-30
      211.900   6.01510e-30
      212.000   5.69729e-30
      212.100   5.39599e-30
      212.200   5.11040e-30
      212.300   4.82780e-30
      212.400   4.52664e-30
      212.500   4.23089e-30
      212.600   3.95430e-30
      212.700   3.69559e-30
      212.800   3.45362e-30
      212.900   3.22742e-30
      213.000   3.01602e-30
      213.100   2.81873e-30
      213.200   2.63421e-30
      213.300   2.46169e-30
      213.400   2.30031e-30
      213.500   2.14942e-30
      213.600   2.00831e-30
      213.700   1.87642e-30
      213.800   1.75307e-30
      213.900   1.63782e-30
      214.000   1.53004e-30
      214.100   1.43106e-30
      214.200   1.35905e-30
      214.300   1.30424e-30
      214.400   1.25163e-30
      214.500   1.20113e-30
      214.600   1.15267e-30
      214.700   1.10616e-30
      214.800   1.06153e-30
      214.900   1.01869e-30
      215.000   9.77569e-31
      215.100   9.38114e-31
      215.200   9.00297e-31
      215.300   8.64010e-31
      215.400   8.29181e-31
      215.500   7.95748e-31
      215.600   7.63686e-31
      215.700   7.32895e-31
      215.800   7.03339e-31
      215.900   6.74992e-31
      216.000   6.45097e-31
      216.100   6.10169e-31
      216.200   5.74803e-31
      216.300   5.41481e-31
      216.400   5.10082e-31
      216.500   4.80482e-31
      216.600   4.52601e-31
      216.700   4.26334e-31
      216.800   4.01579e-31
      216.900   3.78261e-31
      217.000   3.56290e-31
      217.100   3.35583e-31
      217.200   3.16078e-31
      217.300   2.97704e-31
      217.400   2.80389e-31
      217.500   2.64084e-31
      217.600   2.48714e-31
      217.700   2.34233e-31
      217.800   2.20596e-31
      217.900   2.07699e-31
      218.000   1.94252e-31
      218.100   1.81669e-31
      218.200   1.69897e-31
      218.300   1.58889e-31
      218.400   1.48601e-31
      218.500   1.38970e-31
      218.600   1.29962e-31
      218.700   1.21533e-31
      218.800   1.13646e-31
      218.900   1.06272e-31
      219.000   9.93685e-32
      219.100   9.29099e-32
      219.200   8.68702e-32
      219.300   8.12209e-32
      219.400   7.59350e-32
      219.500   7.09911e-32
      219.600   6.63669e-32
      219.700   6.20412e-32
      219.800   5.79971e-32
      219.900   5.42137e-32
      220.000   5.06743e-32
      220.100   4.73646e-32
      220.200   4.42695e-32
      220.300   4.13759e-32
      220.400   3.86691e-32
      220.500   3.61390e-32
      220.600   3.37734e-32
      220.700   3.15605e-32
      220.800   2.94913e-32
      220.900   2.75580e-32
      221.000   2.57497e-32
      221.100   2.40588e-32
      221.200   2.24789e-32
      221.300   2.10018e-32
      221.400   1.96208e-32
      221.500   1.83302e-32
      221.600   1.71238e-32
      221.700   1.59960e-32
      221.800   1.50166e-32
      221.900   1.42887e-32
      222.000   1.36496e-32
      222.100   1.30387e-32
      222.200   1.24551e-32
      222.300   1.18973e-32
      222.400   1.13645e-32
      222.500   1.08553e-32
      222.600   1.03689e-32
      222.700   9.90407e-33
      222.800   9.45992e-33
      222.900   9.03569e-33
      223.000   8.63031e-33
      223.100   8.24292e-33
      223.200   7.87293e-33
      223.300   7.51936e-33
      223.400   7.18166e-33
      223.500   6.85890e-33
      223.600   6.55070e-33
      223.700   6.25623e-33
      223.800   5.96898e-33
      223.900   5.65521e-33
      224.000   5.35207e-33
      224.100   5.06513e-33
      224.200   4.79347e-33
      224.300   4.53632e-33
      224.400   4.29277e-33
      224.500   4.06233e-33
      224.600   3.84409e-33
      224.700   3.63762e-33
      224.800   3.44208e-33
      224.900   3.25695e-33
      225.000   3.08175e-33
      225.100   2.91589e-33
      225.200   2.75887e-33
      225.300   2.61037e-33
      225.400   2.46969e-33
      225.500   2.33656e-33
      225.600   2.21056e-33
      225.700   2.09135e-33
      225.800   1.97847e-33
      225.900   1.90030e-33
      226.000   1.83685e-33
      226.100   1.77671e-33
      226.200   1.71851e-33
      226.300   1.66235e-33
      226.400   1.60809e-33
      226.500   1.55554e-33
      226.600   1.50467e-33
      226.700   1.45544e-33
      226.800   1.40780e-33
      226.900   1.36172e-33
      227.000   1.31711e-33
      227.100   1.27397e-33
      227.200   1.23225e-33
      227.300   1.19189e-33
      227.400   1.15284e-33
      227.500   1.11507e-33
      227.600   1.07854e-33
      227.700   1.04320e-33
      227.800   1.00902e-33
      227.900   9.72699e-34
      228.000   9.29396e-34
      228.100   8.83357e-34
      228.200   8.39578e-34
      228.300   7.97968e-34
      228.400   7.58424e-34
      228.500   7.20817e-34
      228.600   6.85081e-34
      228.700   6.51111e-34
      228.800   6.18808e-34
      228.900   5.88119e-34
      229.000   5.58944e-34
      229.100   5.31210e-34
      229.200   5.04848e-34
      229.300   4.79793e-34
      229.400   4.55979e-34
      229.500   4.33344e-34
      229.600   4.11828e-34
      229.700   3.91379e-34
      229.800   3.71943e-34
      229.900   3.53473e-34
      230.000   3.35705e-34
      230.100   3.17213e-34
      230.200   2.98788e-34
      230.300   2.81439e-34
      230.400   2.65087e-34
      230.500   2.49692e-34
      230.600   2.35202e-34
      230.700   2.21547e-34
      230.800   2.08683e-34
      230.900   1.96566e-34
      231.000   1.85146e-34
      231.100   1.74386e-34
      231.200   1.64252e-34
      231.300   1.54706e-34
      231.400   1.45714e-34
      231.500   1.37239e-34
      231.600   1.29253e-34
      231.700   1.21732e-34
      231.800   1.14648e-34
      231.900   1.07973e-34
      232.000   1.01685e-34
      232.100   9.57611e-35
      232.200   9.09869e-35
      232.300   8.75847e-35
      232.400   8.46069e-35
      232.500   8.17305e-35
      232.600   7.89523e-35
      232.700   7.62688e-35
      232.800   7.36768e-35
      232.900   7.11712e-35
      233.000   6.87481e-35
      233.100   6.64080e-35
      233.200   6.41481e-35
      233.300   6.19653e-35
      233.400   5.98570e-35
      233.500   5.78214e-35
      233.600   5.58563e-35
      233.700   5.39580e-35
      233.800   5.21037e-35
      233.900   5.03093e-35
      234.000   4.85768e-35
      234.100   4.69037e-35
      234.200   4.52891e-35
      234.300   4.37293e-35
      234.400   4.22232e-35
      234.500   4.07690e-35
      234.600   3.93646e-35
      234.700   3.80090e-35
      234.800   3.67001e-35
      234.900   3.54359e-35
      235.000   3.42150e-35
      235.100   3.30362e-35
      235.200   3.18980e-35
      235.300   3.07991e-35
      235.400   2.97375e-35
      235.500   2.87128e-35
      235.600   2.77236e-35
      235.700   2.67681e-35
      235.800   2.58467e-35
      235.900   2.49571e-35
      236.000   2.40983e-35
      236.100   2.32686e-35
      236.200   2.24675e-35
      236.300   2.16938e-35
      236.400   2.09469e-35
      236.500   2.02255e-35
      236.600   1.95659e-35
      236.700   1.90084e-35
      236.800   1.85175e-35
      236.900   1.80392e-35
      237.000   1.75731e-35
      237.100   1.71191e-35
      237.200   1.66767e-35
      237.300   1.62457e-35
      237.400   1.58258e-35
      237.500   1.54168e-35
      237.600   1.50179e-35
      237.700   1.46300e-35
      237.800   1.42521e-35
      237.900   1.38837e-35
      238.000   1.35248e-35
      238.100   1.31751e-35
      238.200   1.28345e-35
      238.300   1.25025e-35
      238.400   1.21789e-35
      238.500   1.18637e-35
      238.600   1.15566e-35
      238.700   1.12573e-35
      238.800   1.09657e-35
      238.900   1.07041e-35
      239.000   1.05275e-35
      239.100   1.03627e-35
      239.200   1.02005e-35
      239.300   1.00408e-35
      239.400   9.88353e-36
      239.500   9.72876e-36
      239.600   9.57618e-36
      239.700   9.42599e-36
      239.800   9.27821e-36
      239.900   9.13260e-36
      240.000   8.98912e-36
      240.100   8.84788e-36
      240.200   8.70881e-36
      240.300   8.57184e-36
      240.400   8.43698e-36
      240.500   8.30413e-36
      240.600   8.17340e-36
      240.700   8.04450e-36
      240.800   7.91756e-36
      240.900   7.79273e-36
      241.000   7.66975e-36
      241.100   7.54867e-36
      241.200   7.42948e-36
      241.300   7.31203e-36
      241.400   7.19642e-36
      241.500   7.08261e-36
      241.600   6.97056e-36
      241.700   6.86021e-36
      241.800   6.75149e-36
      241.900   6.64450e-36
      242.000   6.53917e-36
      242.100   6.43549e-36
      242.200   6.33345e-36
      242.300   6.23311e-36
      242.400   6.13428e-36
      242.500   6.03700e-36
      242.600   5.94119e-36
      242.700   5.84688e-36
      242.800   5.75411e-36
      242.900   5.66277e-36
      243.000   5.57283e-36
      243.100   5.48429e-36
      243.200   5.39717e-36
      243.300   5.31138e-36
      243.400   5.22700e-36
      243.500   5.14397e-36
      243.600   5.06231e-36
      243.700   4.98191e-36
      243.800   4.90281e-36
      243.900   4.82495e-36
      244.000   4.74831e-36
      244.100   4.67291e-36
      244.200   4.59873e-36
      244.300   4.52568e-36
      244.400   4.45379e-36
      244.500   4.38310e-36
      244.600   4.31348e-36
      244.700   4.24500e-36
      244.800   4.17773e-36
      244.900   4.11147e-36
      245.000   4.04627e-36
      245.100   3.98212e-36
      245.200   3.91901e-36
      245.300   3.85691e-36
      245.400   3.79576e-36
      245.500   3.73562e-36
      245.600   3.67645e-36
      245.700   3.61821e-36
      245.800   3.56092e-36
      245.900   3.50457e-36
      246.000   3.44918e-36
      246.100   3.39467e-36
      246.200   3.34100e-36
      246.300   3.28821e-36
      246.400   3.23630e-36
      246.500   3.18519e-36
      246.600   3.13489e-36
      246.700   3.08540e-36
      246.800   3.03672e-36
      246.900   2.98882e-36
      247.000   2.94171e-36
      247.100   2.89533e-36
      247.200   2.84977e-36
      247.300   2.80492e-36
      247.400   2.76079e-36
      247.500   2.71736e-36
      247.600   2.67460e-36
      247.700   2.63254e-36
      247.800   2.59117e-36
      247.900   2.55043e-36
      248.000   2.51038e-36
      248.100   2.47103e-36
      248.200   2.43231e-36
      248.300   2.39418e-36
      248.400   2.35664e-36
      248.500   2.30460e-36
      248.600   2.22897e-36
      248.700   2.14013e-36
      248.800   2.05477e-36
      248.900   1.97282e-36
      249.000   1.89409e-36
      249.100   1.81875e-36
      249.200   1.74645e-36
      249.300   1.67699e-36
      249.400   1.61025e-36
      249.500   1.54615e-36
      249.600   1.48456e-36
      249.700   1.42541e-36
      249.800   1.36858e-36
      249.900   1.31399e-36
      250.000   1.26156e-36
      250.100   1.21136e-36
      250.200   1.16317e-36
      250.300   1.11693e-36
      250.400   1.07250e-36
      250.500   1.02983e-36
      250.600   9.88855e-37
      250.700   9.49492e-37
      250.800   9.11687e-37
      250.900   8.75382e-37
      251.000   8.40509e-37
      251.100   8.07018e-37
      251.200   7.74892e-37
      251.300   7.44093e-37
      251.400   7.14517e-37
      251.500   6.86102e-37
      251.600   6.46616e-37
      251.700   5.86557e-37
      251.800   5.28914e-37
      251.900   4.76858e-37
      252.000   4.29851e-37
      252.100   3.87437e-37
      252.200   3.49140e-37
      252.300   3.14659e-37
      252.400   2.83681e-37
      252.500   2.55728e-37
      252.600   2.31843e-37
      252.700   2.18102e-37
      252.800   2.13283e-37
      252.900   2.08573e-37
      253.000   2.03966e-37
      253.100   1.99461e-37
      253.200   1.95057e-37
      253.300   1.90792e-37
      253.400   1.86640e-37
      253.500   1.82584e-37
      253.600   1.78618e-37
      253.700   1.74654e-37
      253.800   1.70373e-37
      253.900   1.66119e-37
      254.000   1.61970e-37
      254.100   1.57924e-37
      254.200   1.53978e-37
      254.300   1.50131e-37
      254.400   1.46380e-37
      254.500   1.42723e-37
      254.600   1.39154e-37
      254.700   1.35677e-37
      254.800   1.32291e-37
      254.900   1.28988e-37
      255.000   1.25768e-37
      255.100   1.22625e-37
      255.200   1.19562e-37
      255.300   1.16574e-37
      255.400   1.13661e-37
      255.500   1.10820e-37
      255.600   1.08049e-37
      255.700   1.05347e-37
      255.800   1.02712e-37
      255.900   1.00142e-37
      256.000   9.76346e-38
      256.100   9.51927e-38
      256.200   9.28118e-38
      256.300   9.04894e-38
      256.400   8.82276e-38
      256.500   8.60194e-38
      256.600   8.38657e-38
      256.700   8.17655e-38
      256.800   7.97179e-38
      256.900   7.72398e-38
      257.000   7.40790e-38
      257.100   7.08144e-38
      257.200   6.76935e-38
      257.300   6.47084e-38
      257.400   6.18623e-38
      257.500   5.91432e-38
      257.600   5.65482e-38
      257.700   5.40673e-38
      257.800   5.16933e-38
      257.900   4.94234e-38
      258.000   4.72525e-38
      258.100   4.51755e-38
      258.200   4.31894e-38
      258.300   4.12904e-38
      258.400   3.94730e-38
      258.500   3.77350e-38
      258.600   3.60734e-38
      258.700   3.44839e-38
      258.800   3.29638e-38
      258.900   3.15108e-38
      259.000   3.01207e-38
      259.100   2.87917e-38
      259.200   2.75216e-38
      259.300   2.63092e-38
      259.400   2.51492e-38
      259.500   2.40399e-38
      259.600   2.29793e-38
      259.700   2.19653e-38
      259.800   2.09955e-38
      259.900   2.00678e-38
      260.000   1.91810e-38
      260.100   1.82697e-38
      260.200   1.73232e-38
      260.300   1.64116e-38
      260.400   1.55478e-38
      260.500   1.47292e-38
      260.600   1.39529e-38
      260.700   1.32174e-38
      260.800   1.25208e-38
      260.900   1.18602e-38
      261.000   1.12348e-38
      261.100   1.06428e-38
      261.200   1.00786e-38
      261.300   9.54378e-39
      261.400   9.03722e-39
      261.500   8.55757e-39
      261.600   8.10382e-39
      261.700   7.67415e-39
      261.800   7.26714e-39
      261.900   6.88141e-39
      262.000   6.51607e-39
      262.100   6.16998e-39
      262.200   5.84233e-39
      262.300   5.53183e-39
      262.400   5.23778e-39
      262.500   4.95919e-39
      262.600   4.69529e-39
      262.700   4.44545e-39
      262.800   4.20881e-39
      262.900   3.98458e-39
      263.000   3.77242e-39
      263.100   3.57142e-39
      263.200   3.38139e-39
      263.300   3.20143e-39
      263.400   3.03096e-39
      263.500   2.86959e-39
      263.600   2.71676e-39
      263.700   2.57200e-39
      263.800   2.43489e-39
      263.900   2.30516e-39
      264.000   2.18225e-39
      264.100   2.06581e-39
      264.200   1.95556e-39
      264.300   1.85124e-39
      264.400   1.75244e-39
      264.500   1.65886e-39
      264.600   1.57024e-39
      264.700   1.48636e-39
      264.800   1.40691e-39
      264.900   1.33172e-39
      265.000   1.26054e-39
      265.100   1.19310e-39
      265.200   1.12928e-39
      265.300   1.06885e-39
      265.400   1.01085e-39
      265.500   9.55667e-40
      265.600   9.03503e-40
      265.700   8.54131e-40
      265.800   8.07507e-40
      265.900   7.63439e-40
      266.000   7.21792e-40
      266.100   6.82406e-40
      266.200   6.45168e-40
      266.300   6.09940e-40
      266.400   5.76643e-40
      266.500   5.45143e-40
      266.600   5.15363e-40
      266.700   4.87199e-40
      266.800   4.60586e-40
      266.900   4.35409e-40
      267.000   4.11603e-40
      267.100   3.89092e-40
      267.200   3.67827e-40
      267.300   3.47707e-40
      267.400   3.28682e-40
      267.500   3.10697e-40
      267.600   2.93694e-40
      267.700   2.77620e-40
      267.800   2.62418e-40
      267.900   2.48047e-40
      268.000   2.34465e-40
      268.100   2.21621e-40
      268.200   2.09487e-40
      268.300   1.98010e-40
      268.400   1.87160e-40
      268.500   1.76899e-40
      268.600   1.67206e-40
      268.700   1.58038e-40
      268.800   1.49374e-40
      268.900   1.41182e-40
      269.000   1.33444e-40
      269.100   1.26121e-40
      269.200   1.19207e-40
      269.300   1.12664e-40
      269.400   1.06485e-40
      269.500   1.00634e-40
      269.600   9.51145e-41
      269.700   8.90819e-41
      269.800   8.32413e-41
      269.900   7.77749e-41
      270.000   7.26699e-41
      270.100   6.78999e-41
      270.200   6.34424e-41
      270.300   5.92763e-41
      270.400   5.53849e-41
      270.500   5.17457e-41
      270.600   4.83434e-41
      270.700   4.51667e-41
      270.800   4.21931e-41
      270.900   3.94227e-41
      271.000   3.68289e-41
      271.100   3.44033e-41
      271.200   3.21346e-41
      271.300   3.00200e-41
      271.400   2.80456e-41
      271.500   2.61987e-41
      271.600   2.44709e-41
      271.700   2.28566e-41
      271.800   2.13488e-41
      271.900   1.99363e-41
      272.000   1.86233e-41
      272.100   1.73929e-41
      272.200   1.62495e-41
      272.300   1.51761e-41
      272.400   1.41699e-41
      272.500   1.32339e-41
      272.600   1.23581e-41
      272.700   1.15439e-41
      272.800   1.08124e-41
      272.900   1.02267e-41
      273.000   9.71941e-42
      273.100   9.23316e-42
      273.200   8.77353e-42
      273.300   8.33632e-42
      273.400   7.92014e-42
      273.500   7.52357e-42
      273.600   7.15083e-42
      273.700   6.79209e-42
      273.800   6.45438e-42
      273.900   6.08023e-42
      274.000   5.62341e-42
      274.100   5.19882e-42
      274.200   4.80505e-42
      274.300   4.44352e-42
      274.400   4.10861e-42
      274.500   3.79612e-42
      274.600   3.51165e-42
      274.700   3.23980e-42
      274.800   2.99738e-42
      274.900   2.76616e-42
      275.000   2.55597e-42
      275.100   2.36399e-42
      275.200   2.18182e-42
      275.300   2.01647e-42
      275.400   1.86233e-42
      275.500   1.72220e-42
      275.600   1.58767e-42
      275.700   1.46716e-42
      275.800   1.35506e-42
      275.900   1.25276e-42
      276.000   1.16308e-42
      276.100   1.09582e-42
      276.200   1.04116e-42
      276.300   9.83712e-43
      276.400   9.33265e-43
      276.500   8.81417e-43
      276.600   8.40779e-43
      276.700   7.91734e-43
      276.800   7.51096e-43
      276.900   7.09057e-43
      277.000   6.71222e-43
      277.100   6.36190e-43
      277.200   6.03960e-43
      277.300   5.71730e-43
      277.400   5.43704e-43
      277.500   5.11474e-43
      277.600   4.86251e-43
      277.700   4.56823e-43
      277.800   4.34403e-43
      277.900   4.09179e-43
      278.000   3.92364e-43
      278.100   3.69943e-43
      278.200   3.44719e-43
      278.300   3.19496e-43
      278.400   2.94273e-43
      278.500   2.71852e-43
      278.600   2.52234e-43
      278.700   2.32616e-43
      278.800   2.14399e-43
      278.900   1.97583e-43
      279.000   1.84971e-43
      279.100   1.72360e-43
      279.200   1.56945e-43
      279.300   1.47136e-43
      279.400   1.37327e-43
      279.500   1.30321e-43
      279.600   1.21913e-43
      279.700   1.17709e-43
      279.800   1.09301e-43
      279.900   1.02295e-43
      280.000   9.52883e-44
      280.100   8.96831e-44
      280.200   8.26766e-44
      280.300   7.70714e-44
      280.400   7.00649e-44
      280.500   6.72623e-44
      280.600   6.44597e-44
      280.700   5.74532e-44
      280.800   5.46506e-44
      280.900   5.46506e-44
      281.000   5.04467e-44
      281.100   4.76441e-44
      281.200   4.48416e-44
      281.300   4.20390e-44
      281.400   3.78351e-44
      281.500   3.78351e-44
      281.600   3.50325e-44
      281.700   3.50325e-44
      281.800   3.22299e-44
      281.900   3.22299e-44
      282.000   2.94273e-44
      282.100   2.94273e-44
      282.200   2.52234e-44
      282.300   2.52234e-44
      282.400   2.52234e-44
      282.500   2.24208e-44
      282.600   2.24208e-44
      282.700   2.24208e-44
      282.800   1.96182e-44
      282.900   1.96182e-44
      283.000   1.96182e-44
      283.100   1.96182e-44
      283.200   1.54143e-44
      283.300   1.54143e-44
      283.400   1.54143e-44
      283.500   1.54143e-44
      283.600   1.26117e-44
      283.700   1.26117e-44
      283.800   1.26117e-44
      283.900   1.26117e-44
      284.000   9.80909e-45
      284.100   9.80909e-45
      284.200   9.80909e-45
      284.300   9.80909e-45
      284.400   9.80909e-45
      284.500   7.00649e-45
      284.600   7.00649e-45
      284.700   7.00649e-45
      284.800   7.00649e-45
      284.900   7.00649e-45
      285.000   7.00649e-45
      285.100   7.00649e-45
      285.200   7.00649e-45
      285.300   2.80260e-45
      285.400   2.80260e-45
      285.500   2.80260e-45
      285.600   2.80260e-45
      285.700   2.80260e-45
      285.800   2.80260e-45
      285.900   2.80260e-45
      286.000   2.80260e-45
      286.100   2.80260e-45
      286.200   2.80260e-45
      286.300   2.80260e-45
      286.400   2.80260e-45
      286.500   2.80260e-45
      286.600   2.80260e-45
      286.700   2.80260e-45
      286.800   2.80260e-45
      286.900   2.80260e-45
      287.000   2.80260e-45
      287.100       0.00000
      287.200       0.00000
      287.300       0.00000
      287.400       0.00000
      287.500       0.00000
      287.600       0.00000
      287.700       0.00000
      287.800       0.00000
      287.900       0.00000
      288.000       0.00000
      288.100       0.00000
      288.200       0.00000
      288.300       0.00000
      288.400       0.00000
      288.500       0.00000
      288.600       0.00000
      288.700       0.00000
      288.800       0.00000
      288.900       0.00000
      289.000       0.00000
      289.100       0.00000
      289.200       0.00000
      289.300       0.00000
      289.400       0.00000
      289.500       0.00000
      289.600       0.00000
      289.700       0.00000
      289.800       0.00000
      289.900       0.00000
      290.000       0.00000
      290.100       0.00000
      290.200       0.00000
      290.300       0.00000
      290.400       0.00000
      290.500       0.00000
      290.600       0.00000
      290.700       0.00000
      290.800       0.00000
      290.900       0.00000
      291.000       0.00000
      291.100       0.00000
      291.200       0.00000
      291.300       0.00000
      291.400       0.00000
      291.500       0.00000
      291.600       0.00000
      291.700       0.00000
      291.800       0.00000
      291.900       0.00000
      292.000       0.00000
      292.100       0.00000
      292.200       0.00000
      292.300       0.00000
      292.400       0.00000
      292.500       0.00000
      292.600       0.00000
      292.700       0.00000
      292.800       0.00000
      292.900       0.00000
      293.000       0.00000
      293.100       0.00000
      293.200       0.00000
      293.300       0.00000
      293.400       0.00000
      293.500       0.00000
      293.600       0.00000
      293.700       0.00000
      293.800       0.00000
      293.900       0.00000
      294.000       0.00000
      294.100       0.00000
      294.200       0.00000
      294.300       0.00000
      294.400       0.00000
      294.500       0.00000
      294.600       0.00000
      294.700       0.00000
      294.800       0.00000
      294.900       0.00000
      295.000       0.00000
      295.100       0.00000
      295.200       0.00000
      295.300       0.00000
      295.400       0.00000
      295.500       0.00000
      295.600       0.00000
      295.700       0.00000
      295.800       0.00000
      295.900       0.00000
      296.000       0.00000
      296.100       0.00000
      296.200       0.00000
      296.300       0.00000
      296.400       0.00000
      296.500       0.00000
      296.600       0.00000
      296.700       0.00000
      296.800       0.00000
      296.900       0.00000
      297.000       0.00000
      297.100       0.00000
      297.200       0.00000
      297.300       0.00000
      297.400       0.00000
      297.500       0.00000
      297.600       0.00000
      297.700       0.00000
      297.800       0.00000
      297.900       0.00000
      298.000       0.00000
      298.100       0.00000
      298.200       0.00000
      298.300       0.00000
      298.400       0.00000
      298.500       0.00000
      298.600       0.00000
      298.700       0.00000
      298.800       0.00000
      298.900       0.00000
      299.000       0.00000
      299.100       0.00000
      299.200       0.00000
      299.300       0.00000
      299.400       0.00000
      299.500       0.00000
      299.600       0.00000
      299.700       0.00000
      299.800       0.00000
      299.900       0.00000
      300.000       0.00000
      300.100       0.00000
      300.192       0.00000
      300.285       0.00000
      300.377       0.00000
      300.470       0.00000
      300.562       0.00000
      300.654       0.00000
      300.747       0.00000
      300.839       0.00000
      300.932       0.00000
      301.025       0.00000
      301.117       0.00000
      301.210       0.00000
      301.303       0.00000
      301.395       0.00000
      301.488       0.00000
      301.581       0.00000
      301.674       0.00000
      301.766       0.00000
      301.859       0.00000
      301.952       0.00000
      302.045       0.00000
      302.138       0.00000
      302.231       0.00000
      302.324       0.00000
      302.417       0.00000
      302.510       0.00000
      302.603       0.00000
      302.696       0.00000
      302.789       0.00000
      302.882       0.00000
      302.976       0.00000
      303.069       0.00000
      303.162       0.00000
      303.255       0.00000
      303.349       0.00000
      303.442       0.00000
      303.535       0.00000
      303.629       0.00000
      303.722       0.00000
      303.816       0.00000
      303.909       0.00000
      304.003       0.00000
      304.096       0.00000
      304.190       0.00000
      304.283       0.00000
      304.377       0.00000
      304.471       0.00000
      304.564       0.00000
      304.658       0.00000
      304.752       0.00000
      304.846       0.00000
      304.939       0.00000
      305.033       0.00000
      305.127       0.00000
      305.221       0.00000
      305.315       0.00000
      305.409       0.00000
      305.503       0.00000
      305.597       0.00000
      305.691       0.00000
      305.785       0.00000
      305.879       0.00000
      305.973       0.00000
      306.067       0.00000
      306.161       0.00000
      306.255       0.00000
      306.350       0.00000
      306.444       0.00000
      306.538       0.00000
      306.633       0.00000
      306.727       0.00000
      306.821       0.00000
      306.916       0.00000
      307.010       0.00000
      307.105       0.00000
      307.199       0.00000
      307.294       0.00000
      307.388       0.00000
      307.483       0.00000
      307.577       0.00000
      307.672       0.00000
      307.767       0.00000
      307.861       0.00000
      307.956       0.00000
      308.051       0.00000
      308.146       0.00000
      308.240       0.00000
      308.335       0.00000
      308.430       0.00000
      308.525       0.00000
      308.620       0.00000
      308.715       0.00000
      308.810       0.00000
      308.905       0.00000
      309.000       0.00000
      309.095       0.00000
      309.190       0.00000
      309.285       0.00000
      309.380       0.00000
      309.476       0.00000
      309.571       0.00000
      309.666       0.00000
      309.761       0.00000
      309.857       0.00000
      309.952       0.00000
      310.047       0.00000
      310.143       0.00000
      310.238       0.00000
      310.334       0.00000
      310.429       0.00000
      310.525       0.00000
      310.620       0.00000
      310.716       0.00000
      310.811       0.00000
      310.907       0.00000
      311.003       0.00000
      311.098       0.00000
      311.194       0.00000
      311.290       0.00000
      311.386       0.00000
      311.481       0.00000
      311.577       0.00000
      311.673       0.00000
      311.769       0.00000
      311.865       0.00000
      311.961       0.00000
      312.057       0.00000
      312.153       0.00000
      312.249       0.00000
      312.345       0.00000
      312.441       0.00000
      312.537       0.00000
      312.633       0.00000
      312.730       0.00000
      312.826       0.00000
      312.922       0.00000
      313.018       0.00000
      313.115       0.00000
      313.211       0.00000
      313.307       0.00000
      313.404       0.00000
      313.500       0.00000
      313.597       0.00000
      313.693       0.00000
      313.790       0.00000
      313.886       0.00000
      313.983       0.00000
      314.079       0.00000
      314.176       0.00000
      314.273       0.00000
      314.369       0.00000
      314.466       0.00000
      314.563       0.00000
      314.660       0.00000
      314.756       0.00000
      314.853       0.00000
      314.950       0.00000
      315.047       0.00000
      315.144       0.00000
      315.241       0.00000
      315.338       0.00000
      315.435       0.00000
      315.532       0.00000
      315.629       0.00000
      315.726       0.00000
      315.823       0.00000
      315.921       0.00000
      316.018       0.00000
      316.115       0.00000
      316.212       0.00000
      316.310       0.00000
      316.407       0.00000
      316.504       0.00000
      316.602       0.00000
      316.699       0.00000
      316.796       0.00000
      316.894       0.00000
      316.991       0.00000
      317.089       0.00000
      317.187       0.00000
      317.284       0.00000
      317.382       0.00000
      317.479       0.00000
      317.577       0.00000
      317.675       0.00000
      317.773       0.00000
      317.870       0.00000
      317.968       0.00000
      318.066       0.00000
      318.164       0.00000
      318.262       0.00000
      318.360       0.00000
      318.458       0.00000
      318.556       0.00000
      318.654       0.00000
      318.752       0.00000
      318.850       0.00000
      318.948       0.00000
      319.046       0.00000
      319.144       0.00000
      319.242       0.00000
      319.341       0.00000
      319.439       0.00000
      319.537       0.00000
      319.635       0.00000
      319.734       0.00000
      319.832       0.00000
      319.930       0.00000
      320.029       0.00000
      320.127       0.00000
      320.226       0.00000
      320.324       0.00000
      320.423       0.00000
      320.522       0.00000
      320.620       0.00000
      320.719       0.00000
      320.818       0.00000
      320.916       0.00000
      321.015       0.00000
      321.114       0.00000
      321.213       0.00000
      321.311       0.00000
      321.410       0.00000
      321.509       0.00000
      321.608       0.00000
      321.707       0.00000
      321.806       0.00000
      321.905       0.00000
      322.004       0.00000
      322.103       0.00000
      322.202       0.00000
      322.301       0.00000
      322.401       0.00000
      322.500       0.00000
      322.599       0.00000
      322.698       0.00000
      322.798       0.00000
      322.897       0.00000
      322.996       0.00000
      323.096       0.00000
      323.195       0.00000
      323.294       0.00000
      323.394       0.00000
      323.493       0.00000
      323.593       0.00000
      323.692       0.00000
      323.792       0.00000
      323.892       0.00000
      323.991       0.00000
      324.091       0.00000
      324.191       0.00000
      324.291       0.00000
      324.390       0.00000
      324.490       0.00000
      324.590       0.00000
      324.690       0.00000
      324.790       0.00000
      324.890       0.00000
      324.990       0.00000
      325.090       0.00000
      325.190       0.00000
      325.290       0.00000
      325.390       0.00000
      325.490       0.00000
      325.590       0.00000
      325.690       0.00000
      325.790       0.00000
      325.891       0.00000
      325.991       0.00000
      326.091       0.00000
      326.192       0.00000
      326.292       0.00000
      326.392       0.00000
      326.493       0.00000
      326.593       0.00000
      326.694       0.00000
      326.794       0.00000
      326.895       0.00000
      326.995       0.00000
      327.096       0.00000
      327.197       0.00000
      327.297       0.00000
      327.398       0.00000
      327.499       0.00000
      327.599       0.00000
      327.700       0.00000
      327.801       0.00000
      327.902       0.00000
      328.003       0.00000
      328.104       0.00000
      328.205       0.00000
      328.306       0.00000
      328.407       0.00000
      328.508       0.00000
      328.609       0.00000
      328.710       0.00000
      328.811       0.00000
      328.912       0.00000
      329.013       0.00000
      329.115       0.00000
      329.216       0.00000
      329.317       0.00000
      329.419       0.00000
      329.520       0.00000
      329.621       0.00000
      329.723       0.00000
      329.824       0.00000
      329.926       0.00000
      330.027       0.00000
      330.129       0.00000
      330.230       0.00000
      330.332       0.00000
      330.434       0.00000
      330.535       0.00000
      330.637       0.00000
      330.739       0.00000
      330.840       0.00000
      330.942       0.00000
      331.044       0.00000
      331.146       0.00000
      331.248       0.00000
      331.350       0.00000
      331.452       0.00000
      331.554       0.00000
      331.656       0.00000
      331.758       0.00000
      331.860       0.00000
      331.962       0.00000
      332.064       0.00000
      332.166       0.00000
      332.268       0.00000
      332.371       0.00000
      332.473       0.00000
      332.575       0.00000
      332.677       0.00000
      332.780       0.00000
      332.882       0.00000
      332.985       0.00000
      333.087       0.00000
      333.190       0.00000
      333.292       0.00000
      333.395       0.00000
      333.497       0.00000
      333.600       0.00000
      333.702       0.00000
      333.805       0.00000
      333.908       0.00000
      334.011       0.00000
      334.113       0.00000
      334.216       0.00000
      334.319       0.00000
      334.422       0.00000
      334.525       0.00000
      334.628       0.00000
      334.731       0.00000
      334.834       0.00000
      334.937       0.00000
      335.040       0.00000
      335.143       0.00000
      335.246       0.00000
      335.349       0.00000
      335.452       0.00000
      335.555       0.00000
      335.659       0.00000
      335.762       0.00000
      335.865       0.00000
      335.969       0.00000
      336.072       0.00000
      336.175       0.00000
      336.279       0.00000
      336.382       0.00000
      336.486       0.00000
      336.589       0.00000
      336.693       0.00000
      336.796       0.00000
      336.900       0.00000
      337.004       0.00000
      337.107       0.00000
      337.211       0.00000
      337.315       0.00000
      337.419       0.00000
      337.523       0.00000
      337.626       0.00000
      337.730       0.00000
      337.834       0.00000
      337.938       0.00000
      338.042       0.00000
      338.146       0.00000
      338.250       0.00000
      338.354       0.00000
      338.458       0.00000
      338.562       0.00000
      338.667       0.00000
      338.771       0.00000
      338.875       0.00000
      338.979       0.00000
      339.084       0.00000
      339.188       0.00000
      339.292       0.00000
      339.397       0.00000
      339.501       0.00000
      339.606       0.00000
      339.710       0.00000
      339.815       0.00000
      339.919       0.00000
      340.024       0.00000
      340.128       0.00000
      340.233       0.00000
      340.338       0.00000
      340.442       0.00000
      340.547       0.00000
      340.652       0.00000
      340.757       0.00000
      340.862       0.00000
      340.966       0.00000
      341.071       0.00000
      341.176       0.00000
      341.281       0.00000
      341.386       0.00000
      341.491       0.00000
      341.596       0.00000
      341.702       0.00000
      341.807       0.00000
      341.912       0.00000
      342.017       0.00000
      342.122       0.00000
      342.228       0.00000
      342.333       0.00000
      342.438       0.00000
      342.544       0.00000
      342.649       0.00000
      342.754       0.00000
      342.860       0.00000
      342.965       0.00000
      343.071       0.00000
      343.176       0.00000
      343.282       0.00000
      343.388       0.00000
      343.493       0.00000
      343.599       0.00000
      343.705       0.00000
      343.810       0.00000
      343.916       0.00000
      344.022       0.00000
      344.128       0.00000
      344.234       0.00000
      344.340       0.00000
      344.446       0.00000
      344.552       0.00000
      344.658       0.00000
      344.764       0.00000
      344.870       0.00000
      344.976       0.00000
      345.082       0.00000
      345.188       0.00000
      345.294       0.00000
      345.401       0.00000
      345.507       0.00000
      345.613       0.00000
      345.719       0.00000
      345.826       0.00000
      345.932       0.00000
      346.039       0.00000
      346.145       0.00000
      346.252       0.00000
      346.358       0.00000
      346.465       0.00000
      346.571       0.00000
      346.678       0.00000
      346.785       0.00000
      346.891       0.00000
      346.998       0.00000
      347.105       0.00000
      347.212       0.00000
      347.319       0.00000
      347.425       0.00000
      347.532       0.00000
      347.639       0.00000
      347.746       0.00000
      347.853       0.00000
      347.960       0.00000
      348.067       0.00000
      348.174       0.00000
      348.281       0.00000
      348.389       0.00000
      348.496       0.00000
      348.603       0.00000
      348.710       0.00000
      348.818       0.00000
      348.925       0.00000
      349.032       0.00000
      349.140       0.00000
      349.247       0.00000
      349.355       0.00000
      349.462       0.00000
      349.570       0.00000
      349.677       0.00000
      349.785       0.00000
      349.892       0.00000
      350.000       0.00000
      350.100       0.00000
      350.193       0.00000
      350.287       0.00000
      350.380       0.00000
      350.473       0.00000
      350.567       0.00000
      350.660       0.00000
      350.754       0.00000
      350.847       0.00000
      350.941       0.00000
      351.034       0.00000
      351.128       0.00000
      351.221       0.00000
      351.315       0.00000
      351.409       0.00000
      351.502       0.00000
      351.596       0.00000
      351.690       0.00000
      351.783       0.00000
      351.877       0.00000
      351.971       0.00000
      352.065       0.00000
      352.159       0.00000
      352.252       0.00000
      352.346       0.00000
      352.440       0.00000
      352.534       0.00000
      352.628       0.00000
      352.722       0.00000
      352.816       0.00000
      352.910       0.00000
      353.004       0.00000
      353.098       0.00000
      353.192       0.00000
      353.287       0.00000
      353.381       0.00000
      353.475       0.00000
      353.569       0.00000
      353.663       0.00000
      353.758       0.00000
      353.852       0.00000
      353.946       0.00000
      354.041       0.00000
      354.135       0.00000
      354.229       0.00000
      354.324       0.00000
      354.418       0.00000
      354.513       0.00000
      354.607       0.00000
      354.702       0.00000
      354.796       0.00000
      354.891       0.00000
      354.985       0.00000
      355.080       0.00000
      355.175       0.00000
      355.269       0.00000
      355.364       0.00000
      355.459       0.00000
      355.553       0.00000
      355.648       0.00000
      355.743       0.00000
      355.838       0.00000
      355.933       0.00000
      356.027       0.00000
      356.122       0.00000
      356.217       0.00000
      356.312       0.00000
      356.407       0.00000
      356.502       0.00000
      356.597       0.00000
      356.692       0.00000
      356.787       0.00000
      356.882       0.00000
      356.977       0.00000
      357.073       0.00000
      357.168       0.00000
      357.263       0.00000
      357.358       0.00000
      357.453       0.00000
      357.549       0.00000
      357.644       0.00000
      357.739       0.00000
      357.835       0.00000
      357.930       0.00000
      358.025       0.00000
      358.121       0.00000
      358.216       0.00000
      358.312       0.00000
      358.407       0.00000
      358.503       0.00000
      358.598       0.00000
      358.694       0.00000
      358.790       0.00000
      358.885       0.00000
      358.981       0.00000
      359.076       0.00000
      359.172       0.00000
      359.268       0.00000
      359.364       0.00000
      359.459       0.00000
      359.555       0.00000
      359.651       0.00000
      359.747       0.00000
      359.843       0.00000
      359.939       0.00000
      360.035       0.00000
      360.131       0.00000
      360.227       0.00000
      360.323       0.00000
      360.419       0.00000
      360.515       0.00000
      360.611       0.00000
      360.707       0.00000
      360.803       0.00000
      360.899       0.00000
      360.995       0.00000
      361.092       0.00000
      361.188       0.00000
      361.284       0.00000
      361.380       0.00000
      361.477       0.00000
      361.573       0.00000
      361.669       0.00000
      361.766       0.00000
      361.862       0.00000
      361.959       0.00000
      362.055       0.00000
      362.152       0.00000
      362.248       0.00000
      362.345       0.00000
      362.441       0.00000
      362.538       0.00000
      362.635       0.00000
      362.731       0.00000
      362.828       0.00000
      362.925       0.00000
      363.021       0.00000
      363.118       0.00000
      363.215       0.00000
      363.312       0.00000
      363.409       0.00000
      363.505       0.00000
      363.602       0.00000
      363.699       0.00000
      363.796       0.00000
      363.893       0.00000
      363.990       0.00000
      364.087       0.00000
      364.184       0.00000
      364.281       0.00000
      364.378       0.00000
      364.475       0.00000
      364.573       0.00000
      364.670       0.00000
      364.767       0.00000
      364.864       0.00000
      364.961       0.00000
      365.059       0.00000
      365.156       0.00000
      365.253       0.00000
      365.351       0.00000
      365.448       0.00000
      365.545       0.00000
      365.643       0.00000
      365.740       0.00000
      365.838       0.00000
      365.935       0.00000
      366.033       0.00000
      366.130       0.00000
      366.228       0.00000
      366.326       0.00000
      366.423       0.00000
      366.521       0.00000
      366.618       0.00000
      366.716       0.00000
      366.814       0.00000
      366.912       0.00000
      367.010       0.00000
      367.107       0.00000
      367.205       0.00000
      367.303       0.00000
      367.401       0.00000
      367.499       0.00000
      367.597       0.00000
      367.695       0.00000
      367.793       0.00000
      367.891       0.00000
      367.989       0.00000
      368.087       0.00000
      368.185       0.00000
      368.283       0.00000
      368.381       0.00000
      368.480       0.00000
      368.578       0.00000
      368.676       0.00000
      368.774       0.00000
      368.873       0.00000
      368.971       0.00000
      369.069       0.00000
      369.168       0.00000
      369.266       0.00000
      369.364       0.00000
      369.463       0.00000
      369.561       0.00000
      369.660       0.00000
      369.758       0.00000
      369.857       0.00000
      369.955       0.00000
      370.054       0.00000
      370.153       0.00000
      370.251       0.00000
      370.350       0.00000
      370.449       0.00000
      370.547       0.00000
      370.646       0.00000
      370.745       0.00000
      370.844       0.00000
      370.943       0.00000
      371.041       0.00000
      371.140       0.00000
      371.239       0.00000
      371.338       0.00000
      371.437       0.00000
      371.536       0.00000
      371.635       0.00000
      371.734       0.00000
      371.833       0.00000
      371.932       0.00000
      372.032       0.00000
      372.131       0.00000
      372.230       0.00000
      372.329       0.00000
      372.428       0.00000
      372.528       0.00000
      372.627       0.00000
      372.726       0.00000
      372.826       0.00000
      372.925       0.00000
      373.024       0.00000
      373.124       0.00000
      373.223       0.00000
      373.323       0.00000
      373.422       0.00000
      373.522       0.00000
      373.621       0.00000
      373.721       0.00000
      373.820       0.00000
      373.920       0.00000
      374.020       0.00000
      374.119       0.00000
      374.219       0.00000
      374.319       0.00000
      374.419       0.00000
      374.518       0.00000
      374.618       0.00000
      374.718       0.00000
      374.818       0.00000
      374.918       0.00000
      375.018       0.00000
      375.118       0.00000
      375.218       0.00000
      375.318       0.00000
      375.418       0.00000
      375.518       0.00000
      375.618       0.00000
      375.718       0.00000
      375.818       0.00000
      375.918       0.00000
      376.019       0.00000
      376.119       0.00000
      376.219       0.00000
      376.319       0.00000
      376.420       0.00000
      376.520       0.00000
      376.620       0.00000
      376.721       0.00000
      376.821       0.00000
      376.922       0.00000
      377.022       0.00000
      377.122       0.00000
      377.223       0.00000
      377.323       0.00000
      377.424       0.00000
      377.525       0.00000
      377.625       0.00000
      377.726       0.00000
      377.827       0.00000
      377.927       0.00000
      378.028       0.00000
      378.129       0.00000
      378.230       0.00000
      378.330       0.00000
      378.431       0.00000
      378.532       0.00000
      378.633       0.00000
      378.734       0.00000
      378.835       0.00000
      378.936       0.00000
      379.037       0.00000
      379.138       0.00000
      379.239       0.00000
      379.340       0.00000
      379.441       0.00000
      379.542       0.00000
      379.643       0.00000
      379.745       0.00000
      379.846       0.00000
      379.947       0.00000
      380.048       0.00000
      380.150       0.00000
      380.251       0.00000
      380.352       0.00000
      380.454       0.00000
      380.555       0.00000
      380.656       0.00000
      380.758       0.00000
      380.859       0.00000
      380.961       0.00000
      381.062       0.00000
      381.164       0.00000
      381.266       0.00000
      381.367       0.00000
      381.469       0.00000
      381.570       0.00000
      381.672       0.00000
      381.774       0.00000
      381.876       0.00000
      381.977       0.00000
      382.079       0.00000
      382.181       0.00000
      382.283       0.00000
      382.385       0.00000
      382.487       0.00000
      382.589       0.00000
      382.691       0.00000
      382.793       0.00000
      382.895       0.00000
      382.997       0.00000
      383.099       0.00000
      383.201       0.00000
      383.303       0.00000
      383.405       0.00000
      383.507       0.00000
      383.610       0.00000
      383.712       0.00000
      383.814       0.00000
      383.916       0.00000
      384.019       0.00000
      384.121       0.00000
      384.223       0.00000
      384.326       0.00000
      384.428       0.00000
      384.531       0.00000
      384.633       0.00000
      384.736       0.00000
      384.838       0.00000
      384.941       0.00000
      385.043       0.00000
      385.146       0.00000
      385.249       0.00000
      385.351       0.00000
      385.454       0.00000
      385.557       0.00000
      385.660       0.00000
      385.762       0.00000
      385.865       0.00000
      385.968       0.00000
      386.071       0.00000
      386.174       0.00000
      386.277       0.00000
      386.380       0.00000
      386.483       0.00000
      386.586       0.00000
      386.689       0.00000
      386.792       0.00000
      386.895       0.00000
      386.998       0.00000
      387.101       0.00000
      387.204       0.00000
      387.308       0.00000
      387.411       0.00000
      387.514       0.00000
      387.617       0.00000
      387.721       0.00000
      387.824       0.00000
      387.927       0.00000
      388.031       0.00000
      388.134       0.00000
      388.238       0.00000
      388.341       0.00000
      388.445       0.00000
      388.548       0.00000
      388.652       0.00000
      388.755       0.00000
      388.859       0.00000
      388.962       0.00000
      389.066       0.00000
      389.170       0.00000
      389.274       0.00000
      389.377       0.00000
      389.481       0.00000
      389.585       0.00000
      389.689       0.00000
      389.793       0.00000
      389.897       0.00000
      390.000       0.00000
      390.104       0.00000
      390.208       0.00000
      390.312       0.00000
      390.416       0.00000
      390.520       0.00000
      390.625       0.00000
      390.729       0.00000
      390.833       0.00000
      390.937       0.00000
      391.041       0.00000
      391.145       0.00000
      391.250       0.00000
      391.354       0.00000
      391.458       0.00000
      391.563       0.00000
      391.667       0.00000
      391.771       0.00000
      391.876       0.00000
      391.980       0.00000
      392.085       0.00000
      392.189       0.00000
      392.294       0.00000
      392.398       0.00000
      392.503       0.00000
      392.607       0.00000
      392.712       0.00000
      392.817       0.00000
      392.921       0.00000
      393.026       0.00000
      393.131       0.00000
      393.236       0.00000
      393.340       0.00000
      393.445       0.00000
      393.550       0.00000
      393.655       0.00000
      393.760       0.00000
      393.865       0.00000
      393.970       0.00000
      394.075       0.00000
      394.180       0.00000
      394.285       0.00000
      394.390       0.00000
      394.495       0.00000
      394.600       0.00000
      394.706       0.00000
      394.811       0.00000
      394.916       0.00000
      395.021       0.00000
      395.126       0.00000
      395.232       0.00000
      395.337       0.00000
      395.443       0.00000
      395.548       0.00000
      395.653       0.00000
      395.759       0.00000
      395.864       0.00000
      395.970       0.00000
      396.075       0.00000
      396.181       0.00000
      396.286       0.00000
      396.392       0.00000
      396.498       0.00000
      396.603       0.00000
      396.709       0.00000
      396.815       0.00000
      396.921       0.00000
      397.026       0.00000
      397.132       0.00000
      397.238       0.00000
      397.344       0.00000
      397.450       0.00000
      397.556       0.00000
      397.662       0.00000
      397.768       0.00000
      397.874       0.00000
      397.980       0.00000
      398.086       0.00000
      398.192       0.00000
      398.298       0.00000
      398.404       0.00000
      398.510       0.00000
      398.617       0.00000
      398.723       0.00000
      398.829       0.00000
      398.935       0.00000
      399.042       0.00000
      399.148       0.00000
      399.255       0.00000
      399.361       0.00000
      399.467       0.00000
      399.574       0.00000
      399.680       0.00000
      399.787       0.00000
      399.893       0.00000
      400.000       0.00000
