Filter Be-med
observation_date 22-Sept-2006 22:40:45
wavelength effective area 
      1.00000   2.78117e-10
      1.10000   7.93785e-10
      1.20000   2.06301e-09
      1.30000   4.93148e-09
      1.40000   1.11854e-08
      1.50000   2.38515e-08
      1.60000   4.82577e-08
      1.70000   9.36240e-08
      1.80000   1.74170e-07
      1.90000   3.12762e-07
      2.00000   5.43194e-07
      2.10000   9.16457e-07
      2.20000   1.50924e-06
      2.30000   2.42270e-06
      2.40000   3.79760e-06
      2.50000   5.79384e-06
      2.60000   8.82531e-06
      2.70000   1.31306e-05
      2.80000   1.91591e-05
      2.90000   2.76620e-05
      3.00000   3.93075e-05
      3.10000   5.51280e-05
      3.20000   7.64559e-05
      3.30000   0.000104932
      3.40000   0.000142481
      3.50000   0.000191548
      3.60000   0.000256253
      3.70000   0.000339095
      3.80000   0.000446725
      3.90000   0.000585080
      4.00000   0.000761298
      4.10000   0.000985710
      4.20000    0.00127148
      4.30000    0.00163494
      4.40000    0.00209601
      4.50000    0.00267886
      4.60000    0.00341123
      4.70000    0.00434204
      4.80000    0.00551899
      4.90000    0.00692287
      5.00000    0.00890798
      5.10000     0.0112978
      5.20000     0.0143634
      5.30000     0.0181017
      5.40000     0.0227638
      5.50000     0.0286650
      5.60000     0.0349757
      5.70000     0.0449414
      5.80000     0.0520421
      5.90000     0.0784610
      6.00000      0.104098
      6.10000      0.131249
      6.20000      0.158955
      6.30000      0.184456
      6.40000      0.205220
      6.50000      0.219129
      6.60000      0.223282
      6.70000      0.226452
      6.80000      0.222998
      6.90000      0.287526
      7.00000      0.307114
      7.10000      0.318831
      7.20000      0.326317
      7.30000      0.330748
      7.40000      0.332150
      7.50000      0.331548
      7.60000      0.329104
      7.70000      0.324073
      7.80000      0.316011
      7.90000      0.308286
      8.00000      0.434911
      8.10000      0.464409
      8.20000      0.459991
      8.30000      0.453362
      8.40000      0.444736
      8.50000      0.435247
      8.60000      0.424862
      8.70000      0.413908
      8.80000      0.402352
      8.90000      0.390416
      9.00000      0.378147
      9.10000      0.365618
      9.20000      0.352922
      9.30000      0.340124
      9.40000      0.327260
      9.50000      0.314380
      9.60000      0.301566
      9.70000      0.288824
      9.80000      0.276211
      9.90000      0.263796
      10.0000      0.251610
      10.1000      0.239645
      10.2000      0.227925
      10.3000      0.216489
      10.4000      0.205358
      10.5000      0.194520
      10.6000      0.183990
      10.7000      0.173780
      10.8000      0.163916
      10.9000      0.154426
      11.0000      0.145280
      11.1000      0.136486
      11.2000      0.128045
      11.3000      0.119959
      11.4000      0.112223
      11.5000      0.104834
      11.6000     0.0977914
      11.7000     0.0911029
      11.8000     0.0847475
      11.9000     0.0787035
      12.0000     0.0728940
      12.1000     0.0676375
      12.2000     0.0638189
      12.3000     0.0595233
      12.4000     0.0550344
      12.5000     0.0507816
      12.6000     0.0467806
      12.7000     0.0430306
      12.8000     0.0395231
      12.9000     0.0362474
      13.0000     0.0331949
      13.1000     0.0303556
      13.2000     0.0277230
      13.3000     0.0252992
      13.4000     0.0230653
      13.5000     0.0210013
      13.6000     0.0191090
      13.7000     0.0173640
      13.8000     0.0157567
      13.9000     0.0142784
      14.0000     0.0129203
      14.1000     0.0116722
      14.2000     0.0105256
      14.3000    0.00947470
      14.4000    0.00851393
      14.5000    0.00764209
      14.6000    0.00685552
      14.7000    0.00613925
      14.8000    0.00548786
      14.9000    0.00489627
      15.0000    0.00435982
      15.1000    0.00387424
      15.2000    0.00344433
      15.3000    0.00305756
      15.4000    0.00270847
      15.5000    0.00239389
      15.6000    0.00211096
      15.7000    0.00186054
      15.8000    0.00163994
      15.9000    0.00144192
      16.0000    0.00126448
      16.1000    0.00110581
      16.2000   0.000968428
      16.3000   0.000847009
      16.4000   0.000738530
      16.5000   0.000641840
      16.6000   0.000557753
      16.7000   0.000485016
      16.8000   0.000420218
      16.9000   0.000362671
      17.0000   0.000313144
      17.1000   0.000270778
      17.2000   0.000233318
      17.3000   0.000200321
      17.4000   0.000172659
      17.5000   0.000148495
      17.6000   0.000127215
      17.7000   0.000109103
      17.8000   9.44073e-05
      17.9000   8.13388e-05
      18.0000   6.97155e-05
      18.1000   6.01333e-05
      18.2000   5.15447e-05
      18.3000   4.38098e-05
      18.4000   3.72153e-05
      18.5000   3.14816e-05
      18.6000   2.63573e-05
      18.7000   2.20343e-05
      18.8000   1.84128e-05
      18.9000   1.52364e-05
      19.0000   1.26623e-05
      19.1000   1.05174e-05
      19.2000   8.63942e-06
      19.3000   7.14996e-06
      19.4000   5.90912e-06
      19.5000   4.83536e-06
      19.6000   4.03248e-06
      19.7000   3.33502e-06
      19.8000   2.73111e-06
      19.9000   2.27158e-06
      20.0000   1.86221e-06
      20.1000   1.52622e-06
      20.2000   1.25755e-06
      20.3000   1.01993e-06
      20.4000   8.38186e-07
      20.5000   6.82743e-07
      20.6000   5.50760e-07
      20.7000   4.51365e-07
      20.8000   3.62628e-07
      20.9000   2.94470e-07
      21.0000   2.37677e-07
      21.1000   1.89421e-07
      21.2000   1.53868e-07
      21.3000   1.21979e-07
      21.4000   9.83009e-08
      21.5000   7.82578e-08
      21.6000   6.19023e-08
      21.7000   4.95485e-08
      21.8000   3.85274e-08
      21.9000   3.09201e-08
      22.0000   2.40745e-08
      22.1000   1.90047e-08
      22.2000   1.48517e-08
      22.3000   1.14965e-08
      22.4000   8.90267e-09
      22.5000   6.55597e-09
      22.6000   4.72438e-09
      22.7000   3.18998e-09
      22.8000   3.04154e-09
      22.9000   3.00547e-09
      23.0000   3.05539e-09
      23.1000   2.84963e-09
      23.2000   2.40398e-09
      23.3000   1.96479e-09
      23.4000   1.52955e-09
      23.5000   1.21638e-09
      23.6000   9.33459e-10
      23.7000   7.43446e-10
      23.8000   5.63603e-10
      23.9000   4.48705e-10
      24.0000   3.39658e-10
      24.1000   2.68199e-10
      24.2000   2.02575e-10
      24.3000   1.58804e-10
      24.4000   1.19722e-10
      24.5000   9.32164e-11
      24.6000   7.00946e-11
      24.7000   5.42587e-11
      24.8000   4.06769e-11
      24.9000   3.13289e-11
      25.0000   2.33930e-11
      25.1000   1.79459e-11
      25.2000   1.33335e-11
      25.3000   1.01988e-11
      25.4000   7.53014e-12
      25.5000   5.75027e-12
      25.6000   4.21390e-12
      25.7000   3.21648e-12
      25.8000   2.33600e-12
      25.9000   1.78452e-12
      26.0000   1.28244e-12
      26.1000   9.81631e-13
      26.2000   6.96884e-13
      26.3000   5.35146e-13
      26.4000   3.74739e-13
      26.5000   2.89007e-13
      26.6000   2.03577e-13
      26.7000   1.54522e-13
      26.8000   1.09912e-13
      26.9000   8.17494e-14
      27.0000   5.87899e-14
      27.1000   4.27476e-14
      27.2000   3.11081e-14
      27.3000   2.20982e-14
      27.4000   1.63610e-14
      27.5000   1.13785e-14
      27.6000   8.51473e-15
      27.7000   5.74324e-15
      27.8000   4.35493e-15
      27.9000   2.97128e-15
      28.0000   2.19387e-15
      28.1000   1.53627e-15
      28.2000   1.08866e-15
      28.3000   7.81413e-16
      28.4000   5.31693e-16
      28.5000   3.90620e-16
      28.6000   2.55373e-16
      28.7000   1.91758e-16
      28.8000   1.28358e-16
      28.9000   9.23811e-17
      29.0000   6.42832e-17
      29.1000   4.36315e-17
      29.2000   3.14084e-17
      29.3000   2.01890e-17
      29.4000   1.49725e-17
      29.5000   9.77388e-18
      29.6000   6.96426e-18
      29.7000   4.78876e-18
      29.8000   3.16085e-18
      29.9000   2.26825e-18
      30.0000   1.39964e-18
      30.1000   1.04078e-18
      30.2000   6.83123e-19
      30.3000   4.66953e-19
      30.4000   3.31900e-19
      30.5000   2.13483e-19
      30.6000   1.55646e-19
      30.7000   9.80019e-20
      30.8000   6.79292e-20
      30.9000   4.61887e-20
      31.0000   2.87145e-20
      31.1000   2.07980e-20
      31.2000   1.29078e-20
      31.3000   9.09229e-21
      31.4000   6.15597e-21
      31.5000   3.82406e-21
      31.6000   2.75487e-21
      31.7000   1.68924e-21
      31.8000   1.17162e-21
      31.9000   7.92643e-22
      32.0000   4.78386e-22
      32.1000   3.49120e-22
      32.2000   2.20279e-22
      32.3000   1.49004e-22
      32.4000   1.03201e-22
      32.5000   6.08041e-23
      32.6000   4.48766e-23
      32.7000   2.90012e-23
      32.8000   1.84333e-23
      32.9000   1.30311e-23
      33.0000   7.64695e-24
      33.1000   5.42317e-24
      33.2000   3.63266e-24
      33.3000   2.12906e-24
      33.4000   1.54684e-24
      33.5000   9.66530e-25
      33.6000   6.11111e-25
      33.7000   4.26842e-25
      33.8000   2.43153e-25
      33.9000   1.70667e-25
      34.0000   1.13716e-25
      34.1000   6.35814e-26
      34.2000   4.63566e-26
      34.3000   2.91800e-26
      34.4000   1.73013e-26
      34.5000   1.22362e-26
      34.6000   7.18562e-27
      34.7000   4.59011e-27
      34.8000   3.13809e-27
      34.9000   1.69009e-27
      35.0000   1.18649e-27
      35.1000   7.81582e-28
      35.2000   4.09400e-28
      35.3000   2.99182e-28
      35.4000   1.89268e-28
      35.5000   1.02740e-28
      35.6000   7.36317e-29
      35.7000   4.46031e-29
      35.8000   2.51729e-29
      35.9000   1.76975e-29
      36.0000   1.02425e-29
      36.1000   6.02208e-30
      36.2000   4.15694e-30
      36.3000   2.29686e-30
      36.4000   1.40719e-30
      36.5000   9.55212e-31
      36.6000   5.04494e-31
      36.7000   3.21243e-31
      36.8000   2.14934e-31
      36.9000   1.08919e-31
      37.0000   7.16500e-32
      37.1000   4.73935e-32
      37.2000   2.32019e-32
      37.3000   1.56104e-32
      37.4000   1.02457e-32
      37.5000   4.89572e-33
      37.6000   3.32194e-33
      37.7000   2.17270e-33
      37.8000   1.02660e-33
      37.9000   6.90361e-34
      38.0000   4.51930e-34
      38.1000   2.14136e-34
      38.2000   1.39979e-34
      38.3000   9.21113e-35
      38.4000   4.43708e-35
      38.5000   2.76525e-35
      38.6000   1.83683e-35
      38.7000   9.10871e-36
      38.8000   5.31913e-36
      38.9000   3.57970e-36
      39.0000   1.84479e-36
      39.1000   9.95404e-37
      39.2000   6.80638e-37
      39.3000   3.66685e-37
      39.4000   1.80732e-37
      39.5000   1.25441e-37
      39.6000   7.02966e-38
      39.7000   3.08884e-38
      39.8000   2.18631e-38
      39.9000   1.28609e-38
      40.0000   5.09193e-39
      40.1000   3.67902e-39
      40.2000   2.26969e-39
      40.3000   8.64097e-40
      40.4000   5.97899e-40
      40.5000   3.85734e-40
      40.6000   1.74096e-40
      40.7000   9.36053e-41
      40.8000   6.29281e-41
      40.9000   3.23238e-41
      41.0000   1.40830e-41
      41.1000   9.82731e-42
      41.2000   5.58417e-42
      41.3000   2.03469e-42
      41.4000   1.46716e-42
      41.5000   9.03838e-43
      41.6000   3.41917e-43
      41.7000   2.07392e-43
      41.8000   1.34525e-43
      41.9000   6.44597e-44
      42.0000   2.94273e-44
      42.1000   2.24208e-44
      42.2000   9.80909e-45
      42.3000   2.80260e-45
      42.4000   2.80260e-45
      42.5000   2.80260e-45
      42.6000  -2.80260e-45
      42.7000       0.00000
      42.8000       0.00000
      42.9000       0.00000
      43.0000       0.00000
      43.1000       0.00000
      43.2000       0.00000
      43.3000       0.00000
      43.4000       0.00000
      43.5000       0.00000
      43.6000       0.00000
      43.7000       0.00000
      43.8000       0.00000
      43.9000       0.00000
      44.0000       0.00000
      44.1000       0.00000
      44.2000       0.00000
      44.3000       0.00000
      44.4000       0.00000
      44.5000       0.00000
      44.6000       0.00000
      44.7000       0.00000
      44.8000       0.00000
      44.9000       0.00000
      45.0000       0.00000
      45.1000       0.00000
      45.2000       0.00000
      45.3000       0.00000
      45.4000       0.00000
      45.5000       0.00000
      45.6000       0.00000
      45.7000       0.00000
      45.8000       0.00000
      45.9000       0.00000
      46.0000       0.00000
      46.1000       0.00000
      46.2000       0.00000
      46.3000       0.00000
      46.4000       0.00000
      46.5000       0.00000
      46.6000       0.00000
      46.7000       0.00000
      46.8000       0.00000
      46.9000       0.00000
      47.0000       0.00000
      47.1000       0.00000
      47.2000       0.00000
      47.3000       0.00000
      47.4000       0.00000
      47.5000       0.00000
      47.6000       0.00000
      47.7000       0.00000
      47.8000       0.00000
      47.9000       0.00000
      48.0000       0.00000
      48.1000       0.00000
      48.2000       0.00000
      48.3000       0.00000
      48.4000       0.00000
      48.5000       0.00000
      48.6000       0.00000
      48.7000       0.00000
      48.8000       0.00000
      48.9000       0.00000
      49.0000       0.00000
      49.1000       0.00000
      49.2000       0.00000
      49.3000       0.00000
      49.4000       0.00000
      49.5000       0.00000
      49.6000       0.00000
      49.7000       0.00000
      49.8000       0.00000
      49.9000       0.00000
      50.0000       0.00000
      50.1000       0.00000
      50.2000       0.00000
      50.3000       0.00000
      50.4000       0.00000
      50.5000       0.00000
      50.6000       0.00000
      50.7000       0.00000
      50.8000       0.00000
      50.9000       0.00000
      51.0000       0.00000
      51.1000       0.00000
      51.2000       0.00000
      51.3000       0.00000
      51.4000       0.00000
      51.5000       0.00000
      51.6000       0.00000
      51.7000       0.00000
      51.8000       0.00000
      51.9000       0.00000
      52.0000       0.00000
      52.1000       0.00000
      52.2000       0.00000
      52.3000       0.00000
      52.4000       0.00000
      52.5000       0.00000
      52.6000       0.00000
      52.7000       0.00000
      52.8000       0.00000
      52.9000       0.00000
      53.0000       0.00000
      53.1000       0.00000
      53.2000       0.00000
      53.3000       0.00000
      53.4000       0.00000
      53.5000       0.00000
      53.6000       0.00000
      53.7000       0.00000
      53.8000       0.00000
      53.9000       0.00000
      54.0000       0.00000
      54.1000       0.00000
      54.2000       0.00000
      54.3000       0.00000
      54.4000       0.00000
      54.5000       0.00000
      54.6000       0.00000
      54.7000       0.00000
      54.8000       0.00000
      54.9000       0.00000
      55.0000       0.00000
      55.1000       0.00000
      55.2000       0.00000
      55.3000       0.00000
      55.4000       0.00000
      55.5000       0.00000
      55.6000       0.00000
      55.7000       0.00000
      55.8000       0.00000
      55.9000       0.00000
      56.0000       0.00000
      56.1000       0.00000
      56.2000       0.00000
      56.3000       0.00000
      56.4000       0.00000
      56.5000       0.00000
      56.6000       0.00000
      56.7000       0.00000
      56.8000       0.00000
      56.9000       0.00000
      57.0000       0.00000
      57.1000       0.00000
      57.2000       0.00000
      57.3000       0.00000
      57.4000       0.00000
      57.5000       0.00000
      57.6000       0.00000
      57.7000       0.00000
      57.8000       0.00000
      57.9000       0.00000
      58.0000       0.00000
      58.1000       0.00000
      58.2000       0.00000
      58.3000       0.00000
      58.4000       0.00000
      58.5000       0.00000
      58.6000       0.00000
      58.7000       0.00000
      58.8000       0.00000
      58.9000       0.00000
      59.0000       0.00000
      59.1000       0.00000
      59.2000       0.00000
      59.3000       0.00000
      59.4000       0.00000
      59.5000       0.00000
      59.6000       0.00000
      59.7000       0.00000
      59.8000       0.00000
      59.9000       0.00000
      60.0000       0.00000
      60.1000       0.00000
      60.2000       0.00000
      60.3000       0.00000
      60.4000       0.00000
      60.5000       0.00000
      60.6000       0.00000
      60.7000       0.00000
      60.8000       0.00000
      60.9000       0.00000
      61.0000       0.00000
      61.1000       0.00000
      61.2000       0.00000
      61.3000       0.00000
      61.4000       0.00000
      61.5000       0.00000
      61.6000       0.00000
      61.7000       0.00000
      61.8000       0.00000
      61.9000       0.00000
      62.0000       0.00000
      62.1000       0.00000
      62.2000       0.00000
      62.3000       0.00000
      62.4000       0.00000
      62.5000       0.00000
      62.6000       0.00000
      62.7000       0.00000
      62.8000       0.00000
      62.9000       0.00000
      63.0000       0.00000
      63.1000       0.00000
      63.2000       0.00000
      63.3000       0.00000
      63.4000       0.00000
      63.5000       0.00000
      63.6000       0.00000
      63.7000       0.00000
      63.8000       0.00000
      63.9000       0.00000
      64.0000       0.00000
      64.1000       0.00000
      64.2000       0.00000
      64.3000       0.00000
      64.4000       0.00000
      64.5000       0.00000
      64.6000       0.00000
      64.7000       0.00000
      64.8000       0.00000
      64.9000       0.00000
      65.0000       0.00000
      65.1000       0.00000
      65.2000       0.00000
      65.3000       0.00000
      65.4000       0.00000
      65.5000       0.00000
      65.6000       0.00000
      65.7000       0.00000
      65.8000       0.00000
      65.9000       0.00000
      66.0000       0.00000
      66.1000       0.00000
      66.2000       0.00000
      66.3000       0.00000
      66.4000       0.00000
      66.5000       0.00000
      66.6000       0.00000
      66.7000       0.00000
      66.8000       0.00000
      66.9000       0.00000
      67.0000       0.00000
      67.1000       0.00000
      67.2000       0.00000
      67.3000       0.00000
      67.4000       0.00000
      67.5000       0.00000
      67.6000       0.00000
      67.7000       0.00000
      67.8000       0.00000
      67.9000       0.00000
      68.0000       0.00000
      68.1000       0.00000
      68.2000       0.00000
      68.3000       0.00000
      68.4000       0.00000
      68.5000       0.00000
      68.6000       0.00000
      68.7000       0.00000
      68.8000       0.00000
      68.9000       0.00000
      69.0000       0.00000
      69.1000       0.00000
      69.2000       0.00000
      69.3000       0.00000
      69.4000       0.00000
      69.5000       0.00000
      69.6000       0.00000
      69.7000       0.00000
      69.8000       0.00000
      69.9000       0.00000
      70.0000       0.00000
      70.1000       0.00000
      70.2000       0.00000
      70.3000       0.00000
      70.4000       0.00000
      70.5000       0.00000
      70.6000       0.00000
      70.7000       0.00000
      70.8000       0.00000
      70.9000       0.00000
      71.0000       0.00000
      71.1000       0.00000
      71.2000       0.00000
      71.3000       0.00000
      71.4000       0.00000
      71.5000       0.00000
      71.6000       0.00000
      71.7000       0.00000
      71.8000       0.00000
      71.9000       0.00000
      72.0000       0.00000
      72.1000       0.00000
      72.2000       0.00000
      72.3000       0.00000
      72.4000       0.00000
      72.5000       0.00000
      72.6000       0.00000
      72.7000       0.00000
      72.8000       0.00000
      72.9000       0.00000
      73.0000       0.00000
      73.1000       0.00000
      73.2000       0.00000
      73.3000       0.00000
      73.4000       0.00000
      73.5000       0.00000
      73.6000       0.00000
      73.7000       0.00000
      73.8000       0.00000
      73.9000       0.00000
      74.0000       0.00000
      74.1000       0.00000
      74.2000       0.00000
      74.3000       0.00000
      74.4000       0.00000
      74.5000       0.00000
      74.6000       0.00000
      74.7000       0.00000
      74.8000       0.00000
      74.9000       0.00000
      75.0000       0.00000
      75.1000       0.00000
      75.2000       0.00000
      75.3000       0.00000
      75.4000       0.00000
      75.5000       0.00000
      75.6000       0.00000
      75.7000       0.00000
      75.8000       0.00000
      75.9000       0.00000
      76.0000       0.00000
      76.1000       0.00000
      76.2000       0.00000
      76.3000       0.00000
      76.4000       0.00000
      76.5000       0.00000
      76.6000       0.00000
      76.7000       0.00000
      76.8000       0.00000
      76.9000       0.00000
      77.0000       0.00000
      77.1000       0.00000
      77.2000       0.00000
      77.3000       0.00000
      77.4000       0.00000
      77.5000       0.00000
      77.6000       0.00000
      77.7000       0.00000
      77.8000       0.00000
      77.9000       0.00000
      78.0000       0.00000
      78.1000       0.00000
      78.2000       0.00000
      78.3000       0.00000
      78.4000       0.00000
      78.5000       0.00000
      78.6000       0.00000
      78.7000       0.00000
      78.8000       0.00000
      78.9000       0.00000
      79.0000       0.00000
      79.1000       0.00000
      79.2000       0.00000
      79.3000       0.00000
      79.4000       0.00000
      79.5000       0.00000
      79.6000       0.00000
      79.7000       0.00000
      79.8000       0.00000
      79.9000       0.00000
      80.0000       0.00000
      80.1000       0.00000
      80.2000       0.00000
      80.3000       0.00000
      80.4000       0.00000
      80.5000       0.00000
      80.6000       0.00000
      80.7000       0.00000
      80.8000       0.00000
      80.9000       0.00000
      81.0000       0.00000
      81.1000       0.00000
      81.2000       0.00000
      81.3000       0.00000
      81.4000       0.00000
      81.5000       0.00000
      81.6000       0.00000
      81.7000       0.00000
      81.8000       0.00000
      81.9000       0.00000
      82.0000       0.00000
      82.1000       0.00000
      82.2000       0.00000
      82.3000       0.00000
      82.4000       0.00000
      82.5000       0.00000
      82.6000       0.00000
      82.7000       0.00000
      82.8000       0.00000
      82.9000       0.00000
      83.0000       0.00000
      83.1000       0.00000
      83.2000       0.00000
      83.3000       0.00000
      83.4000       0.00000
      83.5000       0.00000
      83.6000       0.00000
      83.7000       0.00000
      83.8000       0.00000
      83.9000       0.00000
      84.0000       0.00000
      84.1000       0.00000
      84.2000       0.00000
      84.3000       0.00000
      84.4000       0.00000
      84.5000       0.00000
      84.6000       0.00000
      84.7000       0.00000
      84.8000       0.00000
      84.9000       0.00000
      85.0000       0.00000
      85.1000       0.00000
      85.2000       0.00000
      85.3000       0.00000
      85.4000       0.00000
      85.5000       0.00000
      85.6000       0.00000
      85.7000       0.00000
      85.8000       0.00000
      85.9000       0.00000
      86.0000       0.00000
      86.1000       0.00000
      86.2000       0.00000
      86.3000       0.00000
      86.4000       0.00000
      86.5000       0.00000
      86.6000       0.00000
      86.7000       0.00000
      86.8000       0.00000
      86.9000       0.00000
      87.0000       0.00000
      87.1000       0.00000
      87.2000       0.00000
      87.3000       0.00000
      87.4000       0.00000
      87.5000       0.00000
      87.6000       0.00000
      87.7000       0.00000
      87.8000       0.00000
      87.9000       0.00000
      88.0000       0.00000
      88.1000       0.00000
      88.2000       0.00000
      88.3000       0.00000
      88.4000       0.00000
      88.5000       0.00000
      88.6000       0.00000
      88.7000       0.00000
      88.8000       0.00000
      88.9000       0.00000
      89.0000       0.00000
      89.1000       0.00000
      89.2000       0.00000
      89.3000       0.00000
      89.4000       0.00000
      89.5000       0.00000
      89.6000       0.00000
      89.7000       0.00000
      89.8000       0.00000
      89.9000       0.00000
      90.0000       0.00000
      90.1000       0.00000
      90.2000       0.00000
      90.3000       0.00000
      90.4000       0.00000
      90.5000       0.00000
      90.6000       0.00000
      90.7000       0.00000
      90.8000       0.00000
      90.9000       0.00000
      91.0000       0.00000
      91.1000       0.00000
      91.2000       0.00000
      91.3000       0.00000
      91.4000       0.00000
      91.5000       0.00000
      91.6000       0.00000
      91.7000       0.00000
      91.8000       0.00000
      91.9000       0.00000
      92.0000       0.00000
      92.1000       0.00000
      92.2000       0.00000
      92.3000       0.00000
      92.4000       0.00000
      92.5000       0.00000
      92.6000       0.00000
      92.7000       0.00000
      92.8000       0.00000
      92.9000       0.00000
      93.0000       0.00000
      93.1000       0.00000
      93.2000       0.00000
      93.3000       0.00000
      93.4000       0.00000
      93.5000       0.00000
      93.6000       0.00000
      93.7000       0.00000
      93.8000       0.00000
      93.9000       0.00000
      94.0000       0.00000
      94.1000       0.00000
      94.2000       0.00000
      94.3000       0.00000
      94.4000       0.00000
      94.5000       0.00000
      94.6000       0.00000
      94.7000       0.00000
      94.8000       0.00000
      94.9000       0.00000
      95.0000       0.00000
      95.1000       0.00000
      95.2000       0.00000
      95.3000       0.00000
      95.4000       0.00000
      95.5000       0.00000
      95.6000       0.00000
      95.7000       0.00000
      95.8000       0.00000
      95.9000       0.00000
      96.0000       0.00000
      96.1000       0.00000
      96.2000       0.00000
      96.3000       0.00000
      96.4000       0.00000
      96.5000       0.00000
      96.6000       0.00000
      96.7000       0.00000
      96.8000       0.00000
      96.9000       0.00000
      97.0000       0.00000
      97.1000       0.00000
      97.2000       0.00000
      97.3000       0.00000
      97.4000       0.00000
      97.5000       0.00000
      97.6000       0.00000
      97.7000       0.00000
      97.8000       0.00000
      97.9000       0.00000
      98.0000       0.00000
      98.1000       0.00000
      98.2000       0.00000
      98.3000       0.00000
      98.4000       0.00000
      98.5000       0.00000
      98.6000       0.00000
      98.7000       0.00000
      98.8000       0.00000
      98.9000       0.00000
      99.0000       0.00000
      99.1000       0.00000
      99.2000       0.00000
      99.3000       0.00000
      99.4000       0.00000
      99.5000       0.00000
      99.6000       0.00000
      99.7000       0.00000
      99.8000       0.00000
      99.9000       0.00000
      100.000       0.00000
      100.100       0.00000
      100.200       0.00000
      100.300       0.00000
      100.400       0.00000
      100.500       0.00000
      100.600       0.00000
      100.700       0.00000
      100.800       0.00000
      100.900       0.00000
      101.000       0.00000
      101.100       0.00000
      101.200       0.00000
      101.300       0.00000
      101.400       0.00000
      101.500       0.00000
      101.600       0.00000
      101.700       0.00000
      101.800       0.00000
      101.900       0.00000
      102.000       0.00000
      102.100       0.00000
      102.200       0.00000
      102.300       0.00000
      102.400       0.00000
      102.500       0.00000
      102.600       0.00000
      102.700       0.00000
      102.800       0.00000
      102.900       0.00000
      103.000       0.00000
      103.100       0.00000
      103.200       0.00000
      103.300       0.00000
      103.400       0.00000
      103.500       0.00000
      103.600       0.00000
      103.700       0.00000
      103.800       0.00000
      103.900       0.00000
      104.000       0.00000
      104.100       0.00000
      104.200       0.00000
      104.300       0.00000
      104.400       0.00000
      104.500       0.00000
      104.600       0.00000
      104.700       0.00000
      104.800       0.00000
      104.900       0.00000
      105.000       0.00000
      105.100       0.00000
      105.200       0.00000
      105.300       0.00000
      105.400       0.00000
      105.500       0.00000
      105.600       0.00000
      105.700       0.00000
      105.800       0.00000
      105.900       0.00000
      106.000       0.00000
      106.100       0.00000
      106.200       0.00000
      106.300       0.00000
      106.400       0.00000
      106.500       0.00000
      106.600       0.00000
      106.700       0.00000
      106.800       0.00000
      106.900       0.00000
      107.000       0.00000
      107.100       0.00000
      107.200       0.00000
      107.300       0.00000
      107.400       0.00000
      107.500       0.00000
      107.600       0.00000
      107.700       0.00000
      107.800       0.00000
      107.900       0.00000
      108.000       0.00000
      108.100       0.00000
      108.200       0.00000
      108.300       0.00000
      108.400       0.00000
      108.500       0.00000
      108.600       0.00000
      108.700       0.00000
      108.800       0.00000
      108.900       0.00000
      109.000       0.00000
      109.100       0.00000
      109.200       0.00000
      109.300       0.00000
      109.400       0.00000
      109.500       0.00000
      109.600       0.00000
      109.700       0.00000
      109.800       0.00000
      109.900       0.00000
      110.000       0.00000
      110.100       0.00000
      110.200       0.00000
      110.300       0.00000
      110.400       0.00000
      110.500       0.00000
      110.600       0.00000
      110.700       0.00000
      110.800       0.00000
      110.900   5.63605e-35
      111.000   3.02558e-28
      111.100   3.57352e-24
      111.200   4.96371e-23
      111.300   2.50370e-22
      111.400   8.27744e-22
      111.500   1.09766e-21
      111.600   1.48851e-21
      111.700   2.74819e-21
      111.800   4.98664e-21
      111.900   6.52485e-21
      112.000   1.04930e-20
      112.100   1.88055e-20
      112.200   2.86689e-20
      112.300   3.68408e-20
      112.400   4.60938e-20
      112.500   6.12966e-20
      112.600   8.71312e-20
      112.700   1.18525e-19
      112.800   1.36966e-19
      112.900   1.77643e-19
      113.000   2.27370e-19
      113.100   2.72469e-19
      113.200   3.13269e-19
      113.300   3.19009e-19
      113.400   3.99225e-19
      113.500   4.94256e-19
      113.600   5.10044e-19
      113.700   6.14522e-19
      113.800   6.99805e-19
      113.900   7.79472e-19
      114.000   8.30807e-19
      114.100   8.67429e-19
      114.200   1.11708e-18
      114.300   1.28526e-18
      114.400   1.24832e-18
      114.500   1.14443e-18
      114.600   1.14214e-18
      114.700   1.16210e-18
      114.800   1.21316e-18
      114.900   1.34106e-18
      115.000   1.47346e-18
      115.100   1.56155e-18
      115.200   1.58613e-18
      115.300   1.61255e-18
      115.400   1.63794e-18
      115.500   1.66440e-18
      115.600   1.69061e-18
      115.700   1.71620e-18
      115.800   1.74344e-18
      115.900   1.77037e-18
      116.000   1.79319e-18
      116.100   1.80325e-18
      116.200   1.81141e-18
      116.300   1.81916e-18
      116.400   1.81951e-18
      116.500   1.78099e-18
      116.600   1.74287e-18
      116.700   1.70587e-18
      116.800   1.66928e-18
      116.900   1.63196e-18
      117.000   1.59714e-18
      117.100   1.56777e-18
      117.200   1.54220e-18
      117.300   1.51389e-18
      117.400   1.48589e-18
      117.500   1.45151e-18
      117.600   1.40226e-18
      117.700   1.35022e-18
      117.800   1.29924e-18
      117.900   1.24976e-18
      118.000   1.20138e-18
      118.100   1.15420e-18
      118.200   1.10941e-18
      118.300   1.06657e-18
      118.400   1.02292e-18
      118.500   9.81233e-19
      118.600   9.42243e-19
      118.700   9.04431e-19
      118.800   8.67648e-19
      118.900   8.32647e-19
      119.000   7.97976e-19
      119.100   7.63560e-19
      119.200   7.37736e-19
      119.300   7.24090e-19
      119.400   7.13869e-19
      119.500   7.00715e-19
      119.600   6.82505e-19
      119.700   6.62651e-19
      119.800   6.41990e-19
      119.900   6.20175e-19
      120.000   5.99595e-19
      120.100   5.80085e-19
      120.200   5.63212e-19
      120.300   5.47963e-19
      120.400   5.33104e-19
      120.500   5.17093e-19
      120.600   5.00393e-19
      120.700   4.83839e-19
      120.800   4.68025e-19
      120.900   4.54545e-19
      121.000   4.44256e-19
      121.100   4.34388e-19
      121.200   4.25457e-19
      121.300   4.15840e-19
      121.400   4.05718e-19
      121.500   3.95175e-19
      121.600   3.78528e-19
      121.700   3.62199e-19
      121.800   3.45861e-19
      121.900   3.30114e-19
      122.000   3.14601e-19
      122.100   3.00055e-19
      122.200   2.86172e-19
      122.300   2.74236e-19
      122.400   2.64202e-19
      122.500   2.54823e-19
      122.600   2.45598e-19
      122.700   2.36689e-19
      122.800   2.27812e-19
      122.900   2.19417e-19
      123.000   2.12714e-19
      123.100   2.08637e-19
      123.200   2.05831e-19
      123.300   2.07506e-19
      123.400   2.10098e-19
      123.500   2.13988e-19
      123.600   2.16748e-19
      123.700   2.15196e-19
      123.800   2.10057e-19
      123.900   2.05619e-19
      124.000   2.02185e-19
      124.100   2.01955e-19
      124.200   2.09210e-19
      124.300   2.22337e-19
      124.400   2.34196e-19
      124.500   2.33869e-19
      124.600   2.27635e-19
      124.700   2.18875e-19
      124.800   2.10507e-19
      124.900   2.02452e-19
      125.000   1.94691e-19
      125.100   1.87157e-19
      125.200   1.79904e-19
      125.300   1.72925e-19
      125.400   1.66217e-19
      125.500   1.59768e-19
      125.600   1.51790e-19
      125.700   1.43806e-19
      125.800   1.37208e-19
      125.900   1.34778e-19
      126.000   1.32667e-19
      126.100   1.30590e-19
      126.200   1.28546e-19
      126.300   1.26535e-19
      126.400   1.24554e-19
      126.500   1.22604e-19
      126.600   1.20686e-19
      126.700   1.18798e-19
      126.800   1.16941e-19
      126.900   1.15112e-19
      127.000   1.13309e-19
      127.100   1.10914e-19
      127.200   1.07857e-19
      127.300   1.04647e-19
      127.400   1.01531e-19
      127.500   9.85073e-20
      127.600   9.55731e-20
      127.700   9.27257e-20
      127.800   8.99622e-20
      127.900   8.72800e-20
      128.000   8.46772e-20
      128.100   8.21506e-20
      128.200   7.96988e-20
      128.300   7.73192e-20
      128.400   7.50107e-20
      128.500   7.27700e-20
      128.600   7.05962e-20
      128.700   6.84871e-20
      128.800   6.64399e-20
      128.900   6.44548e-20
      129.000   6.25298e-20
      129.100   6.06610e-20
      129.200   5.88437e-20
      129.300   5.70799e-20
      129.400   5.53688e-20
      129.500   5.37088e-20
      129.600   5.20983e-20
      129.700   5.05358e-20
      129.800   4.90195e-20
      129.900   4.75489e-20
      130.000   4.61223e-20
      130.100   4.47383e-20
      130.200   4.33953e-20
      130.300   4.20929e-20
      130.400   4.08294e-20
      130.500   3.96026e-20
      130.600   3.84085e-20
      130.700   3.72485e-20
      130.800   3.61231e-20
      130.900   3.50330e-20
      131.000   3.39758e-20
      131.100   3.29506e-20
      131.200   3.19559e-20
      131.300   3.09900e-20
      131.400   3.00533e-20
      131.500   2.91446e-20
      131.600   2.82630e-20
      131.700   2.74080e-20
      131.800   2.65783e-20
      131.900   2.57733e-20
      132.000   2.49924e-20
      132.100   2.42349e-20
      132.200   2.35001e-20
      132.300   2.27872e-20
      132.400   2.20956e-20
      132.500   2.14258e-20
      132.600   2.07764e-20
      132.700   2.01084e-20
      132.800   1.94486e-20
      132.900   1.88083e-20
      133.000   1.81887e-20
      133.100   1.75893e-20
      133.200   1.70094e-20
      133.300   1.64482e-20
      133.400   1.59053e-20
      133.500   1.53800e-20
      133.600   1.48718e-20
      133.700   1.43803e-20
      133.800   1.39048e-20
      133.900   1.34463e-20
      134.000   1.30027e-20
      134.100   1.25735e-20
      134.200   1.21585e-20
      134.300   1.17568e-20
      134.400   1.13684e-20
      134.500   1.09927e-20
      134.600   1.06292e-20
      134.700   1.02776e-20
      134.800   9.93760e-21
      134.900   9.60889e-21
      135.000   9.29085e-21
      135.100   8.98403e-21
      135.200   8.68736e-21
      135.300   8.40040e-21
      135.400   8.12277e-21
      135.500   7.85392e-21
      135.600   7.59366e-21
      135.700   7.34191e-21
      135.800   7.09832e-21
      135.900   6.86274e-21
      136.000   6.63478e-21
      136.100   6.41425e-21
      136.200   6.20156e-21
      136.300   5.99588e-21
      136.400   5.79698e-21
      136.500   5.60457e-21
      136.600   5.41837e-21
      136.700   5.23825e-21
      136.800   5.06402e-21
      136.900   4.89553e-21
      137.000   4.73266e-21
      137.100   4.57538e-21
      137.200   4.42348e-21
      137.300   4.27691e-21
      137.400   4.13513e-21
      137.500   3.99792e-21
      137.600   3.86515e-21
      137.700   3.73665e-21
      137.800   3.61232e-21
      137.900   3.49203e-21
      138.000   3.37571e-21
      138.100   3.26317e-21
      138.200   3.15472e-21
      138.300   3.04987e-21
      138.400   2.94848e-21
      138.500   2.85039e-21
      138.600   2.75549e-21
      138.700   2.66371e-21
      138.800   2.57494e-21
      138.900   2.48905e-21
      139.000   2.40599e-21
      139.100   2.32589e-21
      139.200   2.24892e-21
      139.300   2.17485e-21
      139.400   2.10331e-21
      139.500   2.03408e-21
      139.600   1.96705e-21
      139.700   1.90219e-21
      139.800   1.83943e-21
      139.900   1.77870e-21
      140.000   1.72018e-21
      140.100   1.66355e-21
      140.200   1.60875e-21
      140.300   1.55571e-21
      140.400   1.50438e-21
      140.500   1.45469e-21
      140.600   1.40659e-21
      140.700   1.36005e-21
      140.800   1.31519e-21
      140.900   1.27182e-21
      141.000   1.22984e-21
      141.100   1.18921e-21
      141.200   1.14989e-21
      141.300   1.11183e-21
      141.400   1.07512e-21
      141.500   1.04017e-21
      141.600   1.00682e-21
      141.700   9.74552e-22
      141.800   9.43295e-22
      141.900   9.13012e-22
      142.000   8.83675e-22
      142.100   8.55584e-22
      142.200   8.29327e-22
      142.300   8.04675e-22
      142.400   7.80849e-22
      142.500   7.57700e-22
      142.600   7.35211e-22
      142.700   7.13367e-22
      142.800   6.92155e-22
      142.900   6.71556e-22
      143.000   6.51547e-22
      143.100   6.32183e-22
      143.200   6.13412e-22
      143.300   5.95175e-22
      143.400   5.77469e-22
      143.500   5.60271e-22
      143.600   5.43567e-22
      143.700   5.27462e-22
      143.800   5.13425e-22
      143.900   5.00056e-22
      144.000   4.87047e-22
      144.100   4.74365e-22
      144.200   4.62005e-22
      144.300   4.49952e-22
      144.400   4.38249e-22
      144.500   4.27514e-22
      144.600   4.17250e-22
      144.700   4.07243e-22
      144.800   3.97463e-22
      144.900   3.87905e-22
      145.000   3.78564e-22
      145.100   3.69438e-22
      145.200   3.60551e-22
      145.300   3.51878e-22
      145.400   3.43400e-22
      145.500   3.35113e-22
      145.600   3.27014e-22
      145.700   3.19100e-22
      145.800   3.11377e-22
      145.900   3.03860e-22
      146.000   2.96506e-22
      146.100   2.89236e-22
      146.200   2.82077e-22
      146.300   2.75084e-22
      146.400   2.68252e-22
      146.500   2.61614e-22
      146.600   2.55134e-22
      146.700   2.48805e-22
      146.800   2.42609e-22
      146.900   2.36538e-22
      147.000   2.30611e-22
      147.100   2.24839e-22
      147.200   2.19219e-22
      147.300   2.13732e-22
      147.400   2.08375e-22
      147.500   2.03145e-22
      147.600   1.98038e-22
      147.700   1.93065e-22
      147.800   1.88226e-22
      147.900   1.83501e-22
      148.000   1.78887e-22
      148.100   1.74384e-22
      148.200   1.69990e-22
      148.300   1.65709e-22
      148.400   1.62207e-22
      148.500   1.59285e-22
      148.600   1.56590e-22
      148.700   1.53937e-22
      148.800   1.51325e-22
      148.900   1.48762e-22
      149.000   1.46244e-22
      149.100   1.43765e-22
      149.200   1.41325e-22
      149.300   1.38924e-22
      149.400   1.36560e-22
      149.500   1.34241e-22
      149.600   1.31959e-22
      149.700   1.29714e-22
      149.800   1.27505e-22
      149.900   1.25331e-22
      150.000   1.23192e-22
      150.100   1.21092e-22
      150.200   1.19025e-22
      150.300   1.16994e-22
      150.400   1.14995e-22
      150.500   1.13029e-22
      150.600   1.11094e-22
      150.700   1.09191e-22
      150.800   1.07321e-22
      150.900   1.05483e-22
      151.000   1.03673e-22
      151.100   1.01894e-22
      151.200   1.00143e-22
      151.300   9.84210e-23
      151.400   9.67269e-23
      151.500   9.50640e-23
      151.600   9.34284e-23
      151.700   9.18217e-23
      151.800   9.02410e-23
      151.900   8.86855e-23
      152.000   8.72456e-23
      152.100   8.67460e-23
      152.200   8.63662e-23
      152.300   8.59849e-23
      152.400   8.56041e-23
      152.500   8.52255e-23
      152.600   8.48476e-23
      152.700   8.35708e-23
      152.800   8.19917e-23
      152.900   8.04402e-23
      153.000   7.89168e-23
      153.100   7.74217e-23
      153.200   7.59530e-23
      153.300   7.47766e-23
      153.400   7.38721e-23
      153.500   7.30060e-23
      153.600   7.21510e-23
      153.700   7.13065e-23
      153.800   7.04704e-23
      153.900   6.96435e-23
      154.000   6.88347e-23
      154.100   6.80527e-23
      154.200   6.72844e-23
      154.300   6.65241e-23
      154.400   6.57736e-23
      154.500   6.50302e-23
      154.600   6.42948e-23
      154.700   6.35682e-23
      154.800   6.28493e-23
      154.900   6.21376e-23
      155.000   6.14331e-23
      155.100   6.07369e-23
      155.200   6.00474e-23
      155.300   5.93657e-23
      155.400   5.86915e-23
      155.500   5.80247e-23
      155.600   5.73638e-23
      155.700   5.67100e-23
      155.800   5.60637e-23
      155.900   5.54234e-23
      156.000   5.47906e-23
      156.100   5.41643e-23
      156.200   5.35448e-23
      156.300   5.29317e-23
      156.400   5.23248e-23
      156.500   5.17220e-23
      156.600   5.11144e-23
      156.700   5.05128e-23
      156.800   4.99174e-23
      156.900   4.93286e-23
      157.000   4.87475e-23
      157.100   4.81290e-23
      157.200   4.72218e-23
      157.300   4.60156e-23
      157.400   4.48399e-23
      157.500   4.36927e-23
      157.600   4.25745e-23
      157.700   4.14837e-23
      157.800   4.04203e-23
      157.900   3.99768e-23
      158.000   3.95910e-23
      158.100   3.92092e-23
      158.200   3.88302e-23
      158.300   3.84547e-23
      158.400   3.80828e-23
      158.500   3.77141e-23
      158.600   3.73483e-23
      158.700   3.69854e-23
      158.800   3.66266e-23
      158.900   3.62707e-23
      159.000   3.59180e-23
      159.100   3.55524e-23
      159.200   3.49974e-23
      159.300   3.41365e-23
      159.400   3.32965e-23
      159.500   3.24770e-23
      159.600   3.16768e-23
      159.700   3.08964e-23
      159.800   3.01342e-23
      159.900   2.97353e-23
      160.000   2.95779e-23
      160.100   2.94286e-23
      160.200   2.92798e-23
      160.300   2.91317e-23
      160.400   2.89845e-23
      160.500   2.87990e-23
      160.600   2.83940e-23
      160.700   2.78329e-23
      160.800   2.72825e-23
      160.900   2.67424e-23
      161.000   2.62129e-23
      161.100   2.56936e-23
      161.200   2.51848e-23
      161.300   2.46859e-23
      161.400   2.41965e-23
      161.500   2.37169e-23
      161.600   2.32463e-23
      161.700   2.27845e-23
      161.800   2.23316e-23
      161.900   2.18957e-23
      162.000   2.15368e-23
      162.100   2.12250e-23
      162.200   2.09175e-23
      162.300   2.06143e-23
      162.400   2.03154e-23
      162.500   2.00204e-23
      162.600   1.97299e-23
      162.700   1.94431e-23
      162.800   1.91604e-23
      162.900   1.88817e-23
      163.000   1.86070e-23
      163.100   1.83361e-23
      163.200   1.80686e-23
      163.300   1.78050e-23
      163.400   1.75451e-23
      163.500   1.72888e-23
      163.600   1.70361e-23
      163.700   1.67868e-23
      163.800   1.65413e-23
      163.900   1.62991e-23
      164.000   1.60602e-23
      164.100   1.57741e-23
      164.200   1.53575e-23
      164.300   1.49523e-23
      164.400   1.45577e-23
      164.500   1.41734e-23
      164.600   1.37992e-23
      164.700   1.34345e-23
      164.800   1.31211e-23
      164.900   1.29061e-23
      165.000   1.27312e-23
      165.100   1.25585e-23
      165.200   1.23881e-23
      165.300   1.22199e-23
      165.400   1.20541e-23
      165.500   1.18905e-23
      165.600   1.16200e-23
      165.700   1.13090e-23
      165.800   1.10027e-23
      165.900   1.07046e-23
      166.000   1.04150e-23
      166.100   1.01330e-23
      166.200   9.85863e-24
      166.300   9.59165e-24
      166.400   9.33180e-24
      166.500   9.07879e-24
      166.600   8.83258e-24
      166.700   8.59302e-24
      166.800   8.35974e-24
      166.900   8.13277e-24
      167.000   7.91203e-24
      167.100   7.69703e-24
      167.200   7.48779e-24
      167.300   7.28416e-24
      167.400   7.08604e-24
      167.500   6.89318e-24
      167.600   6.70550e-24
      167.700   6.52289e-24
      167.800   6.34519e-24
      167.900   6.17223e-24
      168.000   6.00392e-24
      168.100   5.84010e-24
      168.200   5.68070e-24
      168.300   5.52557e-24
      168.400   5.37466e-24
      168.500   5.22911e-24
      168.600   5.11790e-24
      168.700   5.02500e-24
      168.800   4.93377e-24
      168.900   4.84416e-24
      169.000   4.75619e-24
      169.100   4.66968e-24
      169.200   4.58478e-24
      169.300   4.50137e-24
      169.400   4.41943e-24
      169.500   4.33869e-24
      169.600   4.25837e-24
      169.700   4.17839e-24
      169.800   4.09954e-24
      169.900   4.02209e-24
      170.000   3.94604e-24
      170.100   3.83584e-24
      170.200   3.67729e-24
      170.300   4.64197e-24
      170.400   9.66830e-24
      170.500   1.78445e-23
      170.600   2.55597e-23
      170.700   3.12145e-23
      170.800   3.32065e-23
      170.900   3.26067e-23
      171.000   3.15825e-23
      171.100   3.06240e-23
      171.200   2.96928e-23
      171.300   2.87879e-23
      171.400   2.79090e-23
      171.500   2.70552e-23
      171.600   2.62258e-23
      171.700   2.54209e-23
      171.800   2.46396e-23
      171.900   2.38814e-23
      172.000   2.31462e-23
      172.100   2.24333e-23
      172.200   2.17423e-23
      172.300   2.10720e-23
      172.400   2.04180e-23
      172.500   1.97837e-23
      172.600   1.91693e-23
      172.700   1.85744e-23
      172.800   1.79980e-23
      172.900   1.74396e-23
      173.000   1.68990e-23
      173.100   1.63756e-23
      173.200   1.58684e-23
      173.300   1.53773e-23
      173.400   1.49014e-23
      173.500   1.44407e-23
      173.600   1.39946e-23
      173.700   1.35622e-23
      173.800   1.31437e-23
      173.900   1.27384e-23
      174.000   1.23455e-23
      174.100   1.19650e-23
      174.200   1.15965e-23
      174.300   1.12392e-23
      174.400   1.08932e-23
      174.500   1.05577e-23
      174.600   1.02326e-23
      174.700   9.91763e-24
      174.800   9.61240e-24
      174.900   9.31646e-24
      175.000   9.02950e-24
      175.100   8.75134e-24
      175.200   8.48209e-24
      175.300   8.22095e-24
      175.400   7.96779e-24
      175.500   7.72253e-24
      175.600   7.48464e-24
      175.700   7.25411e-24
      175.800   7.03056e-24
      175.900   6.81386e-24
      176.000   6.60378e-24
      176.100   6.40022e-24
      176.200   6.20289e-24
      176.300   6.01156e-24
      176.400   5.82616e-24
      176.500   5.64593e-24
      176.600   5.38732e-24
      176.700   5.10135e-24
      176.800   4.83041e-24
      176.900   4.57377e-24
      177.000   4.33059e-24
      177.100   4.10020e-24
      177.200   3.88203e-24
      177.300   3.67534e-24
      177.400   3.47947e-24
      177.500   3.29390e-24
      177.600   3.11817e-24
      177.700   2.95175e-24
      177.800   2.79410e-24
      177.900   2.64472e-24
      178.000   2.50344e-24
      178.100   2.36964e-24
      178.200   2.24287e-24
      178.300   2.12281e-24
      178.400   2.00915e-24
      178.500   1.90150e-24
      178.600   1.80168e-24
      178.700   1.71859e-24
      178.800   1.65719e-24
      178.900   1.59797e-24
      179.000   1.54083e-24
      179.100   1.48570e-24
      179.200   1.43254e-24
      179.300   1.38126e-24
      179.400   1.33179e-24
      179.500   1.28412e-24
      179.600   1.23817e-24
      179.700   1.19386e-24
      179.800   1.15112e-24
      179.900   1.10991e-24
      180.000   1.07016e-24
      180.100   1.03184e-24
      180.200   9.94898e-25
      180.300   9.59274e-25
      180.400   9.24925e-25
      180.500   8.91818e-25
      180.600   8.59888e-25
      180.700   8.29106e-25
      180.800   7.99432e-25
      180.900   7.70819e-25
      181.000   7.43224e-25
      181.100   7.16624e-25
      181.200   6.90983e-25
      181.300   6.66260e-25
      181.400   6.42429e-25
      181.500   6.19449e-25
      181.600   5.97292e-25
      181.700   5.75929e-25
      181.800   5.55332e-25
      181.900   5.35472e-25
      182.000   5.16334e-25
      182.100   4.97871e-25
      182.200   4.80248e-25
      182.300   4.64663e-25
      182.400   4.49681e-25
      182.500   4.35181e-25
      182.600   4.21148e-25
      182.700   4.07566e-25
      182.800   3.94422e-25
      182.900   3.81699e-25
      183.000   3.69388e-25
      183.100   3.57476e-25
      183.200   3.45944e-25
      183.300   3.34779e-25
      183.400   3.23975e-25
      183.500   3.13519e-25
      183.600   3.03398e-25
      183.700   2.93602e-25
      183.800   2.84126e-25
      183.900   2.74955e-25
      184.000   2.66078e-25
      184.100   2.57495e-25
      184.200   2.49193e-25
      184.300   2.41159e-25
      184.400   2.33386e-25
      184.500   2.25862e-25
      184.600   2.18577e-25
      184.700   2.11528e-25
      184.800   2.04705e-25
      184.900   1.98101e-25
      185.000   1.91708e-25
      185.100   1.85597e-25
      185.200   1.80057e-25
      185.300   1.75174e-25
      185.400   1.70422e-25
      185.500   1.65796e-25
      185.600   1.61295e-25
      185.700   1.56916e-25
      185.800   1.52662e-25
      185.900   1.48524e-25
      186.000   1.44498e-25
      186.100   1.40579e-25
      186.200   1.36765e-25
      186.300   1.33052e-25
      186.400   1.29441e-25
      186.500   1.25927e-25
      186.600   1.22505e-25
      186.700   1.19174e-25
      186.800   1.15932e-25
      186.900   1.12778e-25
      187.000   1.09708e-25
      187.100   1.06718e-25
      187.200   1.03811e-25
      187.300   1.00986e-25
      187.400   9.82356e-26
      187.500   9.55597e-26
      187.600   9.29552e-26
      187.700   9.04206e-26
      187.800   8.79541e-26
      187.900   8.55536e-26
      188.000   8.32180e-26
      188.100   8.08173e-26
      188.200   7.80427e-26
      188.300   7.48116e-26
      188.400   7.17130e-26
      188.500   6.87412e-26
      188.600   6.58953e-26
      188.700   6.31706e-26
      188.800   6.05584e-26
      188.900   5.80530e-26
      189.000   5.56497e-26
      189.100   5.33441e-26
      189.200   5.11330e-26
      189.300   4.90128e-26
      189.400   4.69798e-26
      189.500   4.50409e-26
      189.600   4.33353e-26
      189.700   4.22879e-26
      189.800   4.12702e-26
      189.900   4.02781e-26
      190.000   3.93108e-26
      190.100   3.83670e-26
      190.200   3.74458e-26
      190.300   3.65469e-26
      190.400   3.56693e-26
      190.500   3.48130e-26
      190.600   3.39776e-26
      190.700   3.31620e-26
      190.800   3.23662e-26
      190.900   3.15896e-26
      191.000   3.08329e-26
      191.100   3.00952e-26
      191.200   2.93746e-26
      191.300   2.86716e-26
      191.400   2.79857e-26
      191.500   2.73160e-26
      191.600   2.66624e-26
      191.700   2.60244e-26
      191.800   2.54015e-26
      191.900   2.47934e-26
      192.000   2.42003e-26
      192.100   2.36219e-26
      192.200   2.30584e-26
      192.300   2.25079e-26
      192.400   2.19706e-26
      192.500   2.14059e-26
      192.600   2.07273e-26
      192.700   1.99678e-26
      192.800   1.92357e-26
      192.900   1.85299e-26
      193.000   1.78498e-26
      193.100   1.71955e-26
      193.200   1.65663e-26
      193.300   1.59601e-26
      193.400   1.53759e-26
      193.500   1.48128e-26
      193.600   1.42699e-26
      193.700   1.37467e-26
      193.800   1.32426e-26
      193.900   1.27569e-26
      194.000   1.22983e-26
      194.100   1.20460e-26
      194.200   1.18629e-26
      194.300   1.16872e-26
      194.400   1.15142e-26
      194.500   1.13439e-26
      194.600   1.11761e-26
      194.700   1.10108e-26
      194.800   1.08481e-26
      194.900   1.06877e-26
      195.000   1.05298e-26
      195.100   1.03746e-26
      195.200   1.02216e-26
      195.300   1.00708e-26
      195.400   9.92220e-27
      195.500   9.77267e-27
      195.600   9.54465e-27
      195.700   9.18701e-27
      195.800   8.84253e-27
      195.900   8.51082e-27
      196.000   8.19104e-27
      196.100   7.88301e-27
      196.200   7.58639e-27
      196.300   7.30064e-27
      196.400   7.02539e-27
      196.500   6.76020e-27
      196.600   6.50487e-27
      196.700   6.25891e-27
      196.800   6.02248e-27
      196.900   5.79550e-27
      197.000   5.57691e-27
      197.100   5.36632e-27
      197.200   5.16350e-27
      197.300   4.96809e-27
      197.400   4.77983e-27
      197.500   4.59854e-27
      197.600   4.42394e-27
      197.700   4.25665e-27
      197.800   4.09565e-27
      197.900   3.94051e-27
      198.000   3.79108e-27
      198.100   3.64720e-27
      198.200   3.50861e-27
      198.300   3.37510e-27
      198.400   3.24661e-27
      198.500   3.12339e-27
      198.600   3.00489e-27
      198.700   2.90256e-27
      198.800   2.82015e-27
      198.900   2.74809e-27
      199.000   2.67779e-27
      199.100   2.60925e-27
      199.200   2.54243e-27
      199.300   2.47752e-27
      199.400   2.41427e-27
      199.500   2.35260e-27
      199.600   2.29246e-27
      199.700   2.23383e-27
      199.800   2.17669e-27
      199.900   2.12096e-27
      200.000   2.06662e-27
      200.100   2.01389e-27
      200.200   1.96245e-27
      200.300   1.91234e-27
      200.400   1.86349e-27
      200.500   1.81585e-27
      200.600   1.76946e-27
      200.700   1.72424e-27
      200.800   1.68014e-27
      200.900   1.63719e-27
      201.000   1.59535e-27
      201.100   1.55464e-27
      201.200   1.51496e-27
      201.300   1.47627e-27
      201.400   1.43859e-27
      201.500   1.40186e-27
      201.600   1.36604e-27
      201.700   1.33115e-27
      201.800   1.29715e-27
      201.900   1.26301e-27
      202.000   1.21346e-27
      202.100   1.15827e-27
      202.200   1.10559e-27
      202.300   1.05535e-27
      202.400   1.00748e-27
      202.500   9.61791e-28
      202.600   9.18137e-28
      202.700   8.76462e-28
      202.800   8.36703e-28
      202.900   7.98808e-28
      203.000   7.62619e-28
      203.100   7.28076e-28
      203.200   6.95058e-28
      203.300   6.63516e-28
      203.400   6.33393e-28
      203.500   6.04629e-28
      203.600   5.78206e-28
      203.700   5.55812e-28
      203.800   5.34683e-28
      203.900   5.14381e-28
      204.000   4.94844e-28
      204.100   4.76043e-28
      204.200   4.57958e-28
      204.300   4.40554e-28
      204.400   4.23809e-28
      204.500   4.07697e-28
      204.600   3.92193e-28
      204.700   3.77275e-28
      204.800   3.62945e-28
      204.900   3.49177e-28
      205.000   3.35928e-28
      205.100   3.23183e-28
      205.200   3.10915e-28
      205.300   2.99116e-28
      205.400   2.87762e-28
      205.500   2.76835e-28
      205.600   2.66296e-28
      205.700   2.56020e-28
      205.800   2.46107e-28
      205.900   2.36587e-28
      206.000   2.27449e-28
      206.100   2.18659e-28
      206.200   2.10204e-28
      206.300   2.02076e-28
      206.400   1.94263e-28
      206.500   1.86746e-28
      206.600   1.79519e-28
      206.700   1.72570e-28
      206.800   1.65885e-28
      206.900   1.59457e-28
      207.000   1.53277e-28
      207.100   1.47345e-28
      207.200   1.41646e-28
      207.300   1.36163e-28
      207.400   1.30889e-28
      207.500   1.25817e-28
      207.600   1.20941e-28
      207.700   1.16250e-28
      207.800   1.11739e-28
      207.900   1.07401e-28
      208.000   1.03230e-28
      208.100   9.92190e-29
      208.200   9.53615e-29
      208.300   9.16536e-29
      208.400   8.80946e-29
      208.500   8.46731e-29
      208.600   8.13816e-29
      208.700   7.82157e-29
      208.800   7.51719e-29
      208.900   7.21339e-29
      209.000   6.87484e-29
      209.100   6.52052e-29
      209.200   6.18423e-29
      209.300   5.86494e-29
      209.400   5.56209e-29
      209.500   5.27461e-29
      209.600   5.00174e-29
      209.700   4.74317e-29
      209.800   4.49838e-29
      209.900   4.26589e-29
      210.000   4.04538e-29
      210.100   3.83611e-29
      210.200   3.63753e-29
      210.300   3.44912e-29
      210.400   3.27037e-29
      210.500   3.10075e-29
      210.600   2.93985e-29
      210.700   2.78722e-29
      210.800   2.64242e-29
      210.900   2.50503e-29
      211.000   2.37472e-29
      211.100   2.25114e-29
      211.200   2.13392e-29
      211.300   2.02302e-29
      211.400   1.91789e-29
      211.500   1.81812e-29
      211.600   1.72351e-29
      211.700   1.63378e-29
      211.800   1.54863e-29
      211.900   1.46788e-29
      212.000   1.39135e-29
      212.100   1.31875e-29
      212.200   1.24988e-29
      212.300   1.18163e-29
      212.400   1.10874e-29
      212.500   1.03708e-29
      212.600   9.69996e-30
      212.700   9.07210e-30
      212.800   8.48441e-30
      212.900   7.93461e-30
      213.000   7.42040e-30
      213.100   6.94020e-30
      213.200   6.49072e-30
      213.300   6.07014e-30
      213.400   5.67645e-30
      213.500   5.30808e-30
      213.600   4.96333e-30
      213.700   4.64085e-30
      213.800   4.33904e-30
      213.900   4.05682e-30
      214.000   3.79271e-30
      214.100   3.55001e-30
      214.200   3.37392e-30
      214.300   3.24030e-30
      214.400   3.11194e-30
      214.500   2.98864e-30
      214.600   2.87023e-30
      214.700   2.75650e-30
      214.800   2.64728e-30
      214.900   2.54239e-30
      215.000   2.44161e-30
      215.100   2.34485e-30
      215.200   2.25203e-30
      215.300   2.16291e-30
      215.400   2.07730e-30
      215.500   1.99507e-30
      215.600   1.91614e-30
      215.700   1.84029e-30
      215.800   1.76743e-30
      215.900   1.69750e-30
      216.000   1.62356e-30
      216.100   1.53683e-30
      216.200   1.44887e-30
      216.300   1.36593e-30
      216.400   1.28771e-30
      216.500   1.21392e-30
      216.600   1.14436e-30
      216.700   1.07878e-30
      216.800   1.01693e-30
      216.900   9.58619e-31
      217.000   9.03638e-31
      217.100   8.51778e-31
      217.200   8.02895e-31
      217.300   7.56807e-31
      217.400   7.13344e-31
      217.500   6.72386e-31
      217.600   6.33745e-31
      217.700   5.97310e-31
      217.800   5.62974e-31
      217.900   5.30475e-31
      218.000   4.96518e-31
      218.100   4.64718e-31
      218.200   4.34944e-31
      218.300   4.07084e-31
      218.400   3.81021e-31
      218.500   3.56607e-31
      218.600   3.33755e-31
      218.700   3.12353e-31
      218.800   2.92313e-31
      218.900   2.73560e-31
      219.000   2.55992e-31
      219.100   2.39542e-31
      219.200   2.24147e-31
      219.300   2.09736e-31
      219.400   1.96241e-31
      219.500   1.83610e-31
      219.600   1.71786e-31
      219.700   1.60716e-31
      219.800   1.50359e-31
      219.900   1.40662e-31
      220.000   1.31583e-31
      220.100   1.23086e-31
      220.200   1.15135e-31
      220.300   1.07695e-31
      220.400   1.00729e-31
      220.500   9.42136e-32
      220.600   8.81169e-32
      220.700   8.24089e-32
      220.800   7.70673e-32
      220.900   7.20725e-32
      221.000   6.73972e-32
      221.100   6.30217e-32
      221.200   5.89304e-32
      221.300   5.51020e-32
      221.400   5.15197e-32
      221.500   4.81696e-32
      221.600   4.50352e-32
      221.700   4.21030e-32
      221.800   3.95568e-32
      221.900   3.76695e-32
      222.000   3.60135e-32
      222.100   3.44292e-32
      222.200   3.29146e-32
      222.300   3.14659e-32
      222.400   3.00808e-32
      222.500   2.87561e-32
      222.600   2.74897e-32
      222.700   2.62784e-32
      222.800   2.51202e-32
      222.900   2.40129e-32
      223.000   2.29541e-32
      223.100   2.19414e-32
      223.200   2.09734e-32
      223.300   2.00476e-32
      223.400   1.91627e-32
      223.500   1.83162e-32
      223.600   1.75073e-32
      223.700   1.67338e-32
      223.800   1.59783e-32
      223.900   1.51506e-32
      224.000   1.43500e-32
      224.100   1.35917e-32
      224.200   1.28731e-32
      224.300   1.21923e-32
      224.400   1.15470e-32
      224.500   1.09360e-32
      224.600   1.03568e-32
      224.700   9.80843e-33
      224.800   9.28867e-33
      224.900   8.79618e-33
      225.000   8.32974e-33
      225.100   7.88780e-33
      225.200   7.46907e-33
      225.300   7.07272e-33
      225.400   6.69696e-33
      225.500   6.34108e-33
      225.600   6.00396e-33
      225.700   5.68478e-33
      225.800   5.38229e-33
      225.900   5.17380e-33
      226.000   5.00509e-33
      226.100   4.84512e-33
      226.200   4.69019e-33
      226.300   4.54058e-33
      226.400   4.39592e-33
      226.500   4.25571e-33
      226.600   4.11984e-33
      226.700   3.98827e-33
      226.800   3.86083e-33
      226.900   3.73747e-33
      227.000   3.61796e-33
      227.100   3.50226e-33
      227.200   3.39031e-33
      227.300   3.28191e-33
      227.400   3.17695e-33
      227.500   3.07534e-33
      227.600   2.97698e-33
      227.700   2.88176e-33
      227.800   2.78960e-33
      227.900   2.69134e-33
      228.000   2.57359e-33
      228.100   2.44808e-33
      228.200   2.32863e-33
      228.300   2.21500e-33
      228.400   2.10693e-33
      228.500   2.00407e-33
      228.600   1.90625e-33
      228.700   1.81318e-33
      228.800   1.72461e-33
      228.900   1.64040e-33
      229.000   1.56028e-33
      229.100   1.48406e-33
      229.200   1.41154e-33
      229.300   1.34257e-33
      229.400   1.27696e-33
      229.500   1.21454e-33
      229.600   1.15517e-33
      229.700   1.09869e-33
      229.800   1.04497e-33
      229.900   9.93874e-34
      230.000   9.44677e-34
      230.100   8.93398e-34
      230.200   8.42219e-34
      230.300   7.93989e-34
      230.400   7.48490e-34
      230.500   7.05620e-34
      230.600   6.65235e-34
      230.700   6.27143e-34
      230.800   5.91230e-34
      230.900   5.57373e-34
      231.000   5.25436e-34
      231.100   4.95319e-34
      231.200   4.66930e-34
      231.300   4.40165e-34
      231.400   4.14934e-34
      231.500   3.91130e-34
      231.600   3.68683e-34
      231.700   3.47525e-34
      231.800   3.27579e-34
      231.900   3.08769e-34
      232.000   2.91033e-34
      232.100   2.74310e-34
      232.200   2.60855e-34
      232.300   2.51314e-34
      232.400   2.42975e-34
      232.500   2.34914e-34
      232.600   2.27121e-34
      232.700   2.19588e-34
      232.800   2.12305e-34
      232.900   2.05259e-34
      233.000   1.98439e-34
      233.100   1.91847e-34
      233.200   1.85476e-34
      233.300   1.79317e-34
      233.400   1.73363e-34
      233.500   1.67610e-34
      233.600   1.62051e-34
      233.700   1.56676e-34
      233.800   1.51427e-34
      233.900   1.46346e-34
      234.000   1.41434e-34
      234.100   1.36686e-34
      234.200   1.32100e-34
      234.300   1.27667e-34
      234.400   1.23381e-34
      234.500   1.19240e-34
      234.600   1.15237e-34
      234.700   1.11370e-34
      234.800   1.07632e-34
      234.900   1.04019e-34
      235.000   1.00527e-34
      235.100   9.71514e-35
      235.200   9.38897e-35
      235.300   9.07376e-35
      235.400   8.76897e-35
      235.500   8.47455e-35
      235.600   8.19002e-35
      235.700   7.91496e-35
      235.800   7.64952e-35
      235.900   7.39296e-35
      236.000   7.14509e-35
      236.100   6.90540e-35
      236.200   6.67373e-35
      236.300   6.44981e-35
      236.400   6.23347e-35
      236.500   6.02429e-35
      236.600   5.83317e-35
      236.700   5.67216e-35
      236.800   5.53075e-35
      236.900   5.39283e-35
      237.000   5.25831e-35
      237.100   5.12717e-35
      237.200   4.99926e-35
      237.300   4.87455e-35
      237.400   4.75293e-35
      237.500   4.63436e-35
      237.600   4.51862e-35
      237.700   4.40595e-35
      237.800   4.29613e-35
      237.900   4.18892e-35
      238.000   4.08443e-35
      238.100   3.98250e-35
      238.200   3.88311e-35
      238.300   3.78618e-35
      238.400   3.69162e-35
      238.500   3.59939e-35
      238.600   3.50947e-35
      238.700   3.42177e-35
      238.800   3.33624e-35
      238.900   3.25966e-35
      239.000   3.20886e-35
      239.100   3.16158e-35
      239.200   3.11500e-35
      239.300   3.06909e-35
      239.400   3.02385e-35
      239.500   2.97928e-35
      239.600   2.93529e-35
      239.700   2.89196e-35
      239.800   2.84929e-35
      239.900   2.80720e-35
      240.000   2.76569e-35
      240.100   2.72479e-35
      240.200   2.68449e-35
      240.300   2.64475e-35
      240.400   2.60559e-35
      240.500   2.56698e-35
      240.600   2.52895e-35
      240.700   2.49141e-35
      240.800   2.45442e-35
      240.900   2.41800e-35
      241.000   2.38209e-35
      241.100   2.34671e-35
      241.200   2.31184e-35
      241.300   2.27745e-35
      241.400   2.24357e-35
      241.500   2.21019e-35
      241.600   2.17729e-35
      241.700   2.14486e-35
      241.800   2.11288e-35
      241.900   2.08138e-35
      242.000   2.05033e-35
      242.100   2.01975e-35
      242.200   1.98963e-35
      242.300   1.95998e-35
      242.400   1.93075e-35
      242.500   1.90195e-35
      242.600   1.87356e-35
      242.700   1.84559e-35
      242.800   1.81805e-35
      242.900   1.79091e-35
      243.000   1.76416e-35
      243.100   1.73780e-35
      243.200   1.71184e-35
      243.300   1.68626e-35
      243.400   1.66106e-35
      243.500   1.63626e-35
      243.600   1.61184e-35
      243.700   1.58777e-35
      243.800   1.56408e-35
      243.900   1.54073e-35
      244.000   1.51773e-35
      244.100   1.49508e-35
      244.200   1.47277e-35
      244.300   1.45078e-35
      244.400   1.42913e-35
      244.500   1.40781e-35
      244.600   1.38680e-35
      244.700   1.36612e-35
      244.800   1.34578e-35
      244.900   1.32573e-35
      245.000   1.30598e-35
      245.100   1.28653e-35
      245.200   1.26738e-35
      245.300   1.24852e-35
      245.400   1.22993e-35
      245.500   1.21163e-35
      245.600   1.19360e-35
      245.700   1.17585e-35
      245.800   1.15837e-35
      245.900   1.14116e-35
      246.000   1.12423e-35
      246.100   1.10755e-35
      246.200   1.09111e-35
      246.300   1.07493e-35
      246.400   1.05901e-35
      246.500   1.04331e-35
      246.600   1.02785e-35
      246.700   1.01263e-35
      246.800   9.97633e-36
      246.900   9.82871e-36
      247.000   9.68336e-36
      247.100   9.54016e-36
      247.200   9.39936e-36
      247.300   9.26060e-36
      247.400   9.12395e-36
      247.500   8.98934e-36
      247.600   8.85669e-36
      247.700   8.72609e-36
      247.800   8.59752e-36
      247.900   8.47078e-36
      248.000   8.34606e-36
      248.100   8.22343e-36
      248.200   8.10266e-36
      248.300   7.98358e-36
      248.400   7.86626e-36
      248.500   7.70026e-36
      248.600   7.45501e-36
      248.700   7.16502e-36
      248.800   6.88614e-36
      248.900   6.61811e-36
      249.000   6.36036e-36
      249.100   6.11352e-36
      249.200   5.87638e-36
      249.300   5.64832e-36
      249.400   5.42899e-36
      249.500   5.21809e-36
      249.600   5.01528e-36
      249.700   4.82028e-36
      249.800   4.63275e-36
      249.900   4.45245e-36
      250.000   4.27910e-36
      250.100   4.11295e-36
      250.200   3.95329e-36
      250.300   3.79998e-36
      250.400   3.65250e-36
      250.500   3.51072e-36
      250.600   3.37443e-36
      250.700   3.24338e-36
      250.800   3.11739e-36
      250.900   2.99627e-36
      251.000   2.87982e-36
      251.100   2.76786e-36
      251.200   2.66037e-36
      251.300   2.55721e-36
      251.400   2.45805e-36
      251.500   2.36269e-36
      251.600   2.22897e-36
      251.700   2.02398e-36
      251.800   1.82693e-36
      251.900   1.64879e-36
      252.000   1.48777e-36
      252.100   1.34233e-36
      252.200   1.21087e-36
      252.300   1.09239e-36
      252.400   9.85844e-37
      252.500   8.89605e-37
      252.600   8.07335e-37
      252.700   7.60258e-37
      252.800   7.44216e-37
      252.900   7.28521e-37
      253.000   7.13154e-37
      253.100   6.98112e-37
      253.200   6.83391e-37
      253.300   6.69110e-37
      253.400   6.55183e-37
      253.500   6.41569e-37
      253.600   6.28244e-37
      253.700   6.14898e-37
      253.800   6.00410e-37
      253.900   5.85987e-37
      254.000   5.71910e-37
      254.100   5.58165e-37
      254.200   5.44749e-37
      254.300   5.31655e-37
      254.400   5.18878e-37
      254.500   5.06407e-37
      254.600   4.94227e-37
      254.700   4.82348e-37
      254.800   4.70766e-37
      254.900   4.59461e-37
      255.000   4.48427e-37
      255.100   4.37645e-37
      255.200   4.27131e-37
      255.300   4.16864e-37
      255.400   4.06842e-37
      255.500   3.97059e-37
      255.600   3.87510e-37
      255.700   3.78188e-37
      255.800   3.69086e-37
      255.900   3.60203e-37
      256.000   3.51527e-37
      256.100   3.43070e-37
      256.200   3.34815e-37
      256.300   3.26756e-37
      256.400   3.18899e-37
      256.500   3.11221e-37
      256.600   3.03726e-37
      256.700   2.96409e-37
      256.800   2.89268e-37
      256.900   2.80549e-37
      257.000   2.69331e-37
      257.100   2.57713e-37
      257.200   2.46596e-37
      257.300   2.35952e-37
      257.400   2.25791e-37
      257.500   2.16073e-37
      257.600   2.06790e-37
      257.700   1.97907e-37
      257.800   1.89398e-37
      257.900   1.81255e-37
      258.000   1.73459e-37
      258.100   1.65993e-37
      258.200   1.58847e-37
      258.300   1.52008e-37
      258.400   1.45456e-37
      258.500   1.39185e-37
      258.600   1.33183e-37
      258.700   1.27437e-37
      258.800   1.21936e-37
      258.900   1.16673e-37
      259.000   1.11632e-37
      259.100   1.06809e-37
      259.200   1.02195e-37
      259.300   9.77863e-38
      259.400   9.35642e-38
      259.500   8.95227e-38
      259.600   8.56551e-38
      259.700   8.19538e-38
      259.800   7.84104e-38
      259.900   7.50175e-38
      260.000   7.17714e-38
      260.100   6.84267e-38
      260.200   6.49438e-38
      260.300   6.15852e-38
      260.400   5.83995e-38
      260.500   5.53778e-38
      260.600   5.25095e-38
      260.700   4.97891e-38
      260.800   4.72101e-38
      260.900   4.47622e-38
      261.000   4.24425e-38
      261.100   4.02445e-38
      261.200   3.81475e-38
      261.300   3.61579e-38
      261.400   3.42715e-38
      261.500   3.24836e-38
      261.600   3.07907e-38
      261.700   2.91861e-38
      261.800   2.76647e-38
      261.900   2.62214e-38
      262.000   2.48531e-38
      262.100   2.35556e-38
      262.200   2.23261e-38
      262.300   2.11598e-38
      262.400   2.00543e-38
      262.500   1.90058e-38
      262.600   1.80117e-38
      262.700   1.70696e-38
      262.800   1.61765e-38
      262.900   1.53294e-38
      263.000   1.45271e-38
      263.100   1.37663e-38
      263.200   1.30463e-38
      263.300   1.23638e-38
      263.400   1.17167e-38
      263.500   1.11036e-38
      263.600   1.05223e-38
      263.700   9.97123e-39
      263.800   9.44874e-39
      263.900   8.95392e-39
      264.000   8.48463e-39
      264.100   8.03967e-39
      264.200   7.61791e-39
      264.300   7.21846e-39
      264.400   6.83979e-39
      264.500   6.48076e-39
      264.600   6.14045e-39
      264.700   5.81804e-39
      264.800   5.51235e-39
      264.900   5.22281e-39
      265.000   4.94839e-39
      265.100   4.68819e-39
      265.200   4.44168e-39
      265.300   4.20807e-39
      265.400   3.98354e-39
      265.500   3.76971e-39
      265.600   3.56738e-39
      265.700   3.37570e-39
      265.800   3.19452e-39
      265.900   3.02310e-39
      266.000   2.86095e-39
      266.100   2.70745e-39
      266.200   2.56219e-39
      266.300   2.42462e-39
      266.400   2.29448e-39
      266.500   2.17124e-39
      266.600   2.05462e-39
      266.700   1.94422e-39
      266.800   1.83981e-39
      266.900   1.74092e-39
      267.000   1.64733e-39
      267.100   1.55874e-39
      267.200   1.47498e-39
      267.300   1.39566e-39
      267.400   1.32057e-39
      267.500   1.24953e-39
      267.600   1.18230e-39
      267.700   1.11867e-39
      267.800   1.05844e-39
      267.900   1.00146e-39
      268.000   9.47552e-40
      268.100   8.96513e-40
      268.200   8.48252e-40
      268.300   8.02567e-40
      268.400   7.59330e-40
      268.500   7.18397e-40
      268.600   6.79690e-40
      268.700   6.43059e-40
      268.800   6.08393e-40
      268.900   5.75592e-40
      269.000   5.44574e-40
      269.100   5.15197e-40
      269.200   4.87429e-40
      269.300   4.61128e-40
      269.400   4.36256e-40
      269.500   4.12702e-40
      269.600   3.90447e-40
      269.700   3.66037e-40
      269.800   3.42378e-40
      269.900   3.20208e-40
      270.000   2.99483e-40
      270.100   2.80093e-40
      270.200   2.61964e-40
      270.300   2.45006e-40
      270.400   2.29146e-40
      270.500   2.14299e-40
      270.600   2.00407e-40
      270.700   1.87422e-40
      270.800   1.75263e-40
      270.900   1.63908e-40
      271.000   1.53271e-40
      271.100   1.43332e-40
      271.200   1.34013e-40
      271.300   1.25313e-40
      271.400   1.17185e-40
      271.500   1.09580e-40
      271.600   1.02453e-40
      271.700   9.57844e-41
      271.800   8.95640e-41
      271.900   8.37234e-41
      272.000   7.82835e-41
      272.100   7.31842e-41
      272.200   6.84366e-41
      272.300   6.39763e-41
      272.400   5.98032e-41
      272.500   5.59020e-41
      272.600   5.22530e-41
      272.700   4.88605e-41
      272.800   4.58098e-41
      272.900   4.33814e-41
      273.000   4.12626e-41
      273.100   3.92434e-41
      273.200   3.73236e-41
      273.300   3.54963e-41
      273.400   3.37573e-41
      273.500   3.21066e-41
      273.600   3.05343e-41
      273.700   2.90391e-41
      273.800   2.76168e-41
      273.900   2.60515e-41
      274.000   2.41149e-41
      274.100   2.23143e-41
      274.200   2.06495e-41
      274.300   1.91095e-41
      274.400   1.76872e-41
      274.500   1.63672e-41
      274.600   1.51466e-41
      274.700   1.40004e-41
      274.800   1.29620e-41
      274.900   1.19811e-41
      275.000   1.10773e-41
      275.100   1.02589e-41
      275.200   9.48539e-42
      275.300   8.77353e-42
      275.400   8.11492e-42
      275.500   7.50816e-42
      275.600   6.92662e-42
      275.700   6.40954e-42
      275.800   5.93030e-42
      275.900   5.49169e-42
      276.000   5.10213e-42
      276.100   4.81206e-42
      276.200   4.57804e-42
      276.300   4.33562e-42
      276.400   4.10580e-42
      276.500   3.88860e-42
      276.600   3.70363e-42
      276.700   3.50465e-42
      276.800   3.32248e-42
      276.900   3.14732e-42
      277.000   2.97776e-42
      277.100   2.82081e-42
      277.200   2.69049e-42
      277.300   2.54896e-42
      277.400   2.41584e-42
      277.500   2.28412e-42
      277.600   2.16360e-42
      277.700   2.04730e-42
      277.800   1.94220e-42
      277.900   1.83710e-42
      278.000   1.76003e-42
      278.100   1.66755e-42
      278.200   1.54984e-42
      278.300   1.43493e-42
      278.400   1.32843e-42
      278.500   1.23034e-42
      278.600   1.13785e-42
      278.700   1.06078e-42
      278.800   9.78106e-43
      278.900   8.98232e-43
      279.000   8.43582e-43
      279.100   7.79122e-43
      279.200   7.16064e-43
      279.300   6.76827e-43
      279.400   6.31986e-43
      279.500   5.91348e-43
      279.600   5.52112e-43
      279.700   5.36697e-43
      279.800   5.01665e-43
      279.900   4.66632e-43
      280.000   4.37205e-43
      280.100   4.09179e-43
      280.200   3.83956e-43
      280.300   3.57331e-43
      280.400   3.32108e-43
      280.500   3.12490e-43
      280.600   2.90069e-43
      280.700   2.71852e-43
      280.800   2.52234e-43
      280.900   2.55036e-43
      281.000   2.39622e-43
      281.100   2.24208e-43
      281.200   2.10195e-43
      281.300   1.97583e-43
      281.400   1.84971e-43
      281.500   1.79366e-43
      281.600   1.69557e-43
      281.700   1.59748e-43
      281.800   1.52742e-43
      281.900   1.44334e-43
      282.000   1.40130e-43
      282.100   1.30321e-43
      282.200   1.24716e-43
      282.300   1.21913e-43
      282.400   1.14906e-43
      282.500   1.09301e-43
      282.600   1.05097e-43
      282.700   9.94922e-44
      282.800   9.52883e-44
      282.900   8.96831e-44
      283.000   8.96831e-44
      283.100   8.68805e-44
      283.200   7.98740e-44
      283.300   7.70714e-44
      283.400   7.28675e-44
      283.500   7.00649e-44
      283.600   6.72623e-44
      283.700   6.02558e-44
      283.800   5.74532e-44
      283.900   5.46506e-44
      284.000   5.04467e-44
      284.100   4.76441e-44
      284.200   4.48416e-44
      284.300   4.48416e-44
      284.400   4.20390e-44
      284.500   3.78351e-44
      284.600   3.50325e-44
      284.700   3.50325e-44
      284.800   3.22299e-44
      284.900   3.22299e-44
      285.000   2.94273e-44
      285.100   2.52234e-44
      285.200   2.52234e-44
      285.300   2.24208e-44
      285.400   2.24208e-44
      285.500   2.24208e-44
      285.600   1.96182e-44
      285.700   1.96182e-44
      285.800   1.96182e-44
      285.900   1.54143e-44
      286.000   1.54143e-44
      286.100   1.54143e-44
      286.200   1.54143e-44
      286.300   1.26117e-44
      286.400   1.26117e-44
      286.500   1.26117e-44
      286.600   1.26117e-44
      286.700   1.26117e-44
      286.800   9.80909e-45
      286.900   9.80909e-45
      287.000   9.80909e-45
      287.100   7.00649e-45
      287.200   7.00649e-45
      287.300   7.00649e-45
      287.400   7.00649e-45
      287.500   7.00649e-45
      287.600   7.00649e-45
      287.700   7.00649e-45
      287.800   2.80260e-45
      287.900   2.80260e-45
      288.000   2.80260e-45
      288.100   2.80260e-45
      288.200   2.80260e-45
      288.300   2.80260e-45
      288.400   2.80260e-45
      288.500   2.80260e-45
      288.600   2.80260e-45
      288.700   2.80260e-45
      288.800   2.80260e-45
      288.900   2.80260e-45
      289.000   2.80260e-45
      289.100   2.80260e-45
      289.200   2.80260e-45
      289.300   2.80260e-45
      289.400   2.80260e-45
      289.500   2.80260e-45
      289.600   2.80260e-45
      289.700   2.80260e-45
      289.800   2.80260e-45
      289.900   2.80260e-45
      290.000   2.80260e-45
      290.100   2.80260e-45
      290.200   2.80260e-45
      290.300   2.80260e-45
      290.400   2.80260e-45
      290.500   2.80260e-45
      290.600   2.80260e-45
      290.700   2.80260e-45
      290.800       0.00000
      290.900       0.00000
      291.000       0.00000
      291.100       0.00000
      291.200       0.00000
      291.300       0.00000
      291.400       0.00000
      291.500       0.00000
      291.600       0.00000
      291.700       0.00000
      291.800       0.00000
      291.900       0.00000
      292.000       0.00000
      292.100       0.00000
      292.200       0.00000
      292.300       0.00000
      292.400       0.00000
      292.500       0.00000
      292.600       0.00000
      292.700       0.00000
      292.800       0.00000
      292.900       0.00000
      293.000       0.00000
      293.100       0.00000
      293.200       0.00000
      293.300       0.00000
      293.400       0.00000
      293.500       0.00000
      293.600       0.00000
      293.700       0.00000
      293.800       0.00000
      293.900       0.00000
      294.000       0.00000
      294.100       0.00000
      294.200       0.00000
      294.300       0.00000
      294.400       0.00000
      294.500       0.00000
      294.600       0.00000
      294.700       0.00000
      294.800       0.00000
      294.900       0.00000
      295.000       0.00000
      295.100       0.00000
      295.200       0.00000
      295.300       0.00000
      295.400       0.00000
      295.500       0.00000
      295.600       0.00000
      295.700       0.00000
      295.800       0.00000
      295.900       0.00000
      296.000       0.00000
      296.100       0.00000
      296.200       0.00000
      296.300       0.00000
      296.400       0.00000
      296.500       0.00000
      296.600       0.00000
      296.700       0.00000
      296.800       0.00000
      296.900       0.00000
      297.000       0.00000
      297.100       0.00000
      297.200       0.00000
      297.300       0.00000
      297.400       0.00000
      297.500       0.00000
      297.600       0.00000
      297.700       0.00000
      297.800       0.00000
      297.900       0.00000
      298.000       0.00000
      298.100       0.00000
      298.200       0.00000
      298.300       0.00000
      298.400       0.00000
      298.500       0.00000
      298.600       0.00000
      298.700       0.00000
      298.800       0.00000
      298.900       0.00000
      299.000       0.00000
      299.100       0.00000
      299.200       0.00000
      299.300       0.00000
      299.400       0.00000
      299.500       0.00000
      299.600       0.00000
      299.700       0.00000
      299.800       0.00000
      299.900       0.00000
      300.000       0.00000
      300.100       0.00000
      300.192       0.00000
      300.285       0.00000
      300.377       0.00000
      300.470       0.00000
      300.562       0.00000
      300.654       0.00000
      300.747       0.00000
      300.839       0.00000
      300.932       0.00000
      301.025       0.00000
      301.117       0.00000
      301.210       0.00000
      301.303       0.00000
      301.395       0.00000
      301.488       0.00000
      301.581       0.00000
      301.674       0.00000
      301.766       0.00000
      301.859       0.00000
      301.952       0.00000
      302.045       0.00000
      302.138       0.00000
      302.231       0.00000
      302.324       0.00000
      302.417       0.00000
      302.510       0.00000
      302.603       0.00000
      302.696       0.00000
      302.789       0.00000
      302.882       0.00000
      302.976       0.00000
      303.069       0.00000
      303.162       0.00000
      303.255       0.00000
      303.349       0.00000
      303.442       0.00000
      303.535       0.00000
      303.629       0.00000
      303.722       0.00000
      303.816       0.00000
      303.909       0.00000
      304.003       0.00000
      304.096       0.00000
      304.190       0.00000
      304.283       0.00000
      304.377       0.00000
      304.471       0.00000
      304.564       0.00000
      304.658       0.00000
      304.752       0.00000
      304.846       0.00000
      304.939       0.00000
      305.033       0.00000
      305.127       0.00000
      305.221       0.00000
      305.315       0.00000
      305.409       0.00000
      305.503       0.00000
      305.597       0.00000
      305.691       0.00000
      305.785       0.00000
      305.879       0.00000
      305.973       0.00000
      306.067       0.00000
      306.161       0.00000
      306.255       0.00000
      306.350       0.00000
      306.444       0.00000
      306.538       0.00000
      306.633       0.00000
      306.727       0.00000
      306.821       0.00000
      306.916       0.00000
      307.010       0.00000
      307.105       0.00000
      307.199       0.00000
      307.294       0.00000
      307.388       0.00000
      307.483       0.00000
      307.577       0.00000
      307.672       0.00000
      307.767       0.00000
      307.861       0.00000
      307.956       0.00000
      308.051       0.00000
      308.146       0.00000
      308.240       0.00000
      308.335       0.00000
      308.430       0.00000
      308.525       0.00000
      308.620       0.00000
      308.715       0.00000
      308.810       0.00000
      308.905       0.00000
      309.000       0.00000
      309.095       0.00000
      309.190       0.00000
      309.285       0.00000
      309.380       0.00000
      309.476       0.00000
      309.571       0.00000
      309.666       0.00000
      309.761       0.00000
      309.857       0.00000
      309.952       0.00000
      310.047       0.00000
      310.143       0.00000
      310.238       0.00000
      310.334       0.00000
      310.429       0.00000
      310.525       0.00000
      310.620       0.00000
      310.716       0.00000
      310.811       0.00000
      310.907       0.00000
      311.003       0.00000
      311.098       0.00000
      311.194       0.00000
      311.290       0.00000
      311.386       0.00000
      311.481       0.00000
      311.577       0.00000
      311.673       0.00000
      311.769       0.00000
      311.865       0.00000
      311.961       0.00000
      312.057       0.00000
      312.153       0.00000
      312.249       0.00000
      312.345       0.00000
      312.441       0.00000
      312.537       0.00000
      312.633       0.00000
      312.730       0.00000
      312.826       0.00000
      312.922       0.00000
      313.018       0.00000
      313.115       0.00000
      313.211       0.00000
      313.307       0.00000
      313.404       0.00000
      313.500       0.00000
      313.597       0.00000
      313.693       0.00000
      313.790       0.00000
      313.886       0.00000
      313.983       0.00000
      314.079       0.00000
      314.176       0.00000
      314.273       0.00000
      314.369       0.00000
      314.466       0.00000
      314.563       0.00000
      314.660       0.00000
      314.756       0.00000
      314.853       0.00000
      314.950       0.00000
      315.047       0.00000
      315.144       0.00000
      315.241       0.00000
      315.338       0.00000
      315.435       0.00000
      315.532       0.00000
      315.629       0.00000
      315.726       0.00000
      315.823       0.00000
      315.921       0.00000
      316.018       0.00000
      316.115       0.00000
      316.212       0.00000
      316.310       0.00000
      316.407       0.00000
      316.504       0.00000
      316.602       0.00000
      316.699       0.00000
      316.796       0.00000
      316.894       0.00000
      316.991       0.00000
      317.089       0.00000
      317.187       0.00000
      317.284       0.00000
      317.382       0.00000
      317.479       0.00000
      317.577       0.00000
      317.675       0.00000
      317.773       0.00000
      317.870       0.00000
      317.968       0.00000
      318.066       0.00000
      318.164       0.00000
      318.262       0.00000
      318.360       0.00000
      318.458       0.00000
      318.556       0.00000
      318.654       0.00000
      318.752       0.00000
      318.850       0.00000
      318.948       0.00000
      319.046       0.00000
      319.144       0.00000
      319.242       0.00000
      319.341       0.00000
      319.439       0.00000
      319.537       0.00000
      319.635       0.00000
      319.734       0.00000
      319.832       0.00000
      319.930       0.00000
      320.029       0.00000
      320.127       0.00000
      320.226       0.00000
      320.324       0.00000
      320.423       0.00000
      320.522       0.00000
      320.620       0.00000
      320.719       0.00000
      320.818       0.00000
      320.916       0.00000
      321.015       0.00000
      321.114       0.00000
      321.213       0.00000
      321.311       0.00000
      321.410       0.00000
      321.509       0.00000
      321.608       0.00000
      321.707       0.00000
      321.806       0.00000
      321.905       0.00000
      322.004       0.00000
      322.103       0.00000
      322.202       0.00000
      322.301       0.00000
      322.401       0.00000
      322.500       0.00000
      322.599       0.00000
      322.698       0.00000
      322.798       0.00000
      322.897       0.00000
      322.996       0.00000
      323.096       0.00000
      323.195       0.00000
      323.294       0.00000
      323.394       0.00000
      323.493       0.00000
      323.593       0.00000
      323.692       0.00000
      323.792       0.00000
      323.892       0.00000
      323.991       0.00000
      324.091       0.00000
      324.191       0.00000
      324.291       0.00000
      324.390       0.00000
      324.490       0.00000
      324.590       0.00000
      324.690       0.00000
      324.790       0.00000
      324.890       0.00000
      324.990       0.00000
      325.090       0.00000
      325.190       0.00000
      325.290       0.00000
      325.390       0.00000
      325.490       0.00000
      325.590       0.00000
      325.690       0.00000
      325.790       0.00000
      325.891       0.00000
      325.991       0.00000
      326.091       0.00000
      326.192       0.00000
      326.292       0.00000
      326.392       0.00000
      326.493       0.00000
      326.593       0.00000
      326.694       0.00000
      326.794       0.00000
      326.895       0.00000
      326.995       0.00000
      327.096       0.00000
      327.197       0.00000
      327.297       0.00000
      327.398       0.00000
      327.499       0.00000
      327.599       0.00000
      327.700       0.00000
      327.801       0.00000
      327.902       0.00000
      328.003       0.00000
      328.104       0.00000
      328.205       0.00000
      328.306       0.00000
      328.407       0.00000
      328.508       0.00000
      328.609       0.00000
      328.710       0.00000
      328.811       0.00000
      328.912       0.00000
      329.013       0.00000
      329.115       0.00000
      329.216       0.00000
      329.317       0.00000
      329.419       0.00000
      329.520       0.00000
      329.621       0.00000
      329.723       0.00000
      329.824       0.00000
      329.926       0.00000
      330.027       0.00000
      330.129       0.00000
      330.230       0.00000
      330.332       0.00000
      330.434       0.00000
      330.535       0.00000
      330.637       0.00000
      330.739       0.00000
      330.840       0.00000
      330.942       0.00000
      331.044       0.00000
      331.146       0.00000
      331.248       0.00000
      331.350       0.00000
      331.452       0.00000
      331.554       0.00000
      331.656       0.00000
      331.758       0.00000
      331.860       0.00000
      331.962       0.00000
      332.064       0.00000
      332.166       0.00000
      332.268       0.00000
      332.371       0.00000
      332.473       0.00000
      332.575       0.00000
      332.677       0.00000
      332.780       0.00000
      332.882       0.00000
      332.985       0.00000
      333.087       0.00000
      333.190       0.00000
      333.292       0.00000
      333.395       0.00000
      333.497       0.00000
      333.600       0.00000
      333.702       0.00000
      333.805       0.00000
      333.908       0.00000
      334.011       0.00000
      334.113       0.00000
      334.216       0.00000
      334.319       0.00000
      334.422       0.00000
      334.525       0.00000
      334.628       0.00000
      334.731       0.00000
      334.834       0.00000
      334.937       0.00000
      335.040       0.00000
      335.143       0.00000
      335.246       0.00000
      335.349       0.00000
      335.452       0.00000
      335.555       0.00000
      335.659       0.00000
      335.762       0.00000
      335.865       0.00000
      335.969       0.00000
      336.072       0.00000
      336.175       0.00000
      336.279       0.00000
      336.382       0.00000
      336.486       0.00000
      336.589       0.00000
      336.693       0.00000
      336.796       0.00000
      336.900       0.00000
      337.004       0.00000
      337.107       0.00000
      337.211       0.00000
      337.315       0.00000
      337.419       0.00000
      337.523       0.00000
      337.626       0.00000
      337.730       0.00000
      337.834       0.00000
      337.938       0.00000
      338.042       0.00000
      338.146       0.00000
      338.250       0.00000
      338.354       0.00000
      338.458       0.00000
      338.562       0.00000
      338.667       0.00000
      338.771       0.00000
      338.875       0.00000
      338.979       0.00000
      339.084       0.00000
      339.188       0.00000
      339.292       0.00000
      339.397       0.00000
      339.501       0.00000
      339.606       0.00000
      339.710       0.00000
      339.815       0.00000
      339.919       0.00000
      340.024       0.00000
      340.128       0.00000
      340.233       0.00000
      340.338       0.00000
      340.442       0.00000
      340.547       0.00000
      340.652       0.00000
      340.757       0.00000
      340.862       0.00000
      340.966       0.00000
      341.071       0.00000
      341.176       0.00000
      341.281       0.00000
      341.386       0.00000
      341.491       0.00000
      341.596       0.00000
      341.702       0.00000
      341.807       0.00000
      341.912       0.00000
      342.017       0.00000
      342.122       0.00000
      342.228       0.00000
      342.333       0.00000
      342.438       0.00000
      342.544       0.00000
      342.649       0.00000
      342.754       0.00000
      342.860       0.00000
      342.965       0.00000
      343.071       0.00000
      343.176       0.00000
      343.282       0.00000
      343.388       0.00000
      343.493       0.00000
      343.599       0.00000
      343.705       0.00000
      343.810       0.00000
      343.916       0.00000
      344.022       0.00000
      344.128       0.00000
      344.234       0.00000
      344.340       0.00000
      344.446       0.00000
      344.552       0.00000
      344.658       0.00000
      344.764       0.00000
      344.870       0.00000
      344.976       0.00000
      345.082       0.00000
      345.188       0.00000
      345.294       0.00000
      345.401       0.00000
      345.507       0.00000
      345.613       0.00000
      345.719       0.00000
      345.826       0.00000
      345.932       0.00000
      346.039       0.00000
      346.145       0.00000
      346.252       0.00000
      346.358       0.00000
      346.465       0.00000
      346.571       0.00000
      346.678       0.00000
      346.785       0.00000
      346.891       0.00000
      346.998       0.00000
      347.105       0.00000
      347.212       0.00000
      347.319       0.00000
      347.425       0.00000
      347.532       0.00000
      347.639       0.00000
      347.746       0.00000
      347.853       0.00000
      347.960       0.00000
      348.067       0.00000
      348.174       0.00000
      348.281       0.00000
      348.389       0.00000
      348.496       0.00000
      348.603       0.00000
      348.710       0.00000
      348.818       0.00000
      348.925       0.00000
      349.032       0.00000
      349.140       0.00000
      349.247       0.00000
      349.355       0.00000
      349.462       0.00000
      349.570       0.00000
      349.677       0.00000
      349.785       0.00000
      349.892       0.00000
      350.000       0.00000
      350.100       0.00000
      350.193       0.00000
      350.287       0.00000
      350.380       0.00000
      350.473       0.00000
      350.567       0.00000
      350.660       0.00000
      350.754       0.00000
      350.847       0.00000
      350.941       0.00000
      351.034       0.00000
      351.128       0.00000
      351.221       0.00000
      351.315       0.00000
      351.409       0.00000
      351.502       0.00000
      351.596       0.00000
      351.690       0.00000
      351.783       0.00000
      351.877       0.00000
      351.971       0.00000
      352.065       0.00000
      352.159       0.00000
      352.252       0.00000
      352.346       0.00000
      352.440       0.00000
      352.534       0.00000
      352.628       0.00000
      352.722       0.00000
      352.816       0.00000
      352.910       0.00000
      353.004       0.00000
      353.098       0.00000
      353.192       0.00000
      353.287       0.00000
      353.381       0.00000
      353.475       0.00000
      353.569       0.00000
      353.663       0.00000
      353.758       0.00000
      353.852       0.00000
      353.946       0.00000
      354.041       0.00000
      354.135       0.00000
      354.229       0.00000
      354.324       0.00000
      354.418       0.00000
      354.513       0.00000
      354.607       0.00000
      354.702       0.00000
      354.796       0.00000
      354.891       0.00000
      354.985       0.00000
      355.080       0.00000
      355.175       0.00000
      355.269       0.00000
      355.364       0.00000
      355.459       0.00000
      355.553       0.00000
      355.648       0.00000
      355.743       0.00000
      355.838       0.00000
      355.933       0.00000
      356.027       0.00000
      356.122       0.00000
      356.217       0.00000
      356.312       0.00000
      356.407       0.00000
      356.502       0.00000
      356.597       0.00000
      356.692       0.00000
      356.787       0.00000
      356.882       0.00000
      356.977       0.00000
      357.073       0.00000
      357.168       0.00000
      357.263       0.00000
      357.358       0.00000
      357.453       0.00000
      357.549       0.00000
      357.644       0.00000
      357.739       0.00000
      357.835       0.00000
      357.930       0.00000
      358.025       0.00000
      358.121       0.00000
      358.216       0.00000
      358.312       0.00000
      358.407       0.00000
      358.503       0.00000
      358.598       0.00000
      358.694       0.00000
      358.790       0.00000
      358.885       0.00000
      358.981       0.00000
      359.076       0.00000
      359.172       0.00000
      359.268       0.00000
      359.364       0.00000
      359.459       0.00000
      359.555       0.00000
      359.651       0.00000
      359.747       0.00000
      359.843       0.00000
      359.939       0.00000
      360.035       0.00000
      360.131       0.00000
      360.227       0.00000
      360.323       0.00000
      360.419       0.00000
      360.515       0.00000
      360.611       0.00000
      360.707       0.00000
      360.803       0.00000
      360.899       0.00000
      360.995       0.00000
      361.092       0.00000
      361.188       0.00000
      361.284       0.00000
      361.380       0.00000
      361.477       0.00000
      361.573       0.00000
      361.669       0.00000
      361.766       0.00000
      361.862       0.00000
      361.959       0.00000
      362.055       0.00000
      362.152       0.00000
      362.248       0.00000
      362.345       0.00000
      362.441       0.00000
      362.538       0.00000
      362.635       0.00000
      362.731       0.00000
      362.828       0.00000
      362.925       0.00000
      363.021       0.00000
      363.118       0.00000
      363.215       0.00000
      363.312       0.00000
      363.409       0.00000
      363.505       0.00000
      363.602       0.00000
      363.699       0.00000
      363.796       0.00000
      363.893       0.00000
      363.990       0.00000
      364.087       0.00000
      364.184       0.00000
      364.281       0.00000
      364.378       0.00000
      364.475       0.00000
      364.573       0.00000
      364.670       0.00000
      364.767       0.00000
      364.864       0.00000
      364.961       0.00000
      365.059       0.00000
      365.156       0.00000
      365.253       0.00000
      365.351       0.00000
      365.448       0.00000
      365.545       0.00000
      365.643       0.00000
      365.740       0.00000
      365.838       0.00000
      365.935       0.00000
      366.033       0.00000
      366.130       0.00000
      366.228       0.00000
      366.326       0.00000
      366.423       0.00000
      366.521       0.00000
      366.618       0.00000
      366.716       0.00000
      366.814       0.00000
      366.912       0.00000
      367.010       0.00000
      367.107       0.00000
      367.205       0.00000
      367.303       0.00000
      367.401       0.00000
      367.499       0.00000
      367.597       0.00000
      367.695       0.00000
      367.793       0.00000
      367.891       0.00000
      367.989       0.00000
      368.087       0.00000
      368.185       0.00000
      368.283       0.00000
      368.381       0.00000
      368.480       0.00000
      368.578       0.00000
      368.676       0.00000
      368.774       0.00000
      368.873       0.00000
      368.971       0.00000
      369.069       0.00000
      369.168       0.00000
      369.266       0.00000
      369.364       0.00000
      369.463       0.00000
      369.561       0.00000
      369.660       0.00000
      369.758       0.00000
      369.857       0.00000
      369.955       0.00000
      370.054       0.00000
      370.153       0.00000
      370.251       0.00000
      370.350       0.00000
      370.449       0.00000
      370.547       0.00000
      370.646       0.00000
      370.745       0.00000
      370.844       0.00000
      370.943       0.00000
      371.041       0.00000
      371.140       0.00000
      371.239       0.00000
      371.338       0.00000
      371.437       0.00000
      371.536       0.00000
      371.635       0.00000
      371.734       0.00000
      371.833       0.00000
      371.932       0.00000
      372.032       0.00000
      372.131       0.00000
      372.230       0.00000
      372.329       0.00000
      372.428       0.00000
      372.528       0.00000
      372.627       0.00000
      372.726       0.00000
      372.826       0.00000
      372.925       0.00000
      373.024       0.00000
      373.124       0.00000
      373.223       0.00000
      373.323       0.00000
      373.422       0.00000
      373.522       0.00000
      373.621       0.00000
      373.721       0.00000
      373.820       0.00000
      373.920       0.00000
      374.020       0.00000
      374.119       0.00000
      374.219       0.00000
      374.319       0.00000
      374.419       0.00000
      374.518       0.00000
      374.618       0.00000
      374.718       0.00000
      374.818       0.00000
      374.918       0.00000
      375.018       0.00000
      375.118       0.00000
      375.218       0.00000
      375.318       0.00000
      375.418       0.00000
      375.518       0.00000
      375.618       0.00000
      375.718       0.00000
      375.818       0.00000
      375.918       0.00000
      376.019       0.00000
      376.119       0.00000
      376.219       0.00000
      376.319       0.00000
      376.420       0.00000
      376.520       0.00000
      376.620       0.00000
      376.721       0.00000
      376.821       0.00000
      376.922       0.00000
      377.022       0.00000
      377.122       0.00000
      377.223       0.00000
      377.323       0.00000
      377.424       0.00000
      377.525       0.00000
      377.625       0.00000
      377.726       0.00000
      377.827       0.00000
      377.927       0.00000
      378.028       0.00000
      378.129       0.00000
      378.230       0.00000
      378.330       0.00000
      378.431       0.00000
      378.532       0.00000
      378.633       0.00000
      378.734       0.00000
      378.835       0.00000
      378.936       0.00000
      379.037       0.00000
      379.138       0.00000
      379.239       0.00000
      379.340       0.00000
      379.441       0.00000
      379.542       0.00000
      379.643       0.00000
      379.745       0.00000
      379.846       0.00000
      379.947       0.00000
      380.048       0.00000
      380.150       0.00000
      380.251       0.00000
      380.352       0.00000
      380.454       0.00000
      380.555       0.00000
      380.656       0.00000
      380.758       0.00000
      380.859       0.00000
      380.961       0.00000
      381.062       0.00000
      381.164       0.00000
      381.266       0.00000
      381.367       0.00000
      381.469       0.00000
      381.570       0.00000
      381.672       0.00000
      381.774       0.00000
      381.876       0.00000
      381.977       0.00000
      382.079       0.00000
      382.181       0.00000
      382.283       0.00000
      382.385       0.00000
      382.487       0.00000
      382.589       0.00000
      382.691       0.00000
      382.793       0.00000
      382.895       0.00000
      382.997       0.00000
      383.099       0.00000
      383.201       0.00000
      383.303       0.00000
      383.405       0.00000
      383.507       0.00000
      383.610       0.00000
      383.712       0.00000
      383.814       0.00000
      383.916       0.00000
      384.019       0.00000
      384.121       0.00000
      384.223       0.00000
      384.326       0.00000
      384.428       0.00000
      384.531       0.00000
      384.633       0.00000
      384.736       0.00000
      384.838       0.00000
      384.941       0.00000
      385.043       0.00000
      385.146       0.00000
      385.249       0.00000
      385.351       0.00000
      385.454       0.00000
      385.557       0.00000
      385.660       0.00000
      385.762       0.00000
      385.865       0.00000
      385.968       0.00000
      386.071       0.00000
      386.174       0.00000
      386.277       0.00000
      386.380       0.00000
      386.483       0.00000
      386.586       0.00000
      386.689       0.00000
      386.792       0.00000
      386.895       0.00000
      386.998       0.00000
      387.101       0.00000
      387.204       0.00000
      387.308       0.00000
      387.411       0.00000
      387.514       0.00000
      387.617       0.00000
      387.721       0.00000
      387.824       0.00000
      387.927       0.00000
      388.031       0.00000
      388.134       0.00000
      388.238       0.00000
      388.341       0.00000
      388.445       0.00000
      388.548       0.00000
      388.652       0.00000
      388.755       0.00000
      388.859       0.00000
      388.962       0.00000
      389.066       0.00000
      389.170       0.00000
      389.274       0.00000
      389.377       0.00000
      389.481       0.00000
      389.585       0.00000
      389.689       0.00000
      389.793       0.00000
      389.897       0.00000
      390.000       0.00000
      390.104       0.00000
      390.208       0.00000
      390.312       0.00000
      390.416       0.00000
      390.520       0.00000
      390.625       0.00000
      390.729       0.00000
      390.833       0.00000
      390.937       0.00000
      391.041       0.00000
      391.145       0.00000
      391.250       0.00000
      391.354       0.00000
      391.458       0.00000
      391.563       0.00000
      391.667       0.00000
      391.771       0.00000
      391.876       0.00000
      391.980       0.00000
      392.085       0.00000
      392.189       0.00000
      392.294       0.00000
      392.398       0.00000
      392.503       0.00000
      392.607       0.00000
      392.712       0.00000
      392.817       0.00000
      392.921       0.00000
      393.026       0.00000
      393.131       0.00000
      393.236       0.00000
      393.340       0.00000
      393.445       0.00000
      393.550       0.00000
      393.655       0.00000
      393.760       0.00000
      393.865       0.00000
      393.970       0.00000
      394.075       0.00000
      394.180       0.00000
      394.285       0.00000
      394.390       0.00000
      394.495       0.00000
      394.600       0.00000
      394.706       0.00000
      394.811       0.00000
      394.916       0.00000
      395.021       0.00000
      395.126       0.00000
      395.232       0.00000
      395.337       0.00000
      395.443       0.00000
      395.548       0.00000
      395.653       0.00000
      395.759       0.00000
      395.864       0.00000
      395.970       0.00000
      396.075       0.00000
      396.181       0.00000
      396.286       0.00000
      396.392       0.00000
      396.498       0.00000
      396.603       0.00000
      396.709       0.00000
      396.815       0.00000
      396.921       0.00000
      397.026       0.00000
      397.132       0.00000
      397.238       0.00000
      397.344       0.00000
      397.450       0.00000
      397.556       0.00000
      397.662       0.00000
      397.768       0.00000
      397.874       0.00000
      397.980       0.00000
      398.086       0.00000
      398.192       0.00000
      398.298       0.00000
      398.404       0.00000
      398.510       0.00000
      398.617       0.00000
      398.723       0.00000
      398.829       0.00000
      398.935       0.00000
      399.042       0.00000
      399.148       0.00000
      399.255       0.00000
      399.361       0.00000
      399.467       0.00000
      399.574       0.00000
      399.680       0.00000
      399.787       0.00000
      399.893       0.00000
      400.000       0.00000
