Filter C-poly
observation_date 07Jan2024
wavelength effective area
      1.00000   2.78569e-10
      1.10000   7.95337e-10
      1.20000   2.06790e-09
      1.30000   4.94561e-09
      1.40000   1.12242e-08
      1.50000   2.39512e-08
      1.60000   4.84993e-08
      1.70000   9.41827e-08
      1.80000   1.75401e-07
      1.90000   3.15364e-07
      2.00000   5.48479e-07
      2.10000   9.26818e-07
      2.20000   1.52896e-06
      2.30000   2.45911e-06
      2.40000   3.86287e-06
      2.50000   5.90708e-06
      2.60000   9.02065e-06
      2.70000   1.34584e-05
      2.80000   1.96962e-05
      2.90000   2.85305e-05
      3.00000   4.06844e-05
      3.10000   5.72731e-05
      3.20000   7.97501e-05
      3.30000   0.000109925
      3.40000   0.000149947
      3.50000   0.000202573
      3.60000   0.000272427
      3.70000   0.000362497
      3.80000   0.000480381
      3.90000   0.000633111
      4.00000   0.000829256
      4.10000    0.00108121
      4.20000    0.00140476
      4.30000    0.00182008
      4.40000    0.00235205
      4.50000    0.00303137
      4.60000    0.00389401
      4.70000    0.00500232
      4.80000    0.00642002
      4.90000    0.00813394
      5.00000     0.0105778
      5.10000     0.0135625
      5.20000     0.0174428
      5.30000     0.0222442
      5.40000     0.0283245
      5.50000     0.0361322
      5.60000     0.0446807
      5.70000     0.0582124
      5.80000     0.0684092
      5.90000      0.104704
      6.00000      0.141097
      6.10000      0.180791
      6.20000      0.222581
      6.30000      0.262687
      6.40000      0.297398
      6.50000      0.323322
      6.60000      0.335622
      6.70000      0.347111
      6.80000      0.348595
      6.90000      0.458713
      7.00000      0.500386
      7.10000      0.530865
      7.20000      0.555593
      7.30000      0.576232
      7.40000      0.592559
      7.50000      0.606062
      7.60000      0.616841
      7.70000      0.623234
      7.80000      0.623977
      7.90000      0.625509
      8.00000      0.907724
      8.10000      0.997015
      8.20000       1.01671
      8.30000       1.03192
      8.40000       1.04320
      8.50000       1.05290
      8.60000       1.06072
      8.70000       1.06731
      8.80000       1.07235
      8.90000       1.07634
      9.00000       1.07921
      9.10000       1.08098
      9.20000       1.08188
      9.30000       1.08179
      9.40000       1.08086
      9.50000       1.07917
      9.60000       1.07664
      9.70000       1.07338
      9.80000       1.06955
      9.90000       1.06517
      10.0000       1.06030
      10.1000       1.05495
      10.2000       1.04916
      10.3000       1.04285
      10.4000       1.03606
      10.5000       1.02881
      10.6000       1.02115
      10.7000       1.01308
      10.8000       1.00463
      10.9000      0.995818
      11.0000      0.986659
      11.1000      0.977192
      11.2000      0.967414
      11.3000      0.957368
      11.4000      0.947042
      11.5000      0.936430
      11.6000      0.925552
      11.7000      0.914328
      11.8000      0.902858
      11.9000      0.891004
      12.0000      0.877839
      12.1000      0.867768
      12.2000      0.872841
      12.3000      0.868727
      12.4000      0.858146
      12.5000      0.846923
      12.6000      0.835394
      12.7000      0.823691
      12.8000      0.811862
      12.9000      0.799923
      13.0000      0.787921
      13.1000      0.775887
      13.2000      0.763847
      13.3000      0.751814
      13.4000      0.739815
      13.5000      0.727980
      13.6000      0.716289
      13.7000      0.704648
      13.8000      0.693050
      13.9000      0.681526
      14.0000      0.670073
      14.1000      0.658671
      14.2000      0.647319
      14.3000      0.636016
      14.4000      0.624745
      14.5000      0.613519
      14.6000      0.602332
      14.7000      0.591189
      14.8000      0.580097
      14.9000      0.569061
      15.0000      0.558090
      15.1000      0.547197
      15.2000      0.536397
      15.3000      0.525686
      15.4000      0.515063
      15.5000      0.504535
      15.6000      0.494135
      15.7000      0.483843
      15.8000      0.473699
      15.9000      0.463685
      16.0000      0.453799
      16.1000      0.444047
      16.2000      0.434460
      16.3000      0.424996
      16.4000      0.415647
      16.5000      0.406410
      16.6000      0.397293
      16.7000      0.388300
      16.8000      0.379412
      16.9000      0.370629
      17.0000      0.361971
      17.1000      0.353435
      17.2000      0.345000
      17.3000      0.336679
      17.4000      0.328637
      17.5000      0.320857
      17.6000      0.313299
      17.7000      0.306004
      17.8000      0.299112
      17.9000      0.292331
      18.0000      0.285605
      18.1000      0.278982
      18.2000      0.272396
      18.3000      0.265835
      18.4000      0.259281
      18.5000      0.252754
      18.6000      0.246238
      18.7000      0.239709
      18.8000      0.233291
      18.9000      0.226959
      19.0000      0.220742
      19.1000      0.214652
      19.2000      0.208657
      19.3000      0.202805
      19.4000      0.197080
      19.5000      0.191456
      19.6000      0.186004
      19.7000      0.180656
      19.8000      0.175403
      19.9000      0.170311
      20.0000      0.165298
      20.1000      0.160388
      20.2000      0.155586
      20.3000      0.150854
      20.4000      0.146246
      20.5000      0.141714
      20.6000      0.137251
      20.7000      0.132910
      20.8000      0.128626
      20.9000      0.124433
      21.0000      0.120325
      21.1000      0.116289
      21.2000      0.112336
      21.3000      0.108434
      21.4000      0.104637
      21.5000      0.100885
      21.6000     0.0971758
      21.7000     0.0935413
      21.8000     0.0899425
      21.9000     0.0863339
      22.0000     0.0827446
      22.1000     0.0791703
      22.2000     0.0754812
      22.3000     0.0716963
      22.4000     0.0668673
      22.5000     0.0617324
      22.6000     0.0521754
      22.7000     0.0467054
      22.8000     0.0617358
      22.9000     0.0802131
      23.0000      0.101135
      23.1000      0.114105
      23.2000      0.119491
      23.3000      0.119695
      23.4000      0.117279
      23.5000      0.114750
      23.6000      0.112205
      23.7000      0.109413
      23.8000      0.106617
      23.9000      0.103852
      24.0000      0.101098
      24.1000     0.0983417
      24.2000     0.0956119
      24.3000     0.0929430
      24.4000     0.0903009
      24.5000     0.0877061
      24.6000     0.0851495
      24.7000     0.0826590
      24.8000     0.0802065
      24.9000     0.0778129
      25.0000     0.0754620
      25.1000     0.0731763
      25.2000     0.0709308
      25.3000     0.0687469
      25.4000     0.0666053
      25.5000     0.0645336
      25.6000     0.0625051
      25.7000     0.0605570
      25.8000     0.0586404
      25.9000     0.0567928
      26.0000     0.0549701
      26.1000     0.0532176
      26.2000     0.0514838
      26.3000     0.0498262
      26.4000     0.0481793
      26.5000     0.0466099
      26.6000     0.0450501
      26.7000     0.0435625
      26.8000     0.0420933
      26.9000     0.0406802
      27.0000     0.0392904
      27.1000     0.0379400
      27.2000     0.0366180
      27.3000     0.0354085
      27.4000     0.0343365
      27.5000     0.0332549
      27.6000     0.0321340
      27.7000     0.0310220
      27.8000     0.0299495
      27.9000     0.0288835
      28.0000     0.0278710
      28.1000     0.0268740
      28.2000     0.0259158
      28.3000     0.0249853
      28.4000     0.0240787
      28.5000     0.0232119
      28.6000     0.0223543
      28.7000     0.0215513
      28.8000     0.0207534
      28.9000     0.0199965
      29.0000     0.0192547
      29.1000     0.0185380
      29.2000     0.0178492
      29.3000     0.0171705
      29.4000     0.0165321
      29.5000     0.0158979
      29.6000     0.0152989
      29.7000     0.0147121
      29.8000     0.0141449
      29.9000     0.0136029
      30.0000     0.0130659
      30.1000     0.0125659
      30.2000     0.0120692
      30.3000     0.0121364
      30.4000     0.0125236
      30.5000     0.0127237
      30.6000     0.0122390
      30.7000     0.0117576
      30.8000     0.0113041
      30.9000     0.0108611
      31.0000     0.0104304
      31.1000     0.0100234
      31.2000    0.00961915
      31.3000    0.00924094
      31.4000    0.00887029
      31.5000    0.00851066
      31.6000    0.00817137
      31.7000    0.00783443
      31.8000    0.00751949
      31.9000    0.00721166
      32.0000    0.00691186
      32.1000    0.00663116
      32.2000    0.00635243
      32.3000    0.00609064
      32.4000    0.00583728
      32.5000    0.00558867
      32.6000    0.00536562
      32.7000    0.00514428
      32.8000    0.00493329
      32.9000    0.00473225
      33.0000    0.00453261
      33.1000    0.00435653
      33.2000    0.00418480
      33.3000    0.00401739
      33.4000    0.00386095
      33.5000    0.00370563
      33.6000    0.00355830
      33.7000    0.00341715
      33.8000    0.00327696
      33.9000    0.00314752
      34.0000    0.00302030
      34.1000    0.00289610
      34.2000    0.00278102
      34.3000    0.00266670
      34.4000    0.00255724
      34.5000    0.00245382
      34.6000    0.00235107
      34.7000    0.00225432
      34.8000    0.00216068
      34.9000    0.00206766
      35.0000    0.00198259
      35.1000    0.00189884
      35.2000    0.00181644
      35.3000    0.00174117
      35.4000    0.00166640
      35.5000    0.00159407
      35.6000    0.00152701
      35.7000    0.00146039
      35.8000    0.00139695
      35.9000    0.00133732
      36.0000    0.00127810
      36.1000    0.00122249
      36.2000    0.00116960
      36.3000    0.00111706
      36.4000    0.00106833
      36.5000    0.00102149
      36.6000   0.000974968
      36.7000   0.000932289
      36.8000   0.000890909
      36.9000   0.000849815
      37.0000   0.000812439
      37.1000   0.000775967
      37.2000   0.000739745
      37.3000   0.000707017
      37.4000   0.000674944
      37.5000   0.000643094
      37.6000   0.000614426
      37.7000   0.000586285
      37.8000   0.000558341
      37.9000   0.000533221
      38.0000   0.000508593
      38.1000   0.000484135
      38.2000   0.000462108
      38.3000   0.000440595
      38.4000   0.000419233
      38.5000   0.000399906
      38.6000   0.000381164
      38.7000   0.000362555
      38.8000   0.000345584
      38.9000   0.000329297
      39.0000   0.000313125
      39.1000   0.000298211
      39.2000   0.000284093
      39.3000   0.000270075
      39.4000   0.000256958
      39.5000   0.000244751
      39.6000   0.000232632
      39.7000   0.000221084
      39.8000   0.000210558
      39.9000   0.000200108
      40.0000   0.000189934
      40.1000   0.000180882
      40.2000   0.000171895
      40.3000   0.000162974
      40.4000   0.000155159
      40.5000   0.000147451
      40.6000   0.000139798
      40.7000   0.000132890
      40.8000   0.000126293
      40.9000   0.000119744
      41.0000   0.000113631
      41.1000   0.000108002
      41.2000   0.000102415
      41.3000   9.70044e-05
      41.4000   9.22204e-05
      41.5000   8.74708e-05
      41.6000   8.27561e-05
      41.7000   7.86200e-05
      41.8000   7.45909e-05
      41.9000   7.05914e-05
      42.0000   6.69131e-05
      42.1000   6.35069e-05
      42.2000   6.01255e-05
      42.3000   5.68513e-05
      42.4000   5.39788e-05
      42.5000   5.11274e-05
      42.6000   4.82970e-05
      42.7000   4.57978e-05
      42.8000   4.33999e-05
      42.9000   4.10193e-05
      43.0000   3.87824e-05
      43.1000   3.67725e-05
      43.2000   3.47775e-05
      43.3000   3.27974e-05
      43.4000     0.0329610
      43.5000     0.0741589
      43.6000      0.129218
      43.7000      0.180630
      43.8000      0.205195
      43.9000      0.209188
      44.0000      0.205442
      44.1000      0.194340
      44.2000      0.191346
      44.3000      0.189062
      44.4000      0.186804
      44.5000      0.184579
      44.6000      0.182360
      44.7000      0.180147
      44.8000      0.177984
      44.9000      0.175832
      45.0000      0.173686
      45.1000      0.171559
      45.2000      0.169472
      45.3000      0.167390
      45.4000      0.165313
      45.5000      0.163276
      45.6000      0.161259
      45.7000      0.159247
      45.8000      0.157242
      45.9000      0.155289
      46.0000      0.153340
      46.1000      0.151397
      46.2000      0.149544
      46.3000      0.147841
      46.4000      0.146143
      46.5000      0.144450
      46.6000      0.142812
      46.7000      0.141203
      46.8000      0.139599
      46.9000      0.137999
      47.0000      0.136475
      47.1000      0.134960
      47.2000      0.133449
      47.3000      0.131949
      47.4000      0.130489
      47.5000      0.129032
      47.6000      0.127579
      47.7000      0.126143
      47.8000      0.124732
      47.9000      0.123325
      48.0000      0.121921
      48.1000      0.120540
      48.2000      0.119178
      48.3000      0.117819
      48.4000      0.116464
      48.5000      0.115135
      48.6000      0.113818
      48.7000      0.112506
      48.8000      0.111196
      48.9000      0.109918
      49.0000      0.108649
      49.1000      0.107383
      49.2000      0.106121
      49.3000      0.104893
      49.4000      0.103670
      49.5000      0.102451
      49.6000      0.101234
      49.7000      0.100052
      49.8000     0.0988743
      49.9000     0.0976991
      50.0000     0.0965284
      50.1000     0.0953949
      50.2000     0.0943225
      50.3000     0.0932591
      50.4000     0.0922063
      50.5000     0.0911629
      50.6000     0.0901299
      50.7000     0.0891082
      50.8000     0.0880947
      50.9000     0.0870927
      51.0000     0.0861091
      51.1000     0.0851382
      51.2000     0.0841762
      51.3000     0.0832236
      51.4000     0.0822818
      51.5000     0.0813472
      51.6000     0.0804208
      51.7000     0.0795031
      51.8000     0.0785867
      51.9000     0.0776782
      52.0000     0.0767783
      52.1000     0.0758872
      52.2000     0.0750049
      52.3000     0.0741300
      52.4000     0.0732640
      52.5000     0.0724065
      52.6000     0.0715562
      52.7000     0.0707126
      52.8000     0.0698765
      52.9000     0.0690486
      53.0000     0.0682291
      53.1000     0.0674174
      53.2000     0.0666152
      53.3000     0.0658212
      53.4000     0.0650344
      53.5000     0.0642547
      53.6000     0.0634820
      53.7000     0.0627166
      53.8000     0.0619604
      53.9000     0.0612115
      54.0000     0.0604708
      54.1000     0.0597386
      54.2000     0.0590123
      54.3000     0.0582931
      54.4000     0.0575813
      54.5000     0.0568764
      54.6000     0.0561798
      54.7000     0.0554904
      54.8000     0.0548087
      54.9000     0.0541340
      55.0000     0.0534662
      55.1000     0.0528043
      55.2000     0.0521251
      55.3000     0.0514316
      55.4000     0.0507452
      55.5000     0.0500665
      55.6000     0.0493953
      55.7000     0.0487321
      55.8000     0.0480758
      55.9000     0.0474262
      56.0000     0.0467910
      56.1000     0.0461520
      56.2000     0.0455102
      56.3000     0.0448758
      56.4000     0.0442488
      56.5000     0.0436285
      56.6000     0.0430152
      56.7000     0.0424098
      56.8000     0.0418112
      56.9000     0.0412215
      57.0000     0.0406382
      57.1000     0.0400608
      57.2000     0.0394892
      57.3000     0.0389244
      57.4000     0.0383659
      57.5000     0.0378147
      57.6000     0.0372697
      57.7000     0.0367313
      57.8000     0.0362004
      57.9000     0.0356767
      58.0000     0.0351590
      58.1000     0.0346466
      58.2000     0.0341410
      58.3000     0.0336417
      58.4000     0.0331485
      58.5000     0.0326613
      58.6000     0.0321808
      58.7000     0.0317060
      58.8000     0.0312374
      58.9000     0.0307743
      59.0000     0.0303169
      59.1000     0.0298650
      59.2000     0.0294192
      59.3000     0.0289789
      59.4000     0.0285447
      59.5000     0.0281159
      59.6000     0.0276928
      59.7000     0.0272745
      59.8000     0.0268618
      59.9000     0.0264540
      60.0000     0.0260521
      60.1000     0.0256550
      60.2000     0.0252636
      60.3000     0.0248775
      60.4000     0.0244965
      60.5000     0.0241209
      60.6000     0.0237496
      60.7000     0.0233824
      60.8000     0.0230198
      60.9000     0.0226621
      61.0000     0.0223092
      61.1000     0.0219614
      61.2000     0.0216180
      61.3000     0.0212798
      61.4000     0.0209458
      61.5000     0.0206165
      61.6000     0.0202910
      61.7000     0.0199698
      61.8000     0.0196539
      61.9000     0.0193431
      62.0000     0.0190367
      62.1000     0.0187344
      62.2000     0.0184367
      62.3000     0.0181429
      62.4000     0.0178535
      62.5000     0.0175677
      62.6000     0.0172858
      62.7000     0.0170074
      62.8000     0.0167344
      62.9000     0.0164652
      63.0000     0.0161998
      63.1000     0.0159385
      63.2000     0.0156805
      63.3000     0.0154261
      63.4000     0.0151748
      63.5000     0.0149277
      63.6000     0.0146839
      63.7000     0.0144435
      63.8000     0.0142068
      63.9000     0.0139737
      64.0000     0.0137442
      64.1000     0.0135177
      64.2000     0.0132951
      64.3000     0.0130755
      64.4000     0.0128589
      64.5000     0.0126453
      64.6000     0.0124346
      64.7000     0.0122273
      64.8000     0.0120228
      64.9000     0.0118214
      65.0000     0.0116230
      65.1000     0.0114277
      65.2000     0.0112356
      65.3000     0.0110459
      65.4000     0.0108593
      65.5000     0.0106753
      65.6000     0.0104938
      65.7000     0.0103150
      65.8000     0.0101391
      65.9000    0.00996627
      66.0000    0.00979592
      66.1000    0.00962838
      66.2000    0.00946343
      66.3000    0.00930088
      66.4000    0.00914089
      66.5000    0.00898312
      66.6000    0.00882776
      66.7000    0.00867486
      66.8000    0.00852431
      66.9000    0.00837929
      67.0000    0.00823927
      67.1000    0.00810200
      67.2000    0.00796697
      67.3000    0.00783381
      67.4000    0.00770274
      67.5000    0.00757350
      67.6000    0.00744612
      67.7000    0.00732067
      67.8000    0.00719673
      67.9000    0.00707440
      68.0000    0.00695470
      68.1000    0.00683754
      68.2000    0.00672216
      68.3000    0.00660846
      68.4000    0.00649662
      68.5000    0.00638662
      68.6000    0.00627809
      68.7000    0.00617124
      68.8000    0.00606599
      68.9000    0.00596384
      69.0000    0.00587182
      69.1000    0.00578893
      69.2000    0.00570860
      69.3000    0.00563055
      69.4000    0.00555549
      69.5000    0.00547885
      69.6000    0.00539973
      69.7000    0.00532372
      69.8000    0.00525155
      69.9000    0.00518040
      70.0000    0.00510993
      70.1000    0.00503896
      70.2000    0.00497148
      70.3000    0.00490751
      70.4000    0.00484376
      70.5000    0.00478150
      70.6000    0.00472071
      70.7000    0.00466077
      70.8000    0.00460139
      70.9000    0.00454061
      71.0000    0.00447860
      71.1000    0.00441941
      71.2000    0.00436317
      71.3000    0.00430352
      71.4000    0.00423952
      71.5000    0.00418058
      71.6000    0.00412897
      71.7000    0.00407689
      71.8000    0.00402316
      71.9000    0.00397129
      72.0000    0.00392332
      72.1000    0.00387440
      72.2000    0.00381816
      72.3000    0.00376284
      72.4000    0.00371440
      72.5000    0.00366657
      72.6000    0.00361927
      72.7000    0.00357267
      72.8000    0.00352661
      72.9000    0.00348110
      73.0000    0.00343732
      73.1000    0.00339458
      73.2000    0.00335234
      73.3000    0.00331068
      73.4000    0.00326988
      73.5000    0.00323022
      73.6000    0.00319108
      73.7000    0.00315240
      73.8000    0.00311411
      73.9000    0.00307625
      74.0000    0.00303906
      74.1000    0.00300528
      74.2000    0.00297281
      74.3000    0.00293773
      74.4000    0.00290072
      74.5000    0.00286477
      74.6000    0.00283059
      74.7000    0.00279677
      74.8000    0.00276332
      74.9000    0.00273026
      75.0000    0.00269719
      75.1000    0.00266437
      75.2000    0.00263197
      75.3000    0.00259994
      75.4000    0.00256852
      75.5000    0.00253814
      75.6000    0.00250811
      75.7000    0.00247836
      75.8000    0.00244905
      75.9000    0.00242046
      76.0000    0.00239226
      76.1000    0.00236439
      76.2000    0.00233683
      76.3000    0.00230959
      76.4000    0.00228312
      76.5000    0.00225701
      76.6000    0.00223114
      76.7000    0.00220549
      76.8000    0.00218014
      76.9000    0.00215509
      77.0000    0.00213029
      77.1000    0.00210575
      77.2000    0.00208149
      77.3000    0.00205748
      77.4000    0.00203371
      77.5000    0.00201022
      77.6000    0.00198655
      77.7000    0.00196308
      77.8000    0.00193985
      77.9000    0.00191686
      78.0000    0.00189381
      78.1000    0.00187019
      78.2000    0.00184690
      78.3000    0.00182565
      78.4000    0.00180525
      78.5000    0.00178489
      78.6000    0.00176426
      78.7000    0.00174383
      78.8000    0.00172292
      78.9000    0.00170209
      79.0000    0.00168145
      79.1000    0.00166101
      79.2000    0.00164088
      79.3000    0.00162154
      79.4000    0.00160260
      79.5000    0.00158366
      79.6000    0.00156435
      79.7000    0.00154524
      79.8000    0.00152604
      79.9000    0.00150693
      80.0000    0.00148801
      80.1000    0.00146862
      80.2000    0.00144940
      80.3000    0.00142971
      80.4000    0.00140962
      80.5000    0.00138974
      80.6000    0.00137010
      80.7000    0.00135071
      80.8000    0.00133167
      80.9000    0.00131308
      81.0000    0.00129474
      81.1000    0.00127670
      81.2000    0.00125890
      81.3000    0.00124134
      81.4000    0.00122526
      81.5000    0.00120946
      81.6000    0.00119419
      81.7000    0.00117983
      81.8000    0.00116569
      81.9000    0.00115222
      82.0000    0.00113912
      82.1000    0.00112620
      82.2000    0.00111303
      82.3000    0.00110002
      82.4000    0.00108741
      82.5000    0.00107534
      82.6000    0.00106339
      82.7000    0.00105124
      82.8000    0.00103880
      82.9000    0.00102648
      83.0000    0.00101443
      83.1000    0.00100257
      83.2000   0.000990815
      83.3000   0.000979183
      83.4000   0.000967705
      83.5000   0.000956387
      83.6000   0.000945433
      83.7000   0.000934605
      83.8000   0.000923839
      83.9000   0.000913023
      84.0000   0.000902301
      84.1000   0.000891845
      84.2000   0.000881747
      84.3000   0.000871741
      84.4000   0.000861715
      84.5000   0.000851706
      84.6000   0.000841809
      84.7000   0.000832179
      84.8000   0.000822727
      84.9000   0.000813395
      85.0000   0.000803956
      85.1000   0.000794555
      85.2000   0.000785259
      85.3000   0.000776414
      85.4000   0.000767734
      85.5000   0.000759157
      85.6000   0.000750480
      85.7000   0.000741882
      85.8000   0.000733374
      85.9000   0.000724950
      86.0000   0.000716599
      86.1000   0.000708329
      86.2000   0.000700387
      86.3000   0.000692538
      86.4000   0.000684762
      86.5000   0.000677053
      86.6000   0.000669421
      86.7000   0.000661875
      86.8000   0.000653893
      86.9000   0.000645977
      87.0000   0.000638166
      87.1000   0.000630564
      87.2000   0.000623063
      87.3000   0.000615635
      87.4000   0.000608108
      87.5000   0.000600635
      87.6000   0.000593236
      87.7000   0.000586018
      87.8000   0.000578894
      87.9000   0.000571847
      88.0000   0.000564882
      88.1000   0.000557985
      88.2000   0.000551167
      88.3000   0.000544559
      88.4000   0.000538162
      88.5000   0.000531862
      88.6000   0.000525578
      88.7000   0.000519290
      88.8000   0.000513075
      88.9000   0.000506920
      89.0000   0.000500808
      89.1000   0.000494763
      89.2000   0.000488782
      89.3000   0.000482858
      89.4000   0.000476984
      89.5000   0.000471169
      89.6000   0.000465415
      89.7000   0.000459724
      89.8000   0.000454093
      89.9000   0.000448520
      90.0000   0.000443004
      90.1000   0.000437558
      90.2000   0.000432070
      90.3000   0.000426404
      90.4000   0.000420794
      90.5000   0.000415253
      90.6000   0.000409874
      90.7000   0.000404460
      90.8000   0.000398994
      90.9000   0.000393455
      91.0000   0.000387958
      91.1000   0.000382535
      91.2000   0.000377119
      91.3000   0.000371672
      91.4000   0.000366281
      91.5000   0.000360971
      91.6000   0.000355743
      91.7000   0.000350956
      91.8000   0.000346801
      91.9000   0.000343366
      92.0000   0.000339543
      92.1000   0.000335673
      92.2000   0.000331611
      92.3000   0.000327390
      92.4000   0.000323100
      92.5000   0.000318876
      92.6000   0.000314705
      92.7000   0.000310584
      92.8000   0.000306511
      92.9000   0.000302528
      93.0000   0.000298693
      93.1000   0.000294904
      93.2000   0.000291164
      93.3000   0.000287582
      93.4000   0.000284082
      93.5000   0.000280618
      93.6000   0.000277192
      93.7000   0.000273806
      93.8000   0.000270475
      93.9000   0.000267181
      94.0000   0.000263925
      94.1000   0.000260707
      94.2000   0.000257532
      94.3000   0.000254414
      94.4000   0.000251403
      94.5000   0.000248433
      94.6000   0.000245499
      94.7000   0.000242604
      94.8000   0.000239737
      94.9000   0.000236900
      95.0000   0.000234096
      95.1000   0.000231332
      95.2000   0.000228590
      95.3000   0.000225869
      95.4000   0.000223181
      95.5000   0.000220563
      95.6000   0.000217972
      95.7000   0.000215408
      95.8000   0.000212842
      95.9000   0.000210293
      96.0000   0.000207769
      96.1000   0.000205270
      96.2000   0.000202794
      96.3000   0.000200351
      96.4000   0.000197932
      96.5000   0.000195541
      96.6000   0.000193187
      96.7000   0.000190871
      96.8000   0.000188573
      96.9000   0.000186296
      97.0000   0.000184041
      97.1000   0.000181822
      97.2000   0.000179625
      97.3000   0.000177423
      97.4000   0.000175222
      97.5000   0.000173051
      97.6000   0.000170908
      97.7000   0.000168800
      97.8000   0.000166725
      97.9000   0.000164676
      98.0000   0.000162647
      98.1000   0.000160638
      98.2000   0.000158654
      98.3000   0.000156816
      98.4000   0.000155055
      98.5000   0.000153349
      98.6000   0.000151661
      98.7000   0.000149991
      98.8000   0.000148336
      98.9000   0.000146697
      99.0000   0.000145078
      99.1000   0.000143474
      99.2000   0.000141877
      99.3000   0.000140255
      99.4000   0.000138654
      99.5000   0.000137069
      99.6000   0.000135510
      99.7000   0.000134029
      99.8000   0.000132595
      99.9000   0.000131426
      100.000   0.000130656
      100.100   0.000129844
      100.200   0.000129034
      100.300   0.000128227
      100.400   0.000127424
      100.500   0.000126643
      100.600   0.000125864
      100.700   0.000125086
      100.800   0.000124310
      100.900   0.000123536
      101.000   0.000122767
      101.100   0.000122003
      101.200   0.000121243
      101.300   0.000120484
      101.400   0.000119729
      101.500   0.000118978
      101.600   0.000118231
      101.700   0.000117500
      101.800   0.000116776
      101.900   0.000116054
      102.000   0.000115337
      102.100   0.000114643
      102.200   0.000113962
      102.300   0.000113285
      102.400   0.000112610
      102.500   0.000111936
      102.600   0.000111264
      102.700   0.000110593
      102.800   0.000109926
      102.900   0.000109260
      103.000   0.000108596
      103.100   0.000107933
      103.200   0.000107273
      103.300   0.000106615
      103.400   0.000105961
      103.500   0.000105310
      103.600   0.000104660
      103.700   0.000104011
      103.800   0.000103340
      103.900   0.000102644
      104.000   0.000101953
      104.100   0.000101266
      104.200   0.000100596
      104.300   0.000100001
      104.400   9.94116e-05
      104.500   9.88249e-05
      104.600   9.82400e-05
      104.700   9.76344e-05
      104.800   9.70211e-05
      104.900   9.64096e-05
      105.000   9.58004e-05
      105.100   9.52108e-05
      105.200   9.46643e-05
      105.300   9.41209e-05
      105.400   9.35789e-05
      105.500   9.30376e-05
      105.600   9.25062e-05
      105.700   9.19781e-05
      105.800   9.14514e-05
      105.900   9.09273e-05
      106.000   9.04185e-05
      106.100   8.99393e-05
      106.200   8.94632e-05
      106.300   8.89885e-05
      106.400   8.85155e-05
      106.500   8.80444e-05
      106.600   8.75752e-05
      106.700   8.71071e-05
      106.800   8.66396e-05
      106.900   8.61741e-05
      107.000   8.57107e-05
      107.100   8.52498e-05
      107.200   8.47914e-05
      107.300   8.43350e-05
      107.400   8.38781e-05
      107.500   8.34208e-05
      107.600   8.29647e-05
      107.700   8.25100e-05
      107.800   8.20573e-05
      107.900   8.16005e-05
      108.000   8.11445e-05
      108.100   8.06892e-05
      108.200   8.02348e-05
      108.300   7.97812e-05
      108.400   7.93234e-05
      108.500   7.88676e-05
      108.600   7.84133e-05
      108.700   7.79593e-05
      108.800   7.74868e-05
      108.900   7.69878e-05
      109.000   7.64906e-05
      109.100   7.59958e-05
      109.200   7.55033e-05
      109.300   7.50132e-05
      109.400   7.45252e-05
      109.500   7.40396e-05
      109.600   7.35566e-05
      109.700   7.30763e-05
      109.800   7.25993e-05
      109.900   7.21250e-05
      110.000   7.16529e-05
      110.100   7.11828e-05
      110.200   7.07145e-05
      110.300   7.02603e-05
      110.400   6.98095e-05
      110.500   6.93615e-05
      110.600   6.89158e-05
      110.700   6.84718e-05
      110.800   6.80292e-05
      110.900   6.75881e-05
      111.000   6.71483e-05
      111.100   6.67101e-05
      111.200   6.62745e-05
      111.300   6.58632e-05
      111.400   6.54534e-05
      111.500   6.50447e-05
      111.600   6.46375e-05
      111.700   6.42331e-05
      111.800   6.38450e-05
      111.900   6.34595e-05
      112.000   6.30759e-05
      112.100   6.26937e-05
      112.200   6.23126e-05
      112.300   6.19188e-05
      112.400   6.15260e-05
      112.500   6.11354e-05
      112.600   6.07468e-05
      112.700   6.03624e-05
      112.800   5.99932e-05
      112.900   5.95925e-05
      113.000   5.92050e-05
      113.100   5.88242e-05
      113.200   5.84389e-05
      113.300   5.80628e-05
      113.400   5.76147e-05
      113.500   5.71505e-05
      113.600   5.67521e-05
      113.700   5.63361e-05
      113.800   5.58793e-05
      113.900   5.54872e-05
      114.000   5.50970e-05
      114.100   5.46651e-05
      114.200   5.42574e-05
      114.300   5.38868e-05
      114.400   5.35083e-05
      114.500   5.31220e-05
      114.600   5.27824e-05
      114.700   5.24104e-05
      114.800   5.20627e-05
      114.900   5.17690e-05
      115.000   5.14379e-05
      115.100   5.10856e-05
      115.200   5.07324e-05
      115.300   5.04281e-05
      115.400   5.00805e-05
      115.500   4.97569e-05
      115.600   4.94164e-05
      115.700   4.90496e-05
      115.800   4.87221e-05
      115.900   4.83762e-05
      116.000   4.80643e-05
      116.100   4.78032e-05
      116.200   4.75391e-05
      116.300   4.72672e-05
      116.400   4.69804e-05
      116.500   4.67295e-05
      116.600   4.64683e-05
      116.700   4.62166e-05
      116.800   4.59554e-05
      116.900   4.56528e-05
      117.000   4.53992e-05
      117.100   4.52828e-05
      117.200   4.52619e-05
      117.300   4.51461e-05
      117.400   4.50235e-05
      117.500   4.49021e-05
      117.600   4.47261e-05
      117.700   4.45291e-05
      117.800   4.43043e-05
      117.900   4.40658e-05
      118.000   4.38010e-05
      118.100   4.35112e-05
      118.200   4.32430e-05
      118.300   4.29846e-05
      118.400   4.26259e-05
      118.500   4.22774e-05
      118.600   4.19771e-05
      118.700   4.16618e-05
      118.800   4.13258e-05
      118.900   4.10068e-05
      119.000   4.06355e-05
      119.100   4.02050e-05
      119.200   3.98288e-05
      119.300   3.94984e-05
      119.400   3.91947e-05
      119.500   3.89038e-05
      119.600   3.85795e-05
      119.700   3.82161e-05
      119.800   3.77743e-05
      119.900   3.72290e-05
      120.000   3.67215e-05
      120.100   3.62448e-05
      120.200   3.59016e-05
      120.300   3.56350e-05
      120.400   3.53687e-05
      120.500   3.49986e-05
      120.600   3.45511e-05
      120.700   3.40812e-05
      120.800   3.36313e-05
      120.900   3.33199e-05
      121.000   3.32212e-05
      121.100   3.30850e-05
      121.200   3.28440e-05
      121.300   3.25295e-05
      121.400   3.21604e-05
      121.500   3.17511e-05
      121.600   3.11799e-05
      121.700   3.06789e-05
      121.800   3.01243e-05
      121.900   2.95668e-05
      122.000   2.89749e-05
      122.100   2.84173e-05
      122.200   2.78696e-05
      122.300   2.74628e-05
      122.400   2.72065e-05
      122.500   2.69829e-05
      122.600   2.67418e-05
      122.700   2.65006e-05
      122.800   2.62278e-05
      122.900   2.59755e-05
      123.000   2.58939e-05
      123.100   2.61058e-05
      123.200   2.63358e-05
      123.300   2.67146e-05
      123.400   2.72155e-05
      123.500   2.78907e-05
      123.600   2.84615e-05
      123.700   2.87317e-05
      123.800   2.89157e-05
      123.900   2.91833e-05
      124.000   2.95863e-05
      124.100   3.04326e-05
      124.200   3.22218e-05
      124.300   3.49238e-05
      124.400   3.75171e-05
      124.500   3.82154e-05
      124.600   3.80397e-05
      124.700   3.77648e-05
      124.800   3.75014e-05
      124.900   3.72388e-05
      125.000   3.69763e-05
      125.100   3.67071e-05
      125.200   3.64385e-05
      125.300   3.61712e-05
      125.400   3.59054e-05
      125.500   3.56411e-05
      125.600   3.53780e-05
      125.700   3.51166e-05
      125.800   3.48567e-05
      125.900   3.45983e-05
      126.000   3.43417e-05
      126.100   3.40868e-05
      126.200   3.38336e-05
      126.300   3.35820e-05
      126.400   3.33319e-05
      126.500   3.30833e-05
      126.600   3.28361e-05
      126.700   3.25903e-05
      126.800   3.23459e-05
      126.900   3.21029e-05
      127.000   3.18605e-05
      127.100   3.16166e-05
      127.200   3.13728e-05
      127.300   3.11300e-05
      127.400   3.08885e-05
      127.500   3.06485e-05
      127.600   3.04100e-05
      127.700   3.01729e-05
      127.800   2.99374e-05
      127.900   2.97034e-05
      128.000   2.94708e-05
      128.100   2.92396e-05
      128.200   2.90097e-05
      128.300   2.87812e-05
      128.400   2.85539e-05
      128.500   2.83279e-05
      128.600   2.81032e-05
      128.700   2.78799e-05
      128.800   2.76580e-05
      128.900   2.74373e-05
      129.000   2.72182e-05
      129.100   2.69998e-05
      129.200   2.67812e-05
      129.300   2.65639e-05
      129.400   2.63480e-05
      129.500   2.61336e-05
      129.600   2.59207e-05
      129.700   2.57093e-05
      129.800   2.54993e-05
      129.900   2.52908e-05
      130.000   2.50839e-05
      130.100   2.48784e-05
      130.200   2.46742e-05
      130.300   2.44716e-05
      130.400   2.42706e-05
      130.500   2.40709e-05
      130.600   2.38728e-05
      130.700   2.36762e-05
      130.800   2.34811e-05
      130.900   2.32874e-05
      131.000   2.30951e-05
      131.100   2.29042e-05
      131.200   2.27143e-05
      131.300   2.25253e-05
      131.400   2.23375e-05
      131.500   2.21510e-05
      131.600   2.19657e-05
      131.700   2.17817e-05
      131.800   2.15988e-05
      131.900   2.14171e-05
      132.000   2.12367e-05
      132.100   2.10574e-05
      132.200   2.08793e-05
      132.300   2.07025e-05
      132.400   2.05268e-05
      132.500   2.03525e-05
      132.600   2.01795e-05
      132.700   2.00077e-05
      132.800   1.98372e-05
      132.900   1.96679e-05
      133.000   1.94998e-05
      133.100   1.93328e-05
      133.200   1.91670e-05
      133.300   1.90024e-05
      133.400   1.88387e-05
      133.500   1.86762e-05
      133.600   1.85150e-05
      133.700   1.83549e-05
      133.800   1.81961e-05
      133.900   1.80386e-05
      134.000   1.78823e-05
      134.100   1.77271e-05
      134.200   1.75732e-05
      134.300   1.74204e-05
      134.400   1.72688e-05
      134.500   1.71185e-05
      134.600   1.69693e-05
      134.700   1.68212e-05
      134.800   1.66743e-05
      134.900   1.65286e-05
      135.000   1.63839e-05
      135.100   1.62403e-05
      135.200   1.60979e-05
      135.300   1.59566e-05
      135.400   1.58164e-05
      135.500   1.56767e-05
      135.600   1.55379e-05
      135.700   1.54000e-05
      135.800   1.52633e-05
      135.900   1.51275e-05
      136.000   1.49928e-05
      136.100   1.48590e-05
      136.200   1.47263e-05
      136.300   1.45944e-05
      136.400   1.44636e-05
      136.500   1.43337e-05
      136.600   1.42047e-05
      136.700   1.40766e-05
      136.800   1.39494e-05
      136.900   1.38232e-05
      137.000   1.36979e-05
      137.100   1.35734e-05
      137.200   1.34500e-05
      137.300   1.33275e-05
      137.400   1.32060e-05
      137.500   1.30854e-05
      137.600   1.29658e-05
      137.700   1.28469e-05
      137.800   1.27288e-05
      137.900   1.26117e-05
      138.000   1.24955e-05
      138.100   1.23803e-05
      138.200   1.22661e-05
      138.300   1.21527e-05
      138.400   1.20404e-05
      138.500   1.19289e-05
      138.600   1.18183e-05
      138.700   1.17087e-05
      138.800   1.15999e-05
      138.900   1.14921e-05
      139.000   1.13851e-05
      139.100   1.12791e-05
      139.200   1.11740e-05
      139.300   1.10698e-05
      139.400   1.09664e-05
      139.500   1.08639e-05
      139.600   1.07621e-05
      139.700   1.06612e-05
      139.800   1.05612e-05
      139.900   1.04619e-05
      140.000   1.03634e-05
      140.100   1.02656e-05
      140.200   1.01687e-05
      140.300   1.00726e-05
      140.400   9.97719e-06
      140.500   9.88255e-06
      140.600   9.78867e-06
      140.700   9.69557e-06
      140.800   9.60331e-06
      140.900   9.51182e-06
      141.000   9.42107e-06
      141.100   9.33107e-06
      141.200   9.24182e-06
      141.300   9.15327e-06
      141.400   9.06542e-06
      141.500   8.97831e-06
      141.600   8.89195e-06
      141.700   8.80631e-06
      141.800   8.72136e-06
      141.900   8.63711e-06
      142.000   8.55355e-06
      142.100   8.47405e-06
      142.200   8.40488e-06
      142.300   8.34450e-06
      142.400   8.28444e-06
      142.500   8.22468e-06
      142.600   8.16522e-06
      142.700   8.10607e-06
      142.800   8.04723e-06
      142.900   7.98872e-06
      143.000   7.93054e-06
      143.100   7.87269e-06
      143.200   7.81520e-06
      143.300   7.75802e-06
      143.400   7.70119e-06
      143.500   7.64468e-06
      143.600   7.58847e-06
      143.700   7.53255e-06
      143.800   7.47699e-06
      143.900   7.42175e-06
      144.000   7.36680e-06
      144.100   7.31217e-06
      144.200   7.25784e-06
      144.300   7.20379e-06
      144.400   7.15084e-06
      144.500   7.10884e-06
      144.600   7.07032e-06
      144.700   7.03225e-06
      144.800   6.99421e-06
      144.900   6.95621e-06
      145.000   6.91825e-06
      145.100   6.88034e-06
      145.200   6.84246e-06
      145.300   6.80464e-06
      145.400   6.76685e-06
      145.500   6.72910e-06
      145.600   6.69139e-06
      145.700   6.65371e-06
      145.800   6.61609e-06
      145.900   6.57852e-06
      146.000   6.54099e-06
      146.100   6.50351e-06
      146.200   6.46608e-06
      146.300   6.42871e-06
      146.400   6.39139e-06
      146.500   6.35416e-06
      146.600   6.31700e-06
      146.700   6.27991e-06
      146.800   6.24252e-06
      146.900   6.20466e-06
      147.000   6.16690e-06
      147.100   6.12922e-06
      147.200   6.09165e-06
      147.300   6.05417e-06
      147.400   6.01679e-06
      147.500   5.97950e-06
      147.600   5.94231e-06
      147.700   5.90522e-06
      147.800   5.86824e-06
      147.900   5.83137e-06
      148.000   5.79460e-06
      148.100   5.75795e-06
      148.200   5.72142e-06
      148.300   5.68500e-06
      148.400   5.64872e-06
      148.500   5.61255e-06
      148.600   5.57651e-06
      148.700   5.54059e-06
      148.800   5.50480e-06
      148.900   5.46914e-06
      149.000   5.43364e-06
      149.100   5.39825e-06
      149.200   5.36296e-06
      149.300   5.32777e-06
      149.400   5.29272e-06
      149.500   5.25780e-06
      149.600   5.22300e-06
      149.700   5.18832e-06
      149.800   5.15377e-06
      149.900   5.11933e-06
      150.000   5.08500e-06
      150.100   5.05081e-06
      150.200   5.01672e-06
      150.300   4.98276e-06
      150.400   4.94892e-06
      150.500   4.91520e-06
      150.600   4.88159e-06
      150.700   4.84809e-06
      150.800   4.81473e-06
      150.900   4.78148e-06
      151.000   4.74834e-06
      151.100   4.71532e-06
      151.200   4.68241e-06
      151.300   4.64963e-06
      151.400   4.61696e-06
      151.500   4.58444e-06
      151.600   4.55209e-06
      151.700   4.51994e-06
      151.800   4.48792e-06
      151.900   4.45600e-06
      152.000   4.42423e-06
      152.100   4.39259e-06
      152.200   4.36108e-06
      152.300   4.32971e-06
      152.400   4.29847e-06
      152.500   4.26738e-06
      152.600   4.23642e-06
      152.700   4.20562e-06
      152.800   4.17496e-06
      152.900   4.14447e-06
      153.000   4.11410e-06
      153.100   4.08391e-06
      153.200   4.05385e-06
      153.300   4.02395e-06
      153.400   3.99420e-06
      153.500   3.96459e-06
      153.600   3.93514e-06
      153.700   3.90584e-06
      153.800   3.87669e-06
      153.900   3.84768e-06
      154.000   3.81927e-06
      154.100   3.79202e-06
      154.200   3.76523e-06
      154.300   3.73855e-06
      154.400   3.71200e-06
      154.500   3.68556e-06
      154.600   3.65925e-06
      154.700   3.63305e-06
      154.800   3.60697e-06
      154.900   3.58100e-06
      155.000   3.55515e-06
      155.100   3.52943e-06
      155.200   3.50381e-06
      155.300   3.47832e-06
      155.400   3.45295e-06
      155.500   3.42770e-06
      155.600   3.40255e-06
      155.700   3.37752e-06
      155.800   3.35262e-06
      155.900   3.32781e-06
      156.000   3.30313e-06
      156.100   3.27856e-06
      156.200   3.25411e-06
      156.300   3.22975e-06
      156.400   3.20551e-06
      156.500   3.18126e-06
      156.600   3.15639e-06
      156.700   3.13164e-06
      156.800   3.10701e-06
      156.900   3.08250e-06
      157.000   3.05813e-06
      157.100   3.03387e-06
      157.200   3.00975e-06
      157.300   2.98574e-06
      157.400   2.96187e-06
      157.500   2.93811e-06
      157.600   2.91448e-06
      157.700   2.89097e-06
      157.800   2.86760e-06
      157.900   2.84434e-06
      158.000   2.82122e-06
      158.100   2.79823e-06
      158.200   2.77537e-06
      158.300   2.75263e-06
      158.400   2.73003e-06
      158.500   2.70756e-06
      158.600   2.68522e-06
      158.700   2.66300e-06
      158.800   2.64093e-06
      158.900   2.61898e-06
      159.000   2.59717e-06
      159.100   2.57548e-06
      159.200   2.55391e-06
      159.300   2.53248e-06
      159.400   2.51118e-06
      159.500   2.49003e-06
      159.600   2.46899e-06
      159.700   2.44810e-06
      159.800   2.42733e-06
      159.900   2.40670e-06
      160.000   2.38620e-06
      160.100   2.36583e-06
      160.200   2.34560e-06
      160.300   2.32548e-06
      160.400   2.30550e-06
      160.500   2.28564e-06
      160.600   2.26591e-06
      160.700   2.24630e-06
      160.800   2.22682e-06
      160.900   2.20746e-06
      161.000   2.18821e-06
      161.100   2.16909e-06
      161.200   2.15010e-06
      161.300   2.13123e-06
      161.400   2.11248e-06
      161.500   2.09385e-06
      161.600   2.07533e-06
      161.700   2.05691e-06
      161.800   2.03861e-06
      161.900   2.02043e-06
      162.000   2.00237e-06
      162.100   1.98442e-06
      162.200   1.96659e-06
      162.300   1.94888e-06
      162.400   1.93129e-06
      162.500   1.91382e-06
      162.600   1.89646e-06
      162.700   1.87923e-06
      162.800   1.86210e-06
      162.900   1.84510e-06
      163.000   1.82821e-06
      163.100   1.81144e-06
      163.200   1.79478e-06
      163.300   1.77824e-06
      163.400   1.76181e-06
      163.500   1.74549e-06
      163.600   1.72929e-06
      163.700   1.71320e-06
      163.800   1.69724e-06
      163.900   1.68139e-06
      164.000   1.66565e-06
      164.100   1.65002e-06
      164.200   1.63452e-06
      164.300   1.61923e-06
      164.400   1.60405e-06
      164.500   1.58899e-06
      164.600   1.57404e-06
      164.700   1.55920e-06
      164.800   1.54448e-06
      164.900   1.52986e-06
      165.000   1.51536e-06
      165.100   1.50097e-06
      165.200   1.48669e-06
      165.300   1.47253e-06
      165.400   1.45848e-06
      165.500   1.44453e-06
      165.600   1.43070e-06
      165.700   1.41697e-06
      165.800   1.40336e-06
      165.900   1.38986e-06
      166.000   1.37647e-06
      166.100   1.36318e-06
      166.200   1.35001e-06
      166.300   1.33694e-06
      166.400   1.32398e-06
      166.500   1.31112e-06
      166.600   1.29837e-06
      166.700   1.28572e-06
      166.800   1.27316e-06
      166.900   1.26071e-06
      167.000   1.24839e-06
      167.100   1.23614e-06
      167.200   1.22400e-06
      167.300   1.21195e-06
      167.400   1.20001e-06
      167.500   1.18816e-06
      167.600   1.17641e-06
      167.700   1.16475e-06
      167.800   1.15319e-06
      167.900   1.14173e-06
      168.000   1.13035e-06
      168.100   1.11907e-06
      168.200   1.10788e-06
      168.300   1.09679e-06
      168.400   1.08578e-06
      168.500   1.07487e-06
      168.600   1.06404e-06
      168.700   1.05330e-06
      168.800   1.04266e-06
      168.900   1.03210e-06
      169.000   1.02163e-06
      169.100   1.01124e-06
      169.200   1.00095e-06
      169.300   9.90733e-07
      169.400   9.80606e-07
      169.500   9.70512e-07
      169.600   9.60275e-07
      169.700   9.49877e-07
      169.800   9.39492e-07
      169.900   9.29196e-07
      170.000   9.18987e-07
      170.100   9.08867e-07
      170.200   8.98836e-07
      170.300   1.17897e-06
      170.400   2.54837e-06
      170.500   4.85406e-06
      170.600   7.18234e-06
      170.700   9.06716e-06
      170.800   9.97014e-06
      170.900   1.00423e-05
      171.000   9.90892e-06
      171.100   9.77664e-06
      171.200   9.64544e-06
      171.300   9.51528e-06
      171.400   9.38628e-06
      171.500   9.25839e-06
      171.600   9.13164e-06
      171.700   9.00613e-06
      171.800   8.88190e-06
      171.900   8.75905e-06
      172.000   8.63767e-06
      172.100   8.51776e-06
      172.200   8.39946e-06
      172.300   8.28245e-06
      172.400   8.16540e-06
      172.500   8.04965e-06
      172.600   7.93555e-06
      172.700   7.82312e-06
      172.800   7.71230e-06
      172.900   7.60307e-06
      173.000   7.49550e-06
      173.100   7.38952e-06
      173.200   7.28508e-06
      173.300   7.18221e-06
      173.400   7.08080e-06
      173.500   6.98093e-06
      173.600   6.88256e-06
      173.700   6.78560e-06
      173.800   6.69005e-06
      173.900   6.59593e-06
      174.000   6.50314e-06
      174.100   6.41166e-06
      174.200   6.32151e-06
      174.300   6.23264e-06
      174.400   6.14503e-06
      174.500   6.05863e-06
      174.600   5.97337e-06
      174.700   5.88932e-06
      174.800   5.80643e-06
      174.900   5.72463e-06
      175.000   5.64387e-06
      175.100   5.56420e-06
      175.200   5.48580e-06
      175.300   5.40840e-06
      175.400   5.33200e-06
      175.500   5.25664e-06
      175.600   5.18226e-06
      175.700   5.10886e-06
      175.800   5.03642e-06
      175.900   4.96494e-06
      176.000   4.89441e-06
      176.100   4.82484e-06
      176.200   4.75617e-06
      176.300   4.68839e-06
      176.400   4.62156e-06
      176.500   4.55559e-06
      176.600   4.49049e-06
      176.700   4.42626e-06
      176.800   4.36289e-06
      176.900   4.30038e-06
      177.000   4.23869e-06
      177.100   4.17781e-06
      177.200   4.11776e-06
      177.300   4.05852e-06
      177.400   4.00004e-06
      177.500   3.94233e-06
      177.600   3.88539e-06
      177.700   3.82922e-06
      177.800   3.77380e-06
      177.900   3.71906e-06
      178.000   3.66529e-06
      178.100   3.61227e-06
      178.200   3.55992e-06
      178.300   3.50826e-06
      178.400   3.45732e-06
      178.500   3.40704e-06
      178.600   3.35742e-06
      178.700   3.30845e-06
      178.800   3.26015e-06
      178.900   3.21251e-06
      179.000   3.16550e-06
      179.100   3.11911e-06
      179.200   3.07336e-06
      179.300   3.02825e-06
      179.400   2.98374e-06
      179.500   2.93988e-06
      179.600   2.89662e-06
      179.700   2.85399e-06
      179.800   2.81194e-06
      179.900   2.77050e-06
      180.000   2.72964e-06
      180.100   2.68937e-06
      180.200   2.64970e-06
      180.300   2.61060e-06
      180.400   2.57206e-06
      180.500   2.53411e-06
      180.600   2.49671e-06
      180.700   2.45986e-06
      180.800   2.42357e-06
      180.900   2.38780e-06
      181.000   2.35256e-06
      181.100   2.31785e-06
      181.200   2.28366e-06
      181.300   2.24996e-06
      181.400   2.21679e-06
      181.500   2.18410e-06
      181.600   2.15189e-06
      181.700   2.12015e-06
      181.800   2.08889e-06
      181.900   2.05808e-06
      182.000   2.02774e-06
      182.100   1.99783e-06
      182.200   1.96838e-06
      182.300   1.93935e-06
      182.400   1.91075e-06
      182.500   1.88256e-06
      182.600   1.85477e-06
      182.700   1.82738e-06
      182.800   1.80039e-06
      182.900   1.77378e-06
      183.000   1.74756e-06
      183.100   1.72171e-06
      183.200   1.69623e-06
      183.300   1.67111e-06
      183.400   1.64635e-06
      183.500   1.62195e-06
      183.600   1.59789e-06
      183.700   1.57418e-06
      183.800   1.55083e-06
      183.900   1.52781e-06
      184.000   1.50513e-06
      184.100   1.48277e-06
      184.200   1.46075e-06
      184.300   1.43903e-06
      184.400   1.41763e-06
      184.500   1.39655e-06
      184.600   1.37576e-06
      184.700   1.35527e-06
      184.800   1.33507e-06
      184.900   1.31517e-06
      185.000   1.29554e-06
      185.100   1.27620e-06
      185.200   1.25713e-06
      185.300   1.23835e-06
      185.400   1.21983e-06
      185.500   1.20157e-06
      185.600   1.18358e-06
      185.700   1.16583e-06
      185.800   1.14835e-06
      185.900   1.13113e-06
      186.000   1.11414e-06
      186.100   1.09739e-06
      186.200   1.08088e-06
      186.300   1.06460e-06
      186.400   1.04855e-06
      186.500   1.03273e-06
      186.600   1.01712e-06
      186.700   1.00173e-06
      186.800   9.86550e-07
      186.900   9.71582e-07
      187.000   9.56820e-07
      187.100   9.42262e-07
      187.200   9.27910e-07
      187.300   9.13767e-07
      187.400   8.99822e-07
      187.500   8.86074e-07
      187.600   8.72517e-07
      187.700   8.59152e-07
      187.800   8.45973e-07
      187.900   8.32979e-07
      188.000   8.20175e-07
      188.100   8.07551e-07
      188.200   7.95104e-07
      188.300   7.82833e-07
      188.400   7.70739e-07
      188.500   7.58824e-07
      188.600   7.47086e-07
      188.700   7.35525e-07
      188.800   7.24136e-07
      188.900   7.12918e-07
      189.000   7.01863e-07
      189.100   6.90970e-07
      189.200   6.80239e-07
      189.300   6.69671e-07
      189.400   6.59264e-07
      189.500   6.49012e-07
      189.600   6.38910e-07
      189.700   6.28966e-07
      189.800   6.19225e-07
      189.900   6.09647e-07
      190.000   6.00210e-07
      190.100   5.90920e-07
      190.200   5.81770e-07
      190.300   5.72761e-07
      190.400   5.63884e-07
      190.500   5.55143e-07
      190.600   5.46539e-07
      190.700   5.38061e-07
      190.800   5.29714e-07
      190.900   5.21495e-07
      191.000   5.13402e-07
      191.100   5.05441e-07
      191.200   4.97597e-07
      191.300   4.89873e-07
      191.400   4.82266e-07
      191.500   4.74772e-07
      191.600   4.67393e-07
      191.700   4.60125e-07
      191.800   4.52963e-07
      191.900   4.45912e-07
      192.000   4.38970e-07
      192.100   4.32136e-07
      192.200   4.25411e-07
      192.300   4.18786e-07
      192.400   4.12259e-07
      192.500   4.05831e-07
      192.600   3.99500e-07
      192.700   3.93266e-07
      192.800   3.87124e-07
      192.900   3.81072e-07
      193.000   3.75113e-07
      193.100   3.69247e-07
      193.200   3.63474e-07
      193.300   3.57790e-07
      193.400   3.52194e-07
      193.500   3.46684e-07
      193.600   3.41255e-07
      193.700   3.35909e-07
      193.800   3.30647e-07
      193.900   3.25466e-07
      194.000   3.20363e-07
      194.100   3.15342e-07
      194.200   3.10403e-07
      194.300   3.05540e-07
      194.400   3.00750e-07
      194.500   2.96033e-07
      194.600   2.91387e-07
      194.700   2.86813e-07
      194.800   2.82311e-07
      194.900   2.77875e-07
      195.000   2.73506e-07
      195.100   2.69209e-07
      195.200   2.64979e-07
      195.300   2.60812e-07
      195.400   2.56708e-07
      195.500   2.52664e-07
      195.600   2.48681e-07
      195.700   2.44757e-07
      195.800   2.40892e-07
      195.900   2.37083e-07
      196.000   2.33289e-07
      196.100   2.29552e-07
      196.200   2.25871e-07
      196.300   2.22245e-07
      196.400   2.18672e-07
      196.500   2.15152e-07
      196.600   2.11685e-07
      196.700   2.08269e-07
      196.800   2.04906e-07
      196.900   2.01595e-07
      197.000   1.98335e-07
      197.100   1.95122e-07
      197.200   1.91958e-07
      197.300   1.88840e-07
      197.400   1.85766e-07
      197.500   1.82740e-07
      197.600   1.79759e-07
      197.700   1.76827e-07
      197.800   1.73940e-07
      197.900   1.71095e-07
      198.000   1.68293e-07
      198.100   1.65534e-07
      198.200   1.62816e-07
      198.300   1.60138e-07
      198.400   1.57502e-07
      198.500   1.54910e-07
      198.600   1.52359e-07
      198.700   1.49847e-07
      198.800   1.47374e-07
      198.900   1.44939e-07
      199.000   1.42541e-07
      199.100   1.40180e-07
      199.200   1.37857e-07
      199.300   1.35573e-07
      199.400   1.33326e-07
      199.500   1.31115e-07
      199.600   1.28938e-07
      199.700   1.26795e-07
      199.800   1.24686e-07
      199.900   1.22611e-07
      200.000   1.20568e-07
      200.100   1.18567e-07
      200.200   1.16592e-07
      200.300   1.14650e-07
      200.400   1.12739e-07
      200.500   1.10858e-07
      200.600   1.09008e-07
      200.700   1.07188e-07
      200.800   1.05397e-07
      200.900   1.03635e-07
      201.000   1.01903e-07
      201.100   1.00199e-07
      201.200   9.85227e-08
      201.300   9.68738e-08
      201.400   9.52525e-08
      201.500   9.36562e-08
      201.600   9.20864e-08
      201.700   9.05424e-08
      201.800   8.90228e-08
      201.900   8.75289e-08
      202.000   8.60611e-08
      202.100   8.46162e-08
      202.200   8.31954e-08
      202.300   8.18469e-08
      202.400   8.06108e-08
      202.500   7.94189e-08
      202.600   7.82435e-08
      202.700   7.70857e-08
      202.800   7.59453e-08
      202.900   7.48219e-08
      203.000   7.37152e-08
      203.100   7.26254e-08
      203.200   7.15511e-08
      203.300   7.04924e-08
      203.400   6.94493e-08
      203.500   6.84220e-08
      203.600   6.74097e-08
      203.700   6.64125e-08
      203.800   6.54308e-08
      203.900   6.44642e-08
      204.000   6.35118e-08
      204.100   6.25737e-08
      204.200   6.16499e-08
      204.300   6.07395e-08
      204.400   5.98430e-08
      204.500   5.89598e-08
      204.600   5.80896e-08
      204.700   5.72325e-08
      204.800   5.63891e-08
      204.900   5.55583e-08
      205.000   5.47398e-08
      205.100   5.39338e-08
      205.200   5.31394e-08
      205.300   5.23573e-08
      205.400   5.15866e-08
      205.500   5.08272e-08
      205.600   5.00988e-08
      205.700   4.93990e-08
      205.800   4.87112e-08
      205.900   4.80334e-08
      206.000   4.73656e-08
      206.100   4.67067e-08
      206.200   4.60568e-08
      206.300   4.54161e-08
      206.400   4.47843e-08
      206.500   4.41608e-08
      206.600   4.35460e-08
      206.700   4.29396e-08
      206.800   4.23411e-08
      206.900   4.17508e-08
      207.000   4.11687e-08
      207.100   4.05943e-08
      207.200   4.00280e-08
      207.300   3.94692e-08
      207.400   3.89177e-08
      207.500   3.83735e-08
      207.600   3.78367e-08
      207.700   3.73067e-08
      207.800   3.67838e-08
      207.900   3.62678e-08
      208.000   3.57586e-08
      208.100   3.52561e-08
      208.200   3.47603e-08
      208.300   3.42709e-08
      208.400   3.37882e-08
      208.500   3.33121e-08
      208.600   3.28419e-08
      208.700   3.23779e-08
      208.800   3.19201e-08
      208.900   3.14678e-08
      209.000   3.10184e-08
      209.100   3.05750e-08
      209.200   3.01375e-08
      209.300   2.97058e-08
      209.400   2.92800e-08
      209.500   2.88599e-08
      209.600   2.84454e-08
      209.700   2.80366e-08
      209.800   2.76337e-08
      209.900   2.72360e-08
      210.000   2.68439e-08
      210.100   2.64571e-08
      210.200   2.60755e-08
      210.300   2.56992e-08
      210.400   2.53280e-08
      210.500   2.49618e-08
      210.600   2.46008e-08
      210.700   2.42447e-08
      210.800   2.38935e-08
      210.900   2.35471e-08
      211.000   2.32055e-08
      211.100   2.28687e-08
      211.200   2.25365e-08
      211.300   2.22092e-08
      211.400   2.18865e-08
      211.500   2.15682e-08
      211.600   2.12543e-08
      211.700   2.09449e-08
      211.800   2.06396e-08
      211.900   2.03387e-08
      212.000   2.00420e-08
      212.100   1.97495e-08
      212.200   1.94609e-08
      212.300   1.91766e-08
      212.400   1.88964e-08
      212.500   1.86200e-08
      212.600   1.83476e-08
      212.700   1.80790e-08
      212.800   1.78142e-08
      212.900   1.75532e-08
      213.000   1.72957e-08
      213.100   1.70421e-08
      213.200   1.67921e-08
      213.300   1.65456e-08
      213.400   1.63026e-08
      213.500   1.60631e-08
      213.600   1.58269e-08
      213.700   1.55942e-08
      213.800   1.53647e-08
      213.900   1.51386e-08
      214.000   1.49157e-08
      214.100   1.46960e-08
      214.200   1.44795e-08
      214.300   1.42662e-08
      214.400   1.40558e-08
      214.500   1.38486e-08
      214.600   1.36444e-08
      214.700   1.34432e-08
      214.800   1.32449e-08
      214.900   1.30496e-08
      215.000   1.28571e-08
      215.100   1.26675e-08
      215.200   1.24806e-08
      215.300   1.22967e-08
      215.400   1.21154e-08
      215.500   1.19368e-08
      215.600   1.17610e-08
      215.700   1.15877e-08
      215.800   1.14169e-08
      215.900   1.12487e-08
      216.000   1.10830e-08
      216.100   1.09197e-08
      216.200   1.07590e-08
      216.300   1.06006e-08
      216.400   1.04447e-08
      216.500   1.02910e-08
      216.600   1.01397e-08
      216.700   9.99068e-09
      216.800   9.84387e-09
      216.900   9.69929e-09
      217.000   9.55687e-09
      217.100   9.41654e-09
      217.200   9.27835e-09
      217.300   9.14224e-09
      217.400   9.00813e-09
      217.500   8.87608e-09
      217.600   8.74594e-09
      217.700   8.61771e-09
      217.800   8.49142e-09
      217.900   8.36707e-09
      218.000   8.24454e-09
      218.100   8.12380e-09
      218.200   8.00485e-09
      218.300   7.88767e-09
      218.400   7.77223e-09
      218.500   7.65841e-09
      218.600   7.54631e-09
      218.700   7.43582e-09
      218.800   7.32693e-09
      218.900   7.21966e-09
      219.000   7.11390e-09
      219.100   7.00966e-09
      219.200   6.90694e-09
      219.300   6.80569e-09
      219.400   6.70587e-09
      219.500   6.60750e-09
      219.600   6.51054e-09
      219.700   6.41496e-09
      219.800   6.32077e-09
      219.900   6.22791e-09
      220.000   6.13635e-09
      220.100   6.04610e-09
      220.200   5.95713e-09
      220.300   5.86945e-09
      220.400   5.78300e-09
      220.500   5.69779e-09
      220.600   5.61381e-09
      220.700   5.53098e-09
      220.800   5.44931e-09
      220.900   5.36886e-09
      221.000   5.28951e-09
      221.100   5.21128e-09
      221.200   5.13419e-09
      221.300   5.05819e-09
      221.400   4.98326e-09
      221.500   4.90941e-09
      221.600   4.83661e-09
      221.700   4.76482e-09
      221.800   4.69404e-09
      221.900   4.62429e-09
      222.000   4.55556e-09
      222.100   4.48777e-09
      222.200   4.42098e-09
      222.300   4.35511e-09
      222.400   4.29020e-09
      222.500   4.22619e-09
      222.600   4.16314e-09
      222.700   4.10096e-09
      222.800   4.03966e-09
      222.900   3.97924e-09
      223.000   3.91968e-09
      223.100   3.86096e-09
      223.200   3.80309e-09
      223.300   3.74605e-09
      223.400   3.68984e-09
      223.500   3.63441e-09
      223.600   3.57980e-09
      223.700   3.52597e-09
      223.800   3.47289e-09
      223.900   3.42063e-09
      224.000   3.36907e-09
      224.100   3.31826e-09
      224.200   3.26818e-09
      224.300   3.21884e-09
      224.400   3.17019e-09
      224.500   3.12225e-09
      224.600   3.07498e-09
      224.700   3.02843e-09
      224.800   2.98253e-09
      224.900   2.93729e-09
      225.000   2.89271e-09
      225.100   2.84877e-09
      225.200   2.80545e-09
      225.300   2.76279e-09
      225.400   2.72072e-09
      225.500   2.67927e-09
      225.600   2.63842e-09
      225.700   2.59817e-09
      225.800   2.55849e-09
      225.900   2.51940e-09
      226.000   2.48088e-09
      226.100   2.44292e-09
      226.200   2.40553e-09
      226.300   2.36885e-09
      226.400   2.33286e-09
      226.500   2.29735e-09
      226.600   2.26232e-09
      226.700   2.22779e-09
      226.800   2.19372e-09
      226.900   2.16015e-09
      227.000   2.12707e-09
      227.100   2.09447e-09
      227.200   2.06236e-09
      227.300   2.03073e-09
      227.400   1.99958e-09
      227.500   1.96888e-09
      227.600   1.93865e-09
      227.700   1.90887e-09
      227.800   1.87954e-09
      227.900   1.85066e-09
      228.000   1.82221e-09
      228.100   1.79419e-09
      228.200   1.76659e-09
      228.300   1.73941e-09
      228.400   1.71266e-09
      228.500   1.68630e-09
      228.600   1.66035e-09
      228.700   1.63481e-09
      228.800   1.60964e-09
      228.900   1.58488e-09
      229.000   1.56049e-09
      229.100   1.53647e-09
      229.200   1.51283e-09
      229.300   1.48955e-09
      229.400   1.46664e-09
      229.500   1.44408e-09
      229.600   1.42187e-09
      229.700   1.40001e-09
      229.800   1.37848e-09
      229.900   1.35729e-09
      230.000   1.33633e-09
      230.100   1.31493e-09
      230.200   1.29386e-09
      230.300   1.27314e-09
      230.400   1.25274e-09
      230.500   1.23268e-09
      230.600   1.21295e-09
      230.700   1.19353e-09
      230.800   1.17443e-09
      230.900   1.15564e-09
      231.000   1.13715e-09
      231.100   1.11896e-09
      231.200   1.10106e-09
      231.300   1.08346e-09
      231.400   1.06614e-09
      231.500   1.04909e-09
      231.600   1.03231e-09
      231.700   1.01581e-09
      231.800   9.99577e-10
      231.900   9.83600e-10
      232.000   9.67878e-10
      232.100   9.52408e-10
      232.200   9.37187e-10
      232.300   9.22211e-10
      232.400   9.07472e-10
      232.500   8.92965e-10
      232.600   8.78693e-10
      232.700   8.64649e-10
      232.800   8.50827e-10
      232.900   8.37227e-10
      233.000   8.23841e-10
      233.100   8.10672e-10
      233.200   7.97706e-10
      233.300   7.84949e-10
      233.400   7.72397e-10
      233.500   7.60043e-10
      233.600   7.47890e-10
      233.700   7.35925e-10
      233.800   7.22902e-10
      233.900   7.09938e-10
      234.000   6.97198e-10
      234.100   6.84687e-10
      234.200   6.72400e-10
      234.300   6.60328e-10
      234.400   6.48468e-10
      234.500   6.36818e-10
      234.600   6.25372e-10
      234.700   6.14129e-10
      234.800   6.03087e-10
      234.900   5.92237e-10
      235.000   5.81576e-10
      235.100   5.71104e-10
      235.200   5.60818e-10
      235.300   5.50713e-10
      235.400   5.40786e-10
      235.500   5.31034e-10
      235.600   5.21457e-10
      235.700   5.12045e-10
      235.800   5.02808e-10
      235.900   4.93733e-10
      236.000   4.84818e-10
      236.100   4.76059e-10
      236.200   4.67454e-10
      236.300   4.59000e-10
      236.400   4.50698e-10
      236.500   4.42540e-10
      236.600   4.34526e-10
      236.700   4.26653e-10
      236.800   4.18918e-10
      236.900   4.11320e-10
      237.000   4.03855e-10
      237.100   3.96520e-10
      237.200   3.89316e-10
      237.300   3.82238e-10
      237.400   3.75285e-10
      237.500   3.68452e-10
      237.600   3.61736e-10
      237.700   3.55143e-10
      237.800   3.48666e-10
      237.900   3.42303e-10
      238.000   3.36053e-10
      238.100   3.29910e-10
      238.200   3.23876e-10
      238.300   3.17948e-10
      238.400   3.12123e-10
      238.500   3.06400e-10
      238.600   3.00779e-10
      238.700   2.95257e-10
      238.800   2.89831e-10
      238.900   2.84500e-10
      239.000   2.79262e-10
      239.100   2.74117e-10
      239.200   2.69064e-10
      239.300   2.64099e-10
      239.400   2.59226e-10
      239.500   2.54439e-10
      239.600   2.49734e-10
      239.700   2.45115e-10
      239.800   2.40575e-10
      239.900   2.36116e-10
      240.000   2.31736e-10
      240.100   2.27432e-10
      240.200   2.23203e-10
      240.300   2.19050e-10
      240.400   2.14969e-10
      240.500   2.10963e-10
      240.600   2.07028e-10
      240.700   2.03162e-10
      240.800   1.99366e-10
      240.900   1.95639e-10
      241.000   1.91980e-10
      241.100   1.88385e-10
      241.200   1.84855e-10
      241.300   1.81387e-10
      241.400   1.77982e-10
      241.500   1.74638e-10
      241.600   1.71354e-10
      241.700   1.68128e-10
      241.800   1.64960e-10
      241.900   1.61849e-10
      242.000   1.58795e-10
      242.100   1.55796e-10
      242.200   1.52854e-10
      242.300   1.49967e-10
      242.400   1.47131e-10
      242.500   1.44347e-10
      242.600   1.41614e-10
      242.700   1.38930e-10
      242.800   1.36297e-10
      242.900   1.33711e-10
      243.000   1.31172e-10
      243.100   1.28680e-10
      243.200   1.26233e-10
      243.300   1.23832e-10
      243.400   1.21475e-10
      243.500   1.19163e-10
      243.600   1.16896e-10
      243.700   1.14670e-10
      243.800   1.12485e-10
      243.900   1.10341e-10
      244.000   1.08237e-10
      244.100   1.06172e-10
      244.200   1.04145e-10
      244.300   1.02156e-10
      244.400   1.00204e-10
      244.500   9.82888e-11
      244.600   9.64087e-11
      244.700   9.45654e-11
      244.800   9.27580e-11
      244.900   9.09846e-11
      245.000   8.92438e-11
      245.100   8.75359e-11
      245.200   8.58606e-11
      245.300   8.42166e-11
      245.400   8.26030e-11
      245.500   8.10204e-11
      245.600   7.94675e-11
      245.700   7.79433e-11
      245.800   7.64476e-11
      245.900   7.49823e-11
      246.000   7.35456e-11
      246.100   7.21355e-11
      246.200   7.07521e-11
      246.300   6.93947e-11
      246.400   6.80634e-11
      246.500   6.67569e-11
      246.600   6.54751e-11
      246.700   6.42178e-11
      246.800   6.29837e-11
      246.900   6.17730e-11
      247.000   6.05870e-11
      247.100   5.94236e-11
      247.200   5.82826e-11
      247.300   5.71632e-11
      247.400   5.60649e-11
      247.500   5.49873e-11
      247.600   5.39301e-11
      247.700   5.28930e-11
      247.800   5.18755e-11
      247.900   5.08772e-11
      248.000   4.98979e-11
      248.100   4.89395e-11
      248.200   4.79988e-11
      248.300   4.70759e-11
      248.400   4.61705e-11
      248.500   4.52821e-11
      248.600   4.44106e-11
      248.700   4.35557e-11
      248.800   4.27170e-11
      248.900   4.18944e-11
      249.000   4.10873e-11
      249.100   4.02966e-11
      249.200   3.95215e-11
      249.300   3.87607e-11
      249.400   3.80144e-11
      249.500   3.72824e-11
      249.600   3.65642e-11
      249.700   3.58595e-11
      249.800   3.51683e-11
      249.900   3.44901e-11
      250.000   3.38250e-11
      250.100   3.31733e-11
      250.200   3.25339e-11
      250.300   3.19073e-11
      250.400   3.12924e-11
      250.500   3.06893e-11
      250.600   3.00978e-11
      250.700   2.95174e-11
      250.800   2.89481e-11
      250.900   2.83897e-11
      251.000   2.78419e-11
      251.100   2.73045e-11
      251.200   2.67777e-11
      251.300   2.62614e-11
      251.400   2.57549e-11
      251.500   2.52579e-11
      251.600   2.47705e-11
      251.700   2.42925e-11
      251.800   2.38235e-11
      251.900   2.33634e-11
      252.000   2.29120e-11
      252.100   2.24694e-11
      252.200   2.20350e-11
      252.300   2.16094e-11
      252.400   2.11918e-11
      252.500   2.07824e-11
      252.600   2.03807e-11
      252.700   1.99866e-11
      252.800   1.96001e-11
      252.900   1.92209e-11
      253.000   1.88488e-11
      253.100   1.84840e-11
      253.200   1.81260e-11
      253.300   1.77817e-11
      253.400   1.74469e-11
      253.500   1.71186e-11
      253.600   1.67965e-11
      253.700   1.64803e-11
      253.800   1.61700e-11
      253.900   1.58654e-11
      254.000   1.55664e-11
      254.100   1.52729e-11
      254.200   1.49847e-11
      254.300   1.47019e-11
      254.400   1.44242e-11
      254.500   1.41517e-11
      254.600   1.38841e-11
      254.700   1.36216e-11
      254.800   1.33641e-11
      254.900   1.31113e-11
      255.000   1.28631e-11
      255.100   1.26194e-11
      255.200   1.23802e-11
      255.300   1.21454e-11
      255.400   1.19150e-11
      255.500   1.16887e-11
      255.600   1.14667e-11
      255.700   1.12487e-11
      255.800   1.10347e-11
      255.900   1.08246e-11
      256.000   1.06183e-11
      256.100   1.04160e-11
      256.200   1.02174e-11
      256.300   1.00225e-11
      256.400   9.83126e-12
      256.500   9.64338e-12
      256.600   9.45907e-12
      256.700   9.27815e-12
      256.800   9.10052e-12
      256.900   8.92614e-12
      257.000   8.75501e-12
      257.100   8.58700e-12
      257.200   8.42216e-12
      257.300   8.26034e-12
      257.400   8.10330e-12
      257.500   7.94978e-12
      257.600   7.79924e-12
      257.700   7.65144e-12
      257.800   7.50633e-12
      257.900   7.36389e-12
      258.000   7.22405e-12
      258.100   7.08674e-12
      258.200   6.95196e-12
      258.300   6.81969e-12
      258.400   6.68977e-12
      258.500   6.56221e-12
      258.600   6.43705e-12
      258.700   6.31418e-12
      258.800   6.19353e-12
      258.900   6.07518e-12
      259.000   5.95893e-12
      259.100   5.84488e-12
      259.200   5.73290e-12
      259.300   5.62311e-12
      259.400   5.51532e-12
      259.500   5.40950e-12
      259.600   5.30569e-12
      259.700   5.20381e-12
      259.800   5.10377e-12
      259.900   5.00556e-12
      260.000   4.90923e-12
      260.100   4.81469e-12
      260.200   4.72191e-12
      260.300   4.63086e-12
      260.400   4.54151e-12
      260.500   4.45386e-12
      260.600   4.36781e-12
      260.700   4.28337e-12
      260.800   4.20058e-12
      260.900   4.11928e-12
      261.000   4.03956e-12
      261.100   3.96136e-12
      261.200   3.88462e-12
      261.300   3.80932e-12
      261.400   3.73548e-12
      261.500   3.66312e-12
      261.600   3.59241e-12
      261.700   3.52308e-12
      261.800   3.45507e-12
      261.900   3.38831e-12
      262.000   3.32282e-12
      262.100   3.25855e-12
      262.200   3.19554e-12
      262.300   3.13369e-12
      262.400   3.07302e-12
      262.500   3.01349e-12
      262.600   2.95508e-12
      262.700   2.89779e-12
      262.800   2.84159e-12
      262.900   2.78643e-12
      263.000   2.73237e-12
      263.100   2.67931e-12
      263.200   2.62729e-12
      263.300   2.57626e-12
      263.400   2.52620e-12
      263.500   2.47711e-12
      263.600   2.42895e-12
      263.700   2.38171e-12
      263.800   2.33536e-12
      263.900   2.28994e-12
      264.000   2.24536e-12
      264.100   2.20163e-12
      264.200   2.15873e-12
      264.300   2.11668e-12
      264.400   2.07544e-12
      264.500   2.03497e-12
      264.600   1.99528e-12
      264.700   1.95637e-12
      264.800   1.91819e-12
      264.900   1.88076e-12
      265.000   1.84405e-12
      265.100   1.80804e-12
      265.200   1.77273e-12
      265.300   1.73810e-12
      265.400   1.70414e-12
      265.500   1.67084e-12
      265.600   1.63819e-12
      265.700   1.60615e-12
      265.800   1.57480e-12
      265.900   1.54404e-12
      266.000   1.51390e-12
      266.100   1.48433e-12
      266.200   1.45535e-12
      266.300   1.42691e-12
      266.400   1.39904e-12
      266.500   1.37169e-12
      266.600   1.34489e-12
      266.700   1.31860e-12
      266.800   1.29284e-12
      266.900   1.26757e-12
      267.000   1.24278e-12
      267.100   1.21848e-12
      267.200   1.19467e-12
      267.300   1.17131e-12
      267.400   1.14840e-12
      267.500   1.12594e-12
      267.600   1.10392e-12
      267.700   1.08233e-12
      267.800   1.06115e-12
      267.900   1.04039e-12
      268.000   1.02004e-12
      268.100   1.00009e-12
      268.200   9.80523e-13
      268.300   9.61348e-13
      268.400   9.42537e-13
      268.500   9.24094e-13
      268.600   9.06010e-13
      268.700   8.88285e-13
      268.800   8.70902e-13
      268.900   8.53865e-13
      269.000   8.37161e-13
      269.100   8.20779e-13
      269.200   8.04723e-13
      269.300   7.88981e-13
      269.400   7.73535e-13
      269.500   7.58396e-13
      269.600   7.43558e-13
      269.700   7.29011e-13
      269.800   7.14747e-13
      269.900   7.00759e-13
      270.000   6.87049e-13
      270.100   6.73627e-13
      270.200   6.60483e-13
      270.300   6.47592e-13
      270.400   6.34949e-13
      270.500   6.22556e-13
      270.600   6.10401e-13
      270.700   5.98485e-13
      270.800   5.86805e-13
      270.900   5.75343e-13
      271.000   5.64111e-13
      271.100   5.53096e-13
      271.200   5.42292e-13
      271.300   5.31702e-13
      271.400   5.21316e-13
      271.500   5.11134e-13
      271.600   5.01143e-13
      271.700   4.91351e-13
      271.800   4.81750e-13
      271.900   4.72335e-13
      272.000   4.63104e-13
      272.100   4.54048e-13
      272.200   4.45172e-13
      272.300   4.36463e-13
      272.400   4.27924e-13
      272.500   4.19553e-13
      272.600   4.11341e-13
      272.700   4.03289e-13
      272.800   3.95392e-13
      272.900   3.87650e-13
      273.000   3.80059e-13
      273.100   3.72611e-13
      273.200   3.65307e-13
      273.300   3.58149e-13
      273.400   3.51125e-13
      273.500   3.44238e-13
      273.600   3.37484e-13
      273.700   3.30858e-13
      273.800   3.24361e-13
      273.900   3.17993e-13
      274.000   3.11746e-13
      274.100   3.05618e-13
      274.200   2.99609e-13
      274.300   2.93716e-13
      274.400   2.87696e-13
      274.500   2.81257e-13
      274.600   2.74848e-13
      274.700   2.68585e-13
      274.800   2.62458e-13
      274.900   2.56467e-13
      275.000   2.50611e-13
      275.100   2.44885e-13
      275.200   2.39287e-13
      275.300   2.33813e-13
      275.400   2.28463e-13
      275.500   2.23233e-13
      275.600   2.18116e-13
      275.700   2.13116e-13
      275.800   2.08229e-13
      275.900   2.03449e-13
      276.000   1.98777e-13
      276.100   1.94208e-13
      276.200   1.89743e-13
      276.300   1.85375e-13
      276.400   1.81108e-13
      276.500   1.76933e-13
      276.600   1.72855e-13
      276.700   1.68866e-13
      276.800   1.64969e-13
      276.900   1.61158e-13
      277.000   1.57432e-13
      277.100   1.53790e-13
      277.200   1.50230e-13
      277.300   1.46750e-13
      277.400   1.43349e-13
      277.500   1.40023e-13
      277.600   1.36774e-13
      277.700   1.33596e-13
      277.800   1.30490e-13
      277.900   1.27455e-13
      278.000   1.24489e-13
      278.100   1.21589e-13
      278.200   1.18755e-13
      278.300   1.15986e-13
      278.400   1.13279e-13
      278.500   1.10632e-13
      278.600   1.08046e-13
      278.700   1.05519e-13
      278.800   1.03049e-13
      278.900   1.00612e-13
      279.000   9.82223e-14
      279.100   9.58885e-14
      279.200   9.36079e-14
      279.300   9.13806e-14
      279.400   8.92035e-14
      279.500   8.70779e-14
      279.600   8.50010e-14
      279.700   8.29731e-14
      279.800   8.09914e-14
      279.900   7.90551e-14
      280.000   7.71643e-14
      280.100   7.53168e-14
      280.200   7.35131e-14
      280.300   7.17507e-14
      280.400   7.00290e-14
      280.500   6.83487e-14
      280.600   6.67071e-14
      280.700   6.51035e-14
      280.800   6.35376e-14
      280.900   6.20080e-14
      281.000   6.05142e-14
      281.100   5.90553e-14
      281.200   5.76304e-14
      281.300   5.62391e-14
      281.400   5.48807e-14
      281.500   5.35537e-14
      281.600   5.22579e-14
      281.700   5.09926e-14
      281.800   4.97577e-14
      281.900   4.85513e-14
      282.000   4.73731e-14
      282.100   4.62228e-14
      282.200   4.51006e-14
      282.300   4.40042e-14
      282.400   4.29337e-14
      282.500   4.18883e-14
      282.600   4.08681e-14
      282.700   3.98719e-14
      282.800   3.88988e-14
      282.900   3.79500e-14
      283.000   3.70231e-14
      283.100   3.61189e-14
      283.200   3.52361e-14
      283.300   3.43745e-14
      283.400   3.35334e-14
      283.500   3.27124e-14
      283.600   3.19106e-14
      283.700   3.11279e-14
      283.800   3.03641e-14
      283.900   2.96190e-14
      284.000   2.88914e-14
      284.100   2.81812e-14
      284.200   2.74880e-14
      284.300   2.68116e-14
      284.400   2.61514e-14
      284.500   2.55071e-14
      284.600   2.48783e-14
      284.700   2.42649e-14
      284.800   2.36661e-14
      284.900   2.30817e-14
      285.000   2.25113e-14
      285.100   2.19548e-14
      285.200   2.14119e-14
      285.300   2.08820e-14
      285.400   2.03648e-14
      285.500   1.98603e-14
      285.600   1.93682e-14
      285.700   1.88878e-14
      285.800   1.84195e-14
      285.900   1.79625e-14
      286.000   1.75168e-14
      286.100   1.70820e-14
      286.200   1.66576e-14
      286.300   1.62438e-14
      286.400   1.58401e-14
      286.500   1.54461e-14
      286.600   1.50618e-14
      286.700   1.46868e-14
      286.800   1.43211e-14
      286.900   1.39643e-14
      287.000   1.36162e-14
      287.100   1.32767e-14
      287.200   1.29456e-14
      287.300   1.26225e-14
      287.400   1.23073e-14
      287.500   1.19999e-14
      287.600   1.17001e-14
      287.700   1.14076e-14
      287.800   1.11224e-14
      287.900   1.08442e-14
      288.000   1.05729e-14
      288.100   1.03083e-14
      288.200   1.00505e-14
      288.300   9.79915e-15
      288.400   9.55383e-15
      288.500   9.31471e-15
      288.600   9.08132e-15
      288.700   8.85381e-15
      288.800   8.63187e-15
      288.900   8.41555e-15
      289.000   8.20449e-15
      289.100   7.99864e-15
      289.200   7.79795e-15
      289.300   7.60223e-15
      289.400   7.41129e-15
      289.500   7.22515e-15
      289.600   7.04359e-15
      289.700   6.86666e-15
      289.800   6.69401e-15
      289.900   6.52563e-15
      290.000   6.36149e-15
      290.100   6.20152e-15
      290.200   6.04563e-15
      290.300   5.89359e-15
      290.400   5.74535e-15
      290.500   5.60085e-15
      290.600   5.45987e-15
      290.700   5.32243e-15
      290.800   5.18847e-15
      290.900   5.05778e-15
      291.000   4.93031e-15
      291.100   4.80602e-15
      291.200   4.68487e-15
      291.300   4.56671e-15
      291.400   4.45154e-15
      291.500   4.33922e-15
      291.600   4.22968e-15
      291.700   4.12295e-15
      291.800   4.01886e-15
      291.900   3.91750e-15
      292.000   3.81867e-15
      292.100   3.72228e-15
      292.200   3.62834e-15
      292.300   3.53670e-15
      292.400   3.44736e-15
      292.500   3.36022e-15
      292.600   3.27527e-15
      292.700   3.19248e-15
      292.800   3.11175e-15
      292.900   3.03305e-15
      293.000   2.95631e-15
      293.100   2.88146e-15
      293.200   2.80849e-15
      293.300   2.73736e-15
      293.400   2.66806e-15
      293.500   2.60053e-15
      293.600   2.53469e-15
      293.700   2.47049e-15
      293.800   2.40791e-15
      293.900   2.34690e-15
      294.000   2.28741e-15
      294.100   2.22940e-15
      294.200   2.17286e-15
      294.300   2.11774e-15
      294.400   2.06396e-15
      294.500   2.01155e-15
      294.600   1.96045e-15
      294.700   1.91062e-15
      294.800   1.86205e-15
      294.900   1.81473e-15
      295.000   1.76862e-15
      295.100   1.72369e-15
      295.200   1.67987e-15
      295.300   1.63714e-15
      295.400   1.59549e-15
      295.500   1.55490e-15
      295.600   1.51531e-15
      295.700   1.47671e-15
      295.800   1.43909e-15
      295.900   1.40238e-15
      296.000   1.36661e-15
      296.100   1.33172e-15
      296.200   1.29773e-15
      296.300   1.26461e-15
      296.400   1.23237e-15
      296.500   1.20091e-15
      296.600   1.17024e-15
      296.700   1.14035e-15
      296.800   1.11121e-15
      296.900   1.08279e-15
      297.000   1.05509e-15
      297.100   1.02808e-15
      297.200   1.00176e-15
      297.300   9.76085e-16
      297.400   9.51061e-16
      297.500   9.26658e-16
      297.600   9.02893e-16
      297.700   8.79737e-16
      297.800   8.57170e-16
      297.900   8.35173e-16
      298.000   8.13735e-16
      298.100   7.92828e-16
      298.200   7.72447e-16
      298.300   7.52585e-16
      298.400   7.33215e-16
      298.500   7.14330e-16
      298.600   6.95918e-16
      298.700   6.77975e-16
      298.800   6.60476e-16
      298.900   6.43459e-16
      299.000   6.26876e-16
      299.100   6.10706e-16
      299.200   5.94937e-16
      299.300   5.79572e-16
      299.400   5.64589e-16
      299.500   5.49985e-16
      299.600   5.35753e-16
      299.700   5.21879e-16
      299.800   5.08345e-16
      299.900   4.95166e-16
      300.000   4.82317e-16
      300.100   4.69800e-16
      300.192   4.58571e-16
      300.285   4.47483e-16
      300.377   4.36776e-16
      300.470   4.26211e-16
      300.562   4.16006e-16
      300.654   4.06037e-16
      300.747   3.96194e-16
      300.839   3.86694e-16
      300.932   3.77311e-16
      301.025   3.68152e-16
      301.117   3.59309e-16
      301.210   3.50577e-16
      301.303   3.42055e-16
      301.395   3.33832e-16
      301.488   3.25701e-16
      301.581   3.17777e-16
      301.674   3.10032e-16
      301.766   3.02557e-16
      301.859   2.95176e-16
      301.952   2.87976e-16
      302.045   2.80942e-16
      302.138   2.74084e-16
      302.231   2.67394e-16
      302.324   2.60867e-16
      302.417   2.54492e-16
      302.510   2.48267e-16
      302.603   2.42200e-16
      302.696   2.36272e-16
      302.789   2.30484e-16
      302.882   2.24835e-16
      302.976   2.19266e-16
      303.069   2.13887e-16
      303.162   2.08638e-16
      303.255   2.03512e-16
      303.349   1.98457e-16
      303.442   1.93575e-16
      303.535   1.88815e-16
      303.629   1.84118e-16
      303.722   1.79583e-16
      303.816   1.75110e-16
      303.909   1.70791e-16
      304.003   1.66532e-16
      304.096   1.62419e-16
      304.190   1.58362e-16
      304.283   1.54447e-16
      304.377   1.50588e-16
      304.471   1.46820e-16
      304.564   1.43184e-16
      304.658   1.39599e-16
      304.752   1.36098e-16
      304.846   1.32686e-16
      304.939   1.29392e-16
      305.033   1.26143e-16
      305.127   1.22974e-16
      305.221   1.19883e-16
      305.315   1.16868e-16
      305.409   1.13927e-16
      305.503   1.11058e-16
      305.597   1.08260e-16
      305.691   1.05530e-16
      305.785   1.02867e-16
      305.879   1.00270e-16
      305.973   9.77384e-17
      306.067   9.52671e-17
      306.161   9.28586e-17
      306.255   9.05088e-17
      306.350   8.81928e-17
      306.444   8.59583e-17
      306.538   8.37787e-17
      306.633   8.16320e-17
      306.727   7.95597e-17
      306.821   7.75389e-17
      306.916   7.55478e-17
      307.010   7.36276e-17
      307.105   7.17355e-17
      307.199   6.99103e-17
      307.294   6.81110e-17
      307.388   6.63759e-17
      307.483   6.46665e-17
      307.577   6.30172e-17
      307.672   6.13921e-17
      307.767   5.98083e-17
      307.861   5.82808e-17
      307.956   5.67746e-17
      308.051   5.53069e-17
      308.146   5.38771e-17
      308.240   5.24979e-17
      308.335   5.11389e-17
      308.430   4.98136e-17
      308.525   4.85222e-17
      308.620   4.72642e-17
      308.715   4.60378e-17
      308.810   4.48427e-17
      308.905   4.36778e-17
      309.000   4.25429e-17
      309.095   4.14367e-17
      309.190   4.03592e-17
      309.285   3.93086e-17
      309.380   3.82848e-17
      309.476   3.72773e-17
      309.571   3.63055e-17
      309.666   3.53583e-17
      309.761   3.44357e-17
      309.857   3.35275e-17
      309.952   3.26516e-17
      310.047   3.17987e-17
      310.143   3.09586e-17
      310.238   3.01489e-17
      310.334   2.93517e-17
      310.429   2.85829e-17
      310.525   2.78265e-17
      310.620   2.70973e-17
      310.716   2.63793e-17
      310.811   2.56874e-17
      310.907   2.50066e-17
      311.003   2.43433e-17
      311.098   2.37038e-17
      311.194   2.30744e-17
      311.290   2.24615e-17
      311.386   2.18648e-17
      311.481   2.12895e-17
      311.577   2.07235e-17
      311.673   2.01721e-17
      311.769   1.96351e-17
      311.865   1.91125e-17
      311.961   1.86070e-17
      312.057   1.81298e-17
      312.153   1.76698e-17
      312.249   1.72212e-17
      312.345   1.67839e-17
      312.441   1.63574e-17
      312.537   1.59417e-17
      312.633   1.55365e-17
      312.730   1.51371e-17
      312.826   1.47521e-17
      312.922   1.43768e-17
      313.018   1.40109e-17
      313.115   1.36504e-17
      313.211   1.33026e-17
      313.307   1.29637e-17
      313.404   1.26299e-17
      313.500   1.23078e-17
      313.597   1.19909e-17
      313.693   1.16851e-17
      313.790   1.13839e-17
      313.886   1.10934e-17
      313.983   1.08072e-17
      314.079   1.05311e-17
      314.176   1.02594e-17
      314.273   9.99457e-18
      314.369   9.73924e-18
      314.466   9.48775e-18
      314.563   9.24263e-18
      314.660   9.00391e-18
      314.756   8.77355e-18
      314.853   8.54673e-18
      314.950   8.32575e-18
      315.047   8.11046e-18
      315.144   7.90063e-18
      315.241   7.69623e-18
      315.338   7.49703e-18
      315.435   7.30297e-18
      315.532   7.11392e-18
      315.629   6.92973e-18
      315.726   6.75027e-18
      315.823   6.57529e-18
      315.921   6.40323e-18
      316.018   6.23726e-18
      316.115   6.07560e-18
      316.212   5.91804e-18
      316.310   5.76302e-18
      316.407   5.61355e-18
      316.504   5.46787e-18
      316.602   5.32454e-18
      316.699   5.18638e-18
      316.796   5.05179e-18
      316.894   4.91932e-18
      316.991   4.79229e-18
      317.089   4.67140e-18
      317.187   4.55568e-18
      317.284   4.44394e-18
      317.382   4.33381e-18
      317.479   4.22743e-18
      317.577   4.12265e-18
      317.675   4.02047e-18
      317.773   3.92079e-18
      317.870   3.82457e-18
      317.968   3.72967e-18
      318.066   3.63715e-18
      318.164   3.54691e-18
      318.262   3.45892e-18
      318.360   3.37307e-18
      318.458   3.28938e-18
      318.556   3.20778e-18
      318.654   3.12817e-18
      318.752   3.05052e-18
      318.850   2.97481e-18
      318.948   2.90094e-18
      319.046   2.82890e-18
      319.144   2.75863e-18
      319.242   2.69012e-18
      319.341   2.62263e-18
      319.439   2.55747e-18
      319.537   2.49395e-18
      319.635   2.43198e-18
      319.734   2.37094e-18
      319.832   2.31202e-18
      319.930   2.25455e-18
      320.029   2.19794e-18
      320.127   2.14331e-18
      320.226   2.08948e-18
      320.324   2.03751e-18
      320.423   1.98630e-18
      320.522   1.93641e-18
      320.620   1.88826e-18
      320.719   1.84080e-18
      320.818   1.79454e-18
      320.916   1.74988e-18
      321.015   1.70588e-18
      321.114   1.66298e-18
      321.213   1.62116e-18
      321.311   1.58080e-18
      321.410   1.54105e-18
      321.509   1.50227e-18
      321.608   1.46449e-18
      321.707   1.42764e-18
      321.806   1.39170e-18
      321.905   1.35668e-18
      322.004   1.32252e-18
      322.103   1.28923e-18
      322.202   1.25676e-18
      322.301   1.22512e-18
      322.401   1.19396e-18
      322.500   1.16388e-18
      322.599   1.13457e-18
      322.698   1.10599e-18
      322.798   1.07784e-18
      322.897   1.05066e-18
      322.996   1.02418e-18
      323.096   9.98089e-19
      323.195   9.72917e-19
      323.294   9.48376e-19
      323.394   9.24217e-19
      323.493   9.00894e-19
      323.593   8.77932e-19
      323.692   8.55769e-19
      323.792   8.33951e-19
      323.892   8.12682e-19
      323.991   7.92145e-19
      324.091   7.71939e-19
      324.191   7.52235e-19
      324.291   7.33031e-19
      324.390   7.14508e-19
      324.490   6.96252e-19
      324.590   6.78472e-19
      324.690   6.61142e-19
      324.790   6.44245e-19
      324.890   6.27781e-19
      324.990   6.11726e-19
      325.090   5.96075e-19
      325.190   5.80829e-19
      325.290   5.65975e-19
      325.390   5.51479e-19
      325.490   5.37365e-19
      325.590   5.23609e-19
      325.690   5.10191e-19
      325.790   4.97118e-19
      325.891   4.84252e-19
      325.991   4.71837e-19
      326.091   4.59733e-19
      326.192   4.47823e-19
      326.292   4.36330e-19
      326.392   4.25131e-19
      326.493   4.14107e-19
      326.593   4.03468e-19
      326.694   3.93005e-19
      326.794   3.82903e-19
      326.895   3.72960e-19
      326.995   3.63366e-19
      327.096   3.53927e-19
      327.197   3.44728e-19
      327.297   3.35851e-19
      327.398   3.27115e-19
      327.499   3.18604e-19
      327.599   3.10390e-19
      327.700   3.02305e-19
      327.801   2.94428e-19
      327.902   2.86759e-19
      328.003   2.79282e-19
      328.104   2.71997e-19
      328.205   2.64900e-19
      328.306   2.57985e-19
      328.407   2.51250e-19
      328.508   2.44684e-19
      328.609   2.38288e-19
      328.710   2.32059e-19
      328.811   2.25989e-19
      328.912   2.20076e-19
      329.013   2.14314e-19
      329.115   2.08648e-19
      329.216   2.03181e-19
      329.317   1.97854e-19
      329.419   1.92618e-19
      329.520   1.87563e-19
      329.621   1.82638e-19
      329.723   1.77793e-19
      329.824   1.73126e-19
      329.926   1.68532e-19
      330.027   1.64099e-19
      330.129   1.59739e-19
      330.230   1.55537e-19
      330.332   1.51400e-19
      330.434   1.47373e-19
      330.535   1.43488e-19
      330.637   1.39667e-19
      330.739   1.35948e-19
      330.840   1.32359e-19
      330.942   1.28829e-19
      331.044   1.25392e-19
      331.146   1.22045e-19
      331.248   1.18786e-19
      331.350   1.15613e-19
      331.452   1.12525e-19
      331.554   1.09589e-19
      331.656   1.06836e-19
      331.758   1.04152e-19
      331.860   1.01533e-19
      331.962   9.89781e-20
      332.064   9.64862e-20
      332.166   9.40574e-20
      332.268   9.16862e-20
      332.371   8.93534e-20
      332.473   8.70987e-20
      332.575   8.48987e-20
      332.677   8.27549e-20
      332.780   8.06442e-20
      332.882   7.86051e-20
      332.985   7.65978e-20
      333.087   7.46581e-20
      333.190   7.27489e-20
      333.292   7.08802e-20
      333.395   6.89750e-20
      333.497   6.71131e-20
      333.600   6.52829e-20
      333.702   6.35184e-20
      333.805   6.17855e-20
      333.908   6.00968e-20
      334.011   5.84547e-20
      334.113   5.68715e-20
      334.216   5.53151e-20
      334.319   5.38009e-20
      334.422   5.23271e-20
      334.525   5.08929e-20
      334.628   4.94971e-20
      334.731   4.81397e-20
      334.834   4.68185e-20
      334.937   4.55324e-20
      335.040   4.42805e-20
      335.143   4.30634e-20
      335.246   4.18787e-20
      335.349   4.07259e-20
      335.452   3.96044e-20
      335.555   3.85133e-20
      335.659   3.74412e-20
      335.762   3.64082e-20
      335.865   3.54037e-20
      335.969   3.44166e-20
      336.072   3.34651e-20
      336.175   3.25404e-20
      336.279   3.16320e-20
      336.382   3.07567e-20
      336.486   2.98968e-20
      336.589   2.90684e-20
      336.693   2.82554e-20
      336.796   2.74721e-20
      336.900   2.67025e-20
      337.004   2.59538e-20
      337.107   2.52334e-20
      337.211   2.45253e-20
      337.315   2.38374e-20
      337.419   2.31679e-20
      337.523   2.25169e-20
      337.626   2.18900e-20
      337.730   2.12746e-20
      337.834   2.06759e-20
      337.938   2.00941e-20
      338.042   1.95292e-20
      338.146   1.89842e-20
      338.250   1.84546e-20
      338.354   1.79395e-20
      338.458   1.74384e-20
      338.562   1.69511e-20
      338.667   1.64728e-20
      338.771   1.60120e-20
      338.875   1.55640e-20
      338.979   1.51282e-20
      339.084   1.47007e-20
      339.188   1.42888e-20
      339.292   1.38884e-20
      339.397   1.34952e-20
      339.501   1.31167e-20
      339.606   1.27449e-20
      339.710   1.23870e-20
      339.815   1.20358e-20
      339.919   1.16976e-20
      340.024   1.13655e-20
      340.128   1.10460e-20
      340.233   1.07321e-20
      340.338   1.04273e-20
      340.442   1.01336e-20
      340.547   9.84549e-21
      340.652   9.56534e-21
      340.757   9.29313e-21
      340.862   9.02851e-21
      340.966   8.77381e-21
      341.071   8.52382e-21
      341.176   8.28087e-21
      341.281   8.04473e-21
      341.386   7.81536e-21
      341.491   7.59226e-21
      341.596   7.37562e-21
      341.702   7.16305e-21
      341.807   6.95843e-21
      341.912   6.75961e-21
      342.017   6.56637e-21
      342.122   6.37855e-21
      342.228   6.19450e-21
      342.333   6.01725e-21
      342.438   5.84501e-21
      342.544   5.67616e-21
      342.649   5.51357e-21
      342.754   5.35571e-21
      342.860   5.20077e-21
      342.965   5.05159e-21
      343.071   4.90551e-21
      343.176   4.76481e-21
      343.282   4.62680e-21
      343.388   4.49281e-21
      343.493   4.36432e-21
      343.599   4.24234e-21
      343.705   4.12417e-21
      343.810   4.01023e-21
      343.916   3.89847e-21
      344.022   3.78978e-21
      344.128   3.68410e-21
      344.234   3.58128e-21
      344.340   3.48136e-21
      344.446   3.38415e-21
      344.552   3.28965e-21
      344.658   3.19779e-21
      344.764   3.10852e-21
      344.870   3.02164e-21
      344.976   2.93723e-21
      345.082   2.85511e-21
      345.188   2.77533e-21
      345.294   2.69769e-21
      345.401   2.62155e-21
      345.507   2.54821e-21
      345.613   2.47692e-21
      345.719   2.40760e-21
      345.826   2.33959e-21
      345.932   2.27408e-21
      346.039   2.20982e-21
      346.145   2.14793e-21
      346.252   2.08721e-21
      346.358   2.02873e-21
      346.465   1.97139e-21
      346.571   1.91614e-21
      346.678   1.86192e-21
      346.785   1.80922e-21
      346.891   1.75850e-21
      346.998   1.70876e-21
      347.105   1.66040e-21
      347.212   1.61339e-21
      347.319   1.56769e-21
      347.425   1.52368e-21
      347.532   1.48052e-21
      347.639   1.43859e-21
      347.746   1.39783e-21
      347.853   1.35820e-21
      347.960   1.31971e-21
      348.067   1.28231e-21
      348.174   1.24597e-21
      348.281   1.21064e-21
      348.389   1.17600e-21
      348.496   1.14264e-21
      348.603   1.11025e-21
      348.710   1.07876e-21
      348.818   1.04788e-21
      348.925   1.01813e-21
      349.032   9.89245e-22
      349.140   9.60770e-22
      349.247   9.33342e-22
      349.355   9.06469e-22
      349.462   8.80588e-22
      349.570   8.55194e-22
      349.677   8.30776e-22
      349.785   8.06819e-22
      349.892   7.83773e-22
      350.000   7.61178e-22
      350.100   7.40837e-22
      350.193   7.22405e-22
      350.287   7.04227e-22
      350.380   6.86708e-22
      350.473   6.69617e-22
      350.567   6.52758e-22
      350.660   6.36509e-22
      350.754   6.20493e-22
      350.847   6.05049e-22
      350.941   5.89823e-22
      351.034   5.75135e-22
      351.128   5.60656e-22
      351.221   5.46699e-22
      351.315   5.32930e-22
      351.409   5.19506e-22
      351.502   5.06566e-22
      351.596   4.93812e-22
      351.690   4.81366e-22
      351.783   4.69376e-22
      351.877   4.57555e-22
      351.971   4.46025e-22
      352.065   4.34787e-22
      352.159   4.23830e-22
      352.252   4.13262e-22
      352.346   4.02842e-22
      352.440   3.92690e-22
      352.534   3.82798e-22
      352.628   3.73143e-22
      352.722   3.63732e-22
      352.816   3.54562e-22
      352.910   3.45624e-22
      353.004   3.36911e-22
      353.098   3.28410e-22
      353.192   3.20124e-22
      353.287   3.11962e-22
      353.381   3.04087e-22
      353.475   2.96418e-22
      353.569   2.88933e-22
      353.663   2.81643e-22
      353.758   2.74461e-22
      353.852   2.67534e-22
      353.946   2.60778e-22
      354.041   2.54123e-22
      354.135   2.47706e-22
      354.229   2.41448e-22
      354.324   2.35285e-22
      354.418   2.29341e-22
      354.513   2.23483e-22
      354.607   2.17840e-22
      354.702   2.12242e-22
      354.796   2.06712e-22
      354.891   2.01255e-22
      354.985   1.95998e-22
      355.080   1.90825e-22
      355.175   1.85783e-22
      355.269   1.80928e-22
      355.364   1.76147e-22
      355.459   1.71495e-22
      355.553   1.67009e-22
      355.648   1.62596e-22
      355.743   1.58300e-22
      355.838   1.54111e-22
      355.933   1.50038e-22
      356.027   1.46111e-22
      356.122   1.42244e-22
      356.217   1.38480e-22
      356.312   1.34818e-22
      356.407   1.31248e-22
      356.502   1.27774e-22
      356.597   1.24390e-22
      356.692   1.21095e-22
      356.787   1.17888e-22
      356.882   1.14762e-22
      356.977   1.11723e-22
      357.073   1.08731e-22
      357.168   1.05847e-22
      357.263   1.03040e-22
      357.358   1.00307e-22
      357.453   9.76461e-23
      357.549   9.50282e-23
      357.644   9.25061e-23
      357.739   9.00518e-23
      357.835   8.76343e-23
      357.930   8.53067e-23
      358.025   8.30403e-23
      358.121   8.08111e-23
      358.216   7.86630e-23
      358.312   7.65495e-23
      358.407   7.45143e-23
      358.503   7.25117e-23
      358.598   7.05835e-23
      358.694   6.86857e-23
      358.790   6.68377e-23
      358.885   6.50577e-23
      358.981   6.33069e-23
      359.076   6.16213e-23
      359.172   5.99628e-23
      359.268   5.83467e-23
      359.364   5.67745e-23
      359.459   5.52616e-23
      359.555   5.37719e-23
      359.651   5.23218e-23
      359.747   5.09108e-23
      359.843   4.95372e-23
      359.939   4.82002e-23
      360.035   4.68993e-23
      360.131   4.56336e-23
      360.227   4.44001e-23
      360.323   4.32008e-23
      360.419   4.20336e-23
      360.515   4.08976e-23
      360.611   3.97913e-23
      360.707   3.87138e-23
      360.803   3.76671e-23
      360.899   3.66470e-23
      360.995   3.56551e-23
      361.092   3.46793e-23
      361.188   3.37393e-23
      361.284   3.28248e-23
      361.380   3.19349e-23
      361.477   3.10596e-23
      361.573   3.02166e-23
      361.669   2.93965e-23
      361.766   2.85898e-23
      361.862   2.78134e-23
      361.959   2.70501e-23
      362.055   2.63140e-23
      362.152   2.55914e-23
      362.248   2.48953e-23
      362.345   2.42104e-23
      362.441   2.35516e-23
      362.538   2.29038e-23
      362.635   2.22734e-23
      362.731   2.16662e-23
      362.828   2.10693e-23
      362.925   2.04887e-23
      363.021   1.99296e-23
      363.118   1.93802e-23
      363.215   1.88454e-23
      363.312   1.83251e-23
      363.409   1.78193e-23
      363.505   1.73321e-23
      363.602   1.68530e-23
      363.699   1.63872e-23
      363.796   1.59340e-23
      363.893   1.54931e-23
      363.990   1.50642e-23
      364.087   1.46471e-23
      364.184   1.42414e-23
      364.281   1.38466e-23
      364.378   1.34627e-23
      364.475   1.30893e-23
      364.573   1.27223e-23
      364.670   1.23691e-23
      364.767   1.20256e-23
      364.864   1.16914e-23
      364.961   1.13664e-23
      365.059   1.10471e-23
      365.156   1.07398e-23
      365.253   1.04408e-23
      365.351   1.01471e-23
      365.448   9.86430e-24
      365.545   9.58942e-24
      365.643   9.31926e-24
      365.740   9.05917e-24
      365.838   8.80372e-24
      365.935   8.55796e-24
      366.033   8.31650e-24
      366.130   8.08400e-24
      366.228   7.85570e-24
      366.326   7.63376e-24
      366.423   7.42015e-24
      366.521   7.21031e-24
      366.618   7.00824e-24
      366.716   6.80984e-24
      366.814   6.61703e-24
      366.912   6.42962e-24
      367.010   6.24727e-24
      367.107   6.07187e-24
      367.205   5.89952e-24
      367.303   5.73203e-24
      367.401   5.56924e-24
      367.499   5.41094e-24
      367.597   5.25710e-24
      367.695   5.10758e-24
      367.793   4.96228e-24
      367.891   4.82103e-24
      367.989   4.68363e-24
      368.087   4.55017e-24
      368.185   4.42045e-24
      368.283   4.29432e-24
      368.381   4.17169e-24
      368.480   4.05139e-24
      368.578   3.93562e-24
      368.676   3.82315e-24
      368.774   3.71385e-24
      368.873   3.60653e-24
      368.971   3.50329e-24
      369.069   3.40294e-24
      369.168   3.30440e-24
      369.266   3.20967e-24
      369.364   3.11760e-24
      369.463   3.02723e-24
      369.561   2.94032e-24
      369.660   2.85501e-24
      369.758   2.77295e-24
      369.857   2.69244e-24
      369.955   2.61499e-24
      370.054   2.53895e-24
      370.153   2.46509e-24
      370.251   2.39408e-24
      370.350   2.32438e-24
      370.449   2.25670e-24
      370.547   2.19159e-24
      370.646   2.12765e-24
      370.745   2.06561e-24
      370.844   2.00532e-24
      370.943   1.94676e-24
      371.041   1.89047e-24
      371.140   1.83519e-24
      371.239   1.78151e-24
      371.338   1.72939e-24
      371.437   1.67878e-24
      371.536   1.62963e-24
      371.635   1.58186e-24
      371.734   1.53550e-24
      371.833   1.49047e-24
      371.932   1.44674e-24
      372.032   1.40384e-24
      372.131   1.36259e-24
      372.230   1.32257e-24
      372.329   1.28369e-24
      372.428   1.24592e-24
      372.528   1.20890e-24
      372.627   1.17333e-24
      372.726   1.13878e-24
      372.826   1.10489e-24
      372.925   1.07231e-24
      373.024   1.04068e-24
      373.124   1.00966e-24
      373.223   9.79863e-25
      373.323   9.50642e-25
      373.422   9.22549e-25
      373.522   8.94998e-25
      373.621   8.68543e-25
      373.721   8.42587e-25
      373.820   8.17652e-25
      373.920   7.93198e-25
      374.020   7.69446e-25
      374.119   7.46649e-25
      374.219   7.24277e-25
      374.319   7.02584e-25
      374.419   6.81537e-25
      374.518   6.61296e-25
      374.618   6.41456e-25
      374.718   6.22187e-25
      374.818   6.03513e-25
      374.918   5.85394e-25
      375.018   5.67797e-25
      375.118   5.50730e-25
      375.218   5.34159e-25
      375.318   5.18087e-25
      375.418   5.02482e-25
      375.518   4.87356e-25
      375.618   4.72677e-25
      375.718   4.58426e-25
      375.818   4.44603e-25
      375.918   4.31191e-25
      376.019   4.18055e-25
      376.119   4.05431e-25
      376.219   3.93188e-25
      376.319   3.81304e-25
      376.420   3.69668e-25
      376.520   3.58490e-25
      376.620   3.47650e-25
      376.721   3.37024e-25
      376.821   3.26823e-25
      376.922   3.16828e-25
      377.022   3.07227e-25
      377.122   2.97919e-25
      377.223   2.88798e-25
      377.323   2.80042e-25
      377.424   2.71460e-25
      377.525   2.63141e-25
      377.625   2.55152e-25
      377.726   2.47327e-25
      377.827   2.39740e-25
      377.927   2.32452e-25
      378.028   2.25318e-25
      378.129   2.18396e-25
      378.230   2.11684e-25
      378.330   2.05240e-25
      378.431   1.98929e-25
      378.532   1.92815e-25
      378.633   1.86880e-25
      378.734   1.81127e-25
      378.835   1.75551e-25
      378.936   1.70145e-25
      379.037   1.64904e-25
      379.138   1.59821e-25
      379.239   1.54893e-25
      379.340   1.50119e-25
      379.441   1.45489e-25
      379.542   1.40998e-25
      379.643   1.36647e-25
      379.745   1.32388e-25
      379.846   1.28298e-25
      379.947   1.24333e-25
      380.048   1.20492e-25
      380.150   1.16730e-25
      380.251   1.13120e-25
      380.352   1.09622e-25
      380.454   1.06198e-25
      380.555   1.02911e-25
      380.656   9.97240e-26
      380.758   9.66053e-26
      380.859   9.36130e-26
      380.961   9.06856e-26
      381.062   8.78753e-26
      381.164   8.51241e-26
      381.266   8.24587e-26
      381.367   7.99010e-26
      381.469   7.73983e-26
      381.570   7.49969e-26
      381.672   7.26465e-26
      381.774   7.03686e-26
      381.876   6.81618e-26
      381.977   6.60446e-26
      382.079   6.39727e-26
      382.181   6.19648e-26
      382.283   6.00210e-26
      382.385   5.81364e-26
      382.487   5.63096e-26
      382.589   5.45413e-26
      382.691   5.28279e-26
      382.793   5.11680e-26
      382.895   4.95596e-26
      382.997   4.80012e-26
      383.099   4.64915e-26
      383.201   4.50296e-26
      383.303   4.36126e-26
      383.405   4.22400e-26
      383.507   4.09103e-26
      383.610   3.96104e-26
      383.712   3.83627e-26
      383.814   3.71551e-26
      383.916   3.59849e-26
      384.019   3.48401e-26
      384.121   3.37419e-26
      384.223   3.26784e-26
      384.326   3.16386e-26
      384.428   3.06402e-26
      384.531   2.96637e-26
      384.633   2.87272e-26
      384.736   2.78112e-26
      384.838   2.69326e-26
      384.941   2.60735e-26
      385.043   2.52494e-26
      385.146   2.44440e-26
      385.249   2.36640e-26
      385.351   2.29158e-26
      385.454   2.21841e-26
      385.557   2.14760e-26
      385.660   2.07900e-26
      385.762   2.01324e-26
      385.865   1.94893e-26
      385.968   1.88664e-26
      386.071   1.82633e-26
      386.174   1.76795e-26
      386.277   1.71145e-26
      386.380   1.65673e-26
      386.483   1.60374e-26
      386.586   1.55247e-26
      386.689   1.50280e-26
      386.792   1.45472e-26
      386.895   1.40817e-26
      386.998   1.36310e-26
      387.101   1.31948e-26
      387.204   1.27721e-26
      387.308   1.23593e-26
      387.411   1.19634e-26
      387.514   1.15802e-26
      387.617   1.12093e-26
      387.721   1.08468e-26
      387.824   1.04992e-26
      387.927   1.01625e-26
      388.031   9.83365e-27
      388.134   9.51840e-27
      388.238   9.21046e-27
      388.341   8.91499e-27
      388.445   8.62634e-27
      388.548   8.34949e-27
      388.652   8.07911e-27
      388.755   7.81992e-27
      388.859   7.56657e-27
      388.962   7.32372e-27
      389.066   7.08629e-27
      389.170   6.85675e-27
      389.274   6.63445e-27
      389.377   6.42135e-27
      389.481   6.21303e-27
      389.585   6.01159e-27
      389.689   5.81660e-27
      389.793   5.62782e-27
      389.897   5.44530e-27
      390.000   5.27021e-27
      390.104   5.09922e-27
      390.208   4.93365e-27
      390.312   4.77349e-27
      390.416   4.61850e-27
      390.520   4.46843e-27
      390.625   4.32179e-27
      390.729   4.18141e-27
      390.833   4.04548e-27
      390.937   3.91396e-27
      391.041   3.78675e-27
      391.145   3.66365e-27
      391.250   3.54335e-27
      391.354   3.42814e-27
      391.458   3.31664e-27
      391.563   3.20769e-27
      391.667   3.10333e-27
      391.771   3.00236e-27
      391.876   2.90370e-27
      391.980   2.80915e-27
      392.085   2.71683e-27
      392.189   2.62836e-27
      392.294   2.54193e-27
      392.398   2.45914e-27
      392.503   2.37827e-27
      392.607   2.30078e-27
      392.712   2.22511e-27
      392.817   2.15186e-27
      392.921   2.08174e-27
      393.026   2.01321e-27
      393.131   1.94697e-27
      393.236   1.88282e-27
      393.340   1.82141e-27
      393.445   1.76144e-27
      393.550   1.70342e-27
      393.655   1.64729e-27
      393.760   1.59302e-27
      393.865   1.54051e-27
      393.970   1.48976e-27
      394.075   1.44063e-27
      394.180   1.39314e-27
      394.285   1.34720e-27
      394.390   1.30278e-27
      394.495   1.25978e-27
      394.600   1.21822e-27
      394.706   1.17764e-27
      394.811   1.13878e-27
      394.916   1.10117e-27
      395.021   1.06480e-27
      395.126   1.02966e-27
      395.232   9.95312e-28
      395.337   9.62422e-28
      395.443   9.30327e-28
      395.548   8.99580e-28
      395.653   8.69852e-28
      395.759   8.40811e-28
      395.864   8.13012e-28
      395.970   7.85870e-28
      396.075   7.59872e-28
      396.181   7.34488e-28
      396.286   7.10168e-28
      396.392   6.86454e-28
      396.498   6.63517e-28
      396.603   6.41529e-28
      396.709   6.20088e-28
      396.815   5.99349e-28
      396.921   5.79293e-28
      397.026   5.60093e-28
      397.132   5.41341e-28
      397.238   5.23227e-28
      397.344   5.05694e-28
      397.450   4.88776e-28
      397.556   4.72393e-28
      397.662   4.56562e-28
      397.768   4.41268e-28
      397.874   4.26473e-28
      397.980   4.12174e-28
      398.086   3.98345e-28
      398.192   3.84987e-28
      398.298   3.72066e-28
      398.404   3.59577e-28
      398.510   3.47504e-28
      398.617   3.35734e-28
      398.723   3.24457e-28
      398.829   3.13551e-28
      398.935   3.03012e-28
      399.042   2.92736e-28
      399.148   2.82888e-28
      399.255   2.73291e-28
      399.361   2.64098e-28
      399.467   2.55203e-28
      399.574   2.46538e-28
      399.680   2.38235e-28
      399.787   2.30136e-28
      399.893       0.00000
      400.000       0.00000
