Filter C-poly
observation_date 2021-09-22 22:45:45
wavelength effective area
      1.00000   2.78570e-10
      1.10000   7.95339e-10
      1.20000   2.06790e-09
      1.30000   4.94564e-09
      1.40000   1.12243e-08
      1.50000   2.39514e-08
      1.60000   4.84998e-08
      1.70000   9.41838e-08
      1.80000   1.75403e-07
      1.90000   3.15369e-07
      2.00000   5.48489e-07
      2.10000   9.26838e-07
      2.20000   1.52900e-06
      2.30000   2.45918e-06
      2.40000   3.86300e-06
      2.50000   5.90730e-06
      2.60000   9.02103e-06
      2.70000   1.34590e-05
      2.80000   1.96972e-05
      2.90000   2.85322e-05
      3.00000   4.06870e-05
      3.10000   5.72772e-05
      3.20000   7.97564e-05
      3.30000   0.000109935
      3.40000   0.000149961
      3.50000   0.000202594
      3.60000   0.000272457
      3.70000   0.000362541
      3.80000   0.000480445
      3.90000   0.000633202
      4.00000   0.000829384
      4.10000    0.00108139
      4.20000    0.00140501
      4.30000    0.00182043
      4.40000    0.00235254
      4.50000    0.00303203
      4.60000    0.00389492
      4.70000    0.00500357
      4.80000    0.00642173
      4.90000    0.00813623
      5.00000     0.0105810
      5.10000     0.0135668
      5.20000     0.0174486
      5.30000     0.0222521
      5.40000     0.0283351
      5.50000     0.0361465
      5.60000     0.0446993
      5.70000     0.0582379
      5.80000     0.0684408
      5.90000      0.104755
      6.00000      0.141169
      6.10000      0.180888
      6.20000      0.222706
      6.30000      0.262841
      6.40000      0.297581
      6.50000      0.323530
      6.60000      0.335847
      6.70000      0.347354
      6.80000      0.348850
      6.90000      0.459063
      7.00000      0.500784
      7.10000      0.531305
      7.20000      0.556072
      7.30000      0.576748
      7.40000      0.593111
      7.50000      0.606650
      7.60000      0.617462
      7.70000      0.623885
      7.80000      0.624654
      7.90000      0.626212
      8.00000      0.908782
      8.10000      0.998219
      8.20000       1.01799
      8.30000       1.03326
      8.40000       1.04459
      8.50000       1.05436
      8.60000       1.06223
      8.70000       1.06889
      8.80000       1.07399
      8.90000       1.07804
      9.00000       1.08096
      9.10000       1.08280
      9.20000       1.08375
      9.30000       1.08372
      9.40000       1.08285
      9.50000       1.08122
      9.60000       1.07874
      9.70000       1.07554
      9.80000       1.07176
      9.90000       1.06743
      10.0000       1.06262
      10.1000       1.05733
      10.2000       1.05159
      10.3000       1.04533
      10.4000       1.03859
      10.5000       1.03140
      10.6000       1.02378
      10.7000       1.01576
      10.8000       1.00735
      10.9000      0.998589
      11.0000      0.989476
      11.1000      0.980052
      11.2000      0.970317
      11.3000      0.960312
      11.4000      0.950027
      11.5000      0.939454
      11.6000      0.928614
      11.7000      0.917425
      11.8000      0.905990
      11.9000      0.894168
      12.0000      0.881029
      12.1000      0.870992
      12.2000      0.876158
      12.3000      0.872103
      12.4000      0.861556
      12.5000      0.850363
      12.6000      0.838862
      12.7000      0.827185
      12.8000      0.815381
      12.9000      0.803464
      13.0000      0.791484
      13.1000      0.779470
      13.2000      0.767448
      13.3000      0.755433
      13.4000      0.743449
      13.5000      0.731628
      13.6000      0.719950
      13.7000      0.708321
      13.8000      0.696733
      13.9000      0.685219
      14.0000      0.673774
      14.1000      0.662378
      14.2000      0.651032
      14.3000      0.639733
      14.4000      0.628465
      14.5000      0.617241
      14.6000      0.606055
      14.7000      0.594910
      14.8000      0.583816
      14.9000      0.572775
      15.0000      0.561799
      15.1000      0.550900
      15.2000      0.540093
      15.3000      0.529373
      15.4000      0.518740
      15.5000      0.508200
      15.6000      0.497788
      15.7000      0.487482
      15.8000      0.477324
      15.9000      0.467294
      16.0000      0.457391
      16.1000      0.447621
      16.2000      0.438015
      16.3000      0.428532
      16.4000      0.419162
      16.5000      0.409903
      16.6000      0.400763
      16.7000      0.391747
      16.8000      0.382834
      16.9000      0.374025
      17.0000      0.365340
      17.1000      0.356778
      17.2000      0.348314
      17.3000      0.339963
      17.4000      0.331894
      17.5000      0.324082
      17.6000      0.316494
      17.7000      0.309171
      17.8000      0.302247
      17.9000      0.295435
      18.0000      0.288678
      18.1000      0.282024
      18.2000      0.275406
      18.3000      0.268811
      18.4000      0.262223
      18.5000      0.255661
      18.6000      0.249109
      18.7000      0.242543
      18.8000      0.236088
      18.9000      0.229718
      19.0000      0.223462
      19.1000      0.217332
      19.2000      0.211298
      19.3000      0.205406
      19.4000      0.199641
      19.5000      0.193976
      19.6000      0.188485
      19.7000      0.183097
      19.8000      0.177803
      19.9000      0.172671
      20.0000      0.167617
      20.1000      0.162667
      20.2000      0.157825
      20.3000      0.153051
      20.4000      0.148402
      20.5000      0.143829
      20.6000      0.139325
      20.7000      0.134942
      20.8000      0.130618
      20.9000      0.126383
      21.0000      0.122233
      21.1000      0.118156
      21.2000      0.114161
      21.3000      0.110216
      21.4000      0.106377
      21.5000      0.102582
      21.6000     0.0988300
      21.7000     0.0951520
      21.8000     0.0915095
      21.9000     0.0878554
      22.0000     0.0842198
      22.1000     0.0805981
      22.2000     0.0768579
      22.3000     0.0730193
      22.4000     0.0681151
      22.5000     0.0628975
      22.6000     0.0531712
      22.7000     0.0477317
      22.8000     0.0628665
      22.9000     0.0810948
      23.0000      0.102507
      23.1000      0.115638
      23.2000      0.121233
      23.3000      0.121458
      23.4000      0.119026
      23.5000      0.116478
      23.6000      0.113913
      23.7000      0.111097
      23.8000      0.108275
      23.9000      0.105484
      24.0000      0.102705
      24.1000     0.0999210
      24.2000     0.0971635
      24.3000     0.0944675
      24.4000     0.0917973
      24.5000     0.0891750
      24.6000     0.0865902
      24.7000     0.0840725
      24.8000     0.0815919
      24.9000     0.0791710
      25.0000     0.0767924
      25.1000     0.0744798
      25.2000     0.0722071
      25.3000     0.0699966
      25.4000     0.0678282
      25.5000     0.0657306
      25.6000     0.0636760
      25.7000     0.0617025
      25.8000     0.0597604
      25.9000     0.0578880
      26.0000     0.0560404
      26.1000     0.0542640
      26.2000     0.0525056
      26.3000     0.0508248
      26.4000     0.0491539
      26.5000     0.0475619
      26.6000     0.0459788
      26.7000     0.0444692
      26.8000     0.0429775
      26.9000     0.0415429
      27.0000     0.0401312
      27.1000     0.0387596
      27.2000     0.0374163
      27.3000     0.0361876
      27.4000     0.0350989
      27.5000     0.0340001
      27.6000     0.0328607
      27.7000     0.0317300
      27.8000     0.0306392
      27.9000     0.0295546
      28.0000     0.0285245
      28.1000     0.0275097
      28.2000     0.0265344
      28.3000     0.0255870
      28.4000     0.0246637
      28.5000     0.0237808
      28.6000     0.0229070
      28.7000     0.0220888
      28.8000     0.0212756
      28.9000     0.0205041
      29.0000     0.0197476
      29.1000     0.0190168
      29.2000     0.0183141
      29.3000     0.0176217
      29.4000     0.0169702
      29.5000     0.0163228
      29.6000     0.0157114
      29.7000     0.0151120
      29.8000     0.0145328
      29.9000     0.0139790
      30.0000     0.0134302
      30.1000     0.0129192
      30.2000     0.0124113
      30.3000     0.0124834
      30.4000     0.0128846
      30.5000     0.0130935
      30.6000     0.0125976
      30.7000     0.0121050
      30.8000     0.0116408
      30.9000     0.0111873
      31.0000     0.0107462
      31.1000     0.0103293
      31.2000    0.00991518
      31.3000    0.00952761
      31.4000    0.00914767
      31.5000    0.00877896
      31.6000    0.00843101
      31.7000    0.00808538
      31.8000    0.00776225
      31.9000    0.00744634
      32.0000    0.00713859
      32.1000    0.00685037
      32.2000    0.00656408
      32.3000    0.00629515
      32.4000    0.00603482
      32.5000    0.00577932
      32.6000    0.00555011
      32.7000    0.00532243
      32.8000    0.00510532
      32.9000    0.00489848
      33.0000    0.00469304
      33.1000    0.00451195
      33.2000    0.00433508
      33.3000    0.00416252
      33.4000    0.00400137
      33.5000    0.00384133
      33.6000    0.00368947
      33.7000    0.00354398
      33.8000    0.00339941
      33.9000    0.00326591
      34.0000    0.00313468
      34.1000    0.00300650
      34.2000    0.00288774
      34.3000    0.00276972
      34.4000    0.00265669
      34.5000    0.00254986
      34.6000    0.00244371
      34.7000    0.00234372
      34.8000    0.00224694
      34.9000    0.00215075
      35.0000    0.00206277
      35.1000    0.00197614
      35.2000    0.00189086
      35.3000    0.00181297
      35.4000    0.00173556
      35.5000    0.00166065
      35.6000    0.00159120
      35.7000    0.00152218
      35.8000    0.00145642
      35.9000    0.00139462
      36.0000    0.00133321
      36.1000    0.00127553
      36.2000    0.00122067
      36.3000    0.00116614
      36.4000    0.00111557
      36.5000    0.00106694
      36.6000    0.00101862
      36.7000   0.000974286
      36.8000   0.000931295
      36.9000   0.000888575
      37.0000   0.000849723
      37.1000   0.000811800
      37.2000   0.000774114
      37.3000   0.000740066
      37.4000   0.000706690
      37.5000   0.000673524
      37.6000   0.000643676
      37.7000   0.000614367
      37.8000   0.000585245
      37.9000   0.000559070
      38.0000   0.000533398
      38.1000   0.000507887
      38.2000   0.000484915
      38.3000   0.000462474
      38.4000   0.000440173
      38.5000   0.000419999
      38.6000   0.000400431
      38.7000   0.000380988
      38.8000   0.000363258
      38.9000   0.000346238
      39.0000   0.000329328
      39.1000   0.000313733
      39.2000   0.000298968
      39.3000   0.000284298
      39.4000   0.000270569
      39.5000   0.000257791
      39.6000   0.000245097
      39.7000   0.000232998
      39.8000   0.000221972
      39.9000   0.000211017
      40.0000   0.000200348
      40.1000   0.000190857
      40.2000   0.000181429
      40.3000   0.000172064
      40.4000   0.000163863
      40.5000   0.000155769
      40.6000   0.000147728
      40.7000   0.000140471
      40.8000   0.000133539
      40.9000   0.000126653
      41.0000   0.000120224
      41.1000   0.000114304
      41.2000   0.000108424
      41.3000   0.000102727
      41.4000   9.76915e-05
      41.5000   9.26887e-05
      41.6000   8.77199e-05
      41.7000   8.33619e-05
      41.8000   7.91146e-05
      41.9000   7.48959e-05
      42.0000   7.10158e-05
      42.1000   6.74222e-05
      42.2000   6.38524e-05
      42.3000   6.03944e-05
      42.4000   5.73615e-05
      42.5000   5.43485e-05
      42.6000   5.13562e-05
      42.7000   4.87145e-05
      42.8000   4.61787e-05
      42.9000   4.36598e-05
      43.0000   4.12923e-05
      43.1000   3.91651e-05
      43.2000   3.70523e-05
      43.3000   3.49541e-05
      43.4000     0.0351401
      43.5000     0.0817295
      43.6000      0.141776
      43.7000      0.189404
      43.8000      0.201421
      43.9000      0.199059
      44.0000      0.196703
      44.1000      0.194401
      44.2000      0.192106
      44.3000      0.189817
      44.4000      0.187556
      44.5000      0.185327
      44.6000      0.183104
      44.7000      0.180887
      44.8000      0.178719
      44.9000      0.176563
      45.0000      0.174413
      45.1000      0.172283
      45.2000      0.170191
      45.3000      0.168105
      45.4000      0.166025
      45.5000      0.163983
      45.6000      0.161962
      45.7000      0.159946
      45.8000      0.157937
      45.9000      0.155979
      46.0000      0.154026
      46.1000      0.152079
      46.2000      0.150221
      46.3000      0.148516
      46.4000      0.146815
      46.5000      0.145118
      46.6000      0.143477
      46.7000      0.141864
      46.8000      0.140257
      46.9000      0.138653
      47.0000      0.137126
      47.1000      0.135608
      47.2000      0.134094
      47.3000      0.132591
      47.4000      0.131128
      47.5000      0.129668
      47.6000      0.128212
      47.7000      0.126773
      47.8000      0.125359
      47.9000      0.123948
      48.0000      0.122541
      48.1000      0.121157
      48.2000      0.119791
      48.3000      0.118429
      48.4000      0.117071
      48.5000      0.115739
      48.6000      0.114419
      48.7000      0.113103
      48.8000      0.111790
      48.9000      0.110509
      49.0000      0.109237
      49.1000      0.107968
      49.2000      0.106703
      49.3000      0.105471
      49.4000      0.104245
      49.5000      0.103022
      49.6000      0.101802
      49.7000      0.100617
      49.8000     0.0994361
      49.9000     0.0982578
      50.0000     0.0970841
      50.1000     0.0959474
      50.2000     0.0948718
      50.3000     0.0938050
      50.4000     0.0927486
      50.5000     0.0917018
      50.6000     0.0906653
      50.7000     0.0896402
      50.8000     0.0886233
      50.9000     0.0876179
      51.0000     0.0866310
      51.1000     0.0856570
      51.2000     0.0846918
      51.3000     0.0837362
      51.4000     0.0827913
      51.5000     0.0818536
      51.6000     0.0809241
      51.7000     0.0800031
      51.8000     0.0790834
      51.9000     0.0781716
      52.0000     0.0772683
      52.1000     0.0763739
      52.2000     0.0754882
      52.3000     0.0746100
      52.4000     0.0737406
      52.5000     0.0728800
      52.6000     0.0720266
      52.7000     0.0711799
      52.8000     0.0703409
      52.9000     0.0695099
      53.0000     0.0686875
      53.1000     0.0678729
      53.2000     0.0670675
      53.3000     0.0662705
      53.4000     0.0654805
      53.5000     0.0646977
      53.6000     0.0639217
      53.7000     0.0631531
      53.8000     0.0623937
      53.9000     0.0616416
      54.0000     0.0608978
      54.1000     0.0601625
      54.2000     0.0594332
      54.3000     0.0587110
      54.4000     0.0579962
      54.5000     0.0572883
      54.6000     0.0565888
      54.7000     0.0558965
      54.8000     0.0552118
      54.9000     0.0545341
      55.0000     0.0538633
      55.1000     0.0531985
      55.2000     0.0525161
      55.3000     0.0518193
      55.4000     0.0511295
      55.5000     0.0504475
      55.6000     0.0497731
      55.7000     0.0491066
      55.8000     0.0484471
      55.9000     0.0477942
      56.0000     0.0471559
      56.1000     0.0465136
      56.2000     0.0458687
      56.3000     0.0452310
      56.4000     0.0446008
      56.5000     0.0439772
      56.6000     0.0433606
      56.7000     0.0427520
      56.8000     0.0421502
      56.9000     0.0415574
      57.0000     0.0409709
      57.1000     0.0403904
      57.2000     0.0398158
      57.3000     0.0392479
      57.4000     0.0386864
      57.5000     0.0381321
      57.6000     0.0375842
      57.7000     0.0370429
      57.8000     0.0365090
      57.9000     0.0359823
      58.0000     0.0354617
      58.1000     0.0349462
      58.2000     0.0344377
      58.3000     0.0339354
      58.4000     0.0334392
      58.5000     0.0329489
      58.6000     0.0324655
      58.7000     0.0319878
      58.8000     0.0315163
      58.9000     0.0310503
      59.0000     0.0305902
      59.1000     0.0301355
      59.2000     0.0296869
      59.3000     0.0292440
      59.4000     0.0288071
      59.5000     0.0283757
      59.6000     0.0279500
      59.7000     0.0275292
      59.8000     0.0271138
      59.9000     0.0267035
      60.0000     0.0262989
      60.1000     0.0258992
      60.2000     0.0255052
      60.3000     0.0251164
      60.4000     0.0247327
      60.5000     0.0243544
      60.6000     0.0239805
      60.7000     0.0236108
      60.8000     0.0232456
      60.9000     0.0228854
      61.0000     0.0225300
      61.1000     0.0221797
      61.2000     0.0218340
      61.3000     0.0214934
      61.4000     0.0211571
      61.5000     0.0208254
      61.6000     0.0204976
      61.7000     0.0201742
      61.8000     0.0198561
      61.9000     0.0195431
      62.0000     0.0192344
      62.1000     0.0189300
      62.2000     0.0186300
      62.3000     0.0183340
      62.4000     0.0180423
      62.5000     0.0177543
      62.6000     0.0174702
      62.7000     0.0171895
      62.8000     0.0169143
      62.9000     0.0166429
      63.0000     0.0163755
      63.1000     0.0161120
      63.2000     0.0158520
      63.3000     0.0155955
      63.4000     0.0153422
      63.5000     0.0150932
      63.6000     0.0148474
      63.7000     0.0146051
      63.8000     0.0143665
      63.9000     0.0141315
      64.0000     0.0139001
      64.1000     0.0136718
      64.2000     0.0134473
      64.3000     0.0132259
      64.4000     0.0130075
      64.5000     0.0127920
      64.6000     0.0125796
      64.7000     0.0123704
      64.8000     0.0121641
      64.9000     0.0119610
      65.0000     0.0117607
      65.1000     0.0115638
      65.2000     0.0113699
      65.3000     0.0111785
      65.4000     0.0109902
      65.5000     0.0108045
      65.6000     0.0106213
      65.7000     0.0104409
      65.8000     0.0102634
      65.9000     0.0100890
      66.0000    0.00991705
      66.1000    0.00974794
      66.2000    0.00958146
      66.3000    0.00941738
      66.4000    0.00925588
      66.5000    0.00909661
      66.6000    0.00893976
      66.7000    0.00878539
      66.8000    0.00863338
      66.9000    0.00848695
      67.0000    0.00834552
      67.1000    0.00820686
      67.2000    0.00807047
      67.3000    0.00793596
      67.4000    0.00780355
      67.5000    0.00767300
      67.6000    0.00754432
      67.7000    0.00741758
      67.8000    0.00729236
      67.9000    0.00716877
      68.0000    0.00704783
      68.1000    0.00692940
      68.2000    0.00681280
      68.3000    0.00669788
      68.4000    0.00658484
      68.5000    0.00647364
      68.6000    0.00636392
      68.7000    0.00625590
      68.8000    0.00614948
      68.9000    0.00604620
      69.0000    0.00595318
      69.1000    0.00586939
      69.2000    0.00578819
      69.3000    0.00570928
      69.4000    0.00563341
      69.5000    0.00555593
      69.6000    0.00547592
      69.7000    0.00539907
      69.8000    0.00532610
      69.9000    0.00525418
      70.0000    0.00518294
      70.1000    0.00511119
      70.2000    0.00504297
      70.3000    0.00497832
      70.4000    0.00491388
      70.5000    0.00485096
      70.6000    0.00478953
      70.7000    0.00472896
      70.8000    0.00466894
      70.9000    0.00460750
      71.0000    0.00454481
      71.1000    0.00448496
      71.2000    0.00442811
      71.3000    0.00436778
      71.4000    0.00430303
      71.5000    0.00424341
      71.6000    0.00419121
      71.7000    0.00413853
      71.8000    0.00408417
      71.9000    0.00403168
      72.0000    0.00398315
      72.1000    0.00393365
      72.2000    0.00387671
      72.3000    0.00382070
      72.4000    0.00377167
      72.5000    0.00372326
      72.6000    0.00367538
      72.7000    0.00362822
      72.8000    0.00358160
      72.9000    0.00353555
      73.0000    0.00349124
      73.1000    0.00344800
      73.2000    0.00340526
      73.3000    0.00336312
      73.4000    0.00332185
      73.5000    0.00328172
      73.6000    0.00324214
      73.7000    0.00320302
      73.8000    0.00316428
      73.9000    0.00312598
      74.0000    0.00308836
      74.1000    0.00305420
      74.2000    0.00302137
      74.3000    0.00298587
      74.4000    0.00294840
      74.5000    0.00291201
      74.6000    0.00287741
      74.7000    0.00284316
      74.8000    0.00280930
      74.9000    0.00277581
      75.0000    0.00274232
      75.1000    0.00270907
      75.2000    0.00267624
      75.3000    0.00264378
      75.4000    0.00261194
      75.5000    0.00258116
      75.6000    0.00255074
      75.7000    0.00252059
      75.8000    0.00249089
      75.9000    0.00246192
      76.0000    0.00243335
      76.1000    0.00240512
      76.2000    0.00237720
      76.3000    0.00234961
      76.4000    0.00232280
      76.5000    0.00229636
      76.6000    0.00227015
      76.7000    0.00224418
      76.8000    0.00221851
      76.9000    0.00219314
      77.0000    0.00216803
      77.1000    0.00214317
      77.2000    0.00211861
      77.3000    0.00209428
      77.4000    0.00207021
      77.5000    0.00204642
      77.6000    0.00202243
      77.7000    0.00199864
      77.8000    0.00197510
      77.9000    0.00195180
      78.0000    0.00192843
      78.1000    0.00190447
      78.2000    0.00188085
      78.3000    0.00185930
      78.4000    0.00183861
      78.5000    0.00181797
      78.6000    0.00179704
      78.7000    0.00177632
      78.8000    0.00175510
      78.9000    0.00173396
      79.0000    0.00171302
      79.1000    0.00169228
      79.2000    0.00167185
      79.3000    0.00165223
      79.4000    0.00163301
      79.5000    0.00161379
      79.6000    0.00159419
      79.7000    0.00157480
      79.8000    0.00155531
      79.9000    0.00153592
      80.0000    0.00151672
      80.1000    0.00149704
      80.2000    0.00147753
      80.3000    0.00145754
      80.4000    0.00143714
      80.5000    0.00141695
      80.6000    0.00139701
      80.7000    0.00137732
      80.8000    0.00135797
      80.9000    0.00133909
      81.0000    0.00132047
      81.1000    0.00130214
      81.2000    0.00128406
      81.3000    0.00126622
      81.4000    0.00124989
      81.5000    0.00123384
      81.6000    0.00121833
      81.7000    0.00120374
      81.8000    0.00118938
      81.9000    0.00117570
      82.0000    0.00116240
      82.1000    0.00114927
      82.2000    0.00113589
      82.3000    0.00112268
      82.4000    0.00110987
      82.5000    0.00109761
      82.6000    0.00108547
      82.7000    0.00107312
      82.8000    0.00106049
      82.9000    0.00104797
      83.0000    0.00103573
      83.1000    0.00102367
      83.2000    0.00101173
      83.3000   0.000999903
      83.4000   0.000988239
      83.5000   0.000976737
      83.6000   0.000965605
      83.7000   0.000954600
      83.8000   0.000943658
      83.9000   0.000932663
      84.0000   0.000921764
      84.1000   0.000911134
      84.2000   0.000900870
      84.3000   0.000890698
      84.4000   0.000880503
      84.5000   0.000870325
      84.6000   0.000860261
      84.7000   0.000850467
      84.8000   0.000840854
      84.9000   0.000831363
      85.0000   0.000821760
      85.1000   0.000812196
      85.2000   0.000802738
      85.3000   0.000793740
      85.4000   0.000784910
      85.5000   0.000776184
      85.6000   0.000767355
      85.7000   0.000758606
      85.8000   0.000749949
      85.9000   0.000741377
      86.0000   0.000732878
      86.1000   0.000724463
      86.2000   0.000716381
      86.3000   0.000708395
      86.4000   0.000700483
      86.5000   0.000692639
      86.6000   0.000684874
      86.7000   0.000677195
      86.8000   0.000669070
      86.9000   0.000661013
      87.0000   0.000653061
      87.1000   0.000645323
      87.2000   0.000637687
      87.3000   0.000630126
      87.4000   0.000622462
      87.5000   0.000614852
      87.6000   0.000607318
      87.7000   0.000599966
      87.8000   0.000592711
      87.9000   0.000585532
      88.0000   0.000578438
      88.1000   0.000571411
      88.2000   0.000564463
      88.3000   0.000557730
      88.4000   0.000551212
      88.5000   0.000544791
      88.6000   0.000538386
      88.7000   0.000531976
      88.8000   0.000525638
      88.9000   0.000519362
      89.0000   0.000513129
      89.1000   0.000506963
      89.2000   0.000500861
      89.3000   0.000494818
      89.4000   0.000488825
      89.5000   0.000482892
      89.6000   0.000477021
      89.7000   0.000471213
      89.8000   0.000465467
      89.9000   0.000459779
      90.0000   0.000454150
      90.1000   0.000448592
      90.2000   0.000442991
      90.3000   0.000437207
      90.4000   0.000431480
      90.5000   0.000425824
      90.6000   0.000420333
      90.7000   0.000414808
      90.8000   0.000409227
      90.9000   0.000403573
      91.0000   0.000397961
      91.1000   0.000392425
      91.2000   0.000386895
      91.3000   0.000381333
      91.4000   0.000375828
      91.5000   0.000370406
      91.6000   0.000365067
      91.7000   0.000360181
      91.8000   0.000355942
      91.9000   0.000352443
      92.0000   0.000348544
      92.1000   0.000344596
      92.2000   0.000340452
      92.3000   0.000336142
      92.4000   0.000331762
      92.5000   0.000327448
      92.6000   0.000323188
      92.7000   0.000318979
      92.8000   0.000314817
      92.9000   0.000310748
      93.0000   0.000306829
      93.1000   0.000302957
      93.2000   0.000299134
      93.3000   0.000295474
      93.4000   0.000291895
      93.5000   0.000288354
      93.6000   0.000284851
      93.7000   0.000281387
      93.8000   0.000277980
      93.9000   0.000274610
      94.0000   0.000271278
      94.1000   0.000267985
      94.2000   0.000264735
      94.3000   0.000261543
      94.4000   0.000258462
      94.5000   0.000255422
      94.6000   0.000252420
      94.7000   0.000249456
      94.8000   0.000246521
      94.9000   0.000243618
      95.0000   0.000240747
      95.1000   0.000237918
      95.2000   0.000235111
      95.3000   0.000232327
      95.4000   0.000229575
      95.5000   0.000226896
      95.6000   0.000224245
      95.7000   0.000221621
      95.8000   0.000218996
      95.9000   0.000216387
      96.0000   0.000213805
      96.1000   0.000211247
      96.2000   0.000208715
      96.3000   0.000206214
      96.4000   0.000203740
      96.5000   0.000201294
      96.6000   0.000198885
      96.7000   0.000196516
      96.8000   0.000194164
      96.9000   0.000191834
      97.0000   0.000189527
      97.1000   0.000187256
      97.2000   0.000185007
      97.3000   0.000182753
      97.4000   0.000180500
      97.5000   0.000178278
      97.6000   0.000176082
      97.7000   0.000173924
      97.8000   0.000171799
      97.9000   0.000169700
      98.0000   0.000167621
      98.1000   0.000165562
      98.2000   0.000163530
      98.3000   0.000161647
      98.4000   0.000159842
      98.5000   0.000158094
      98.6000   0.000156364
      98.7000   0.000154653
      98.8000   0.000152956
      98.9000   0.000151275
      99.0000   0.000149615
      99.1000   0.000147970
      99.2000   0.000146332
      99.3000   0.000144668
      99.4000   0.000143025
      99.5000   0.000141399
      99.6000   0.000139798
      99.7000   0.000138279
      99.8000   0.000136806
      99.9000   0.000135608
      100.000   0.000134822
      100.100   0.000133992
      100.200   0.000133163
      100.300   0.000132338
      100.400   0.000131518
      100.500   0.000130719
      100.600   0.000129923
      100.700   0.000129128
      100.800   0.000128335
      100.900   0.000127544
      101.000   0.000126759
      101.100   0.000125978
      101.200   0.000125201
      101.300   0.000124427
      101.400   0.000123655
      101.500   0.000122888
      101.600   0.000122125
      101.700   0.000121379
      101.800   0.000120639
      101.900   0.000119902
      102.000   0.000119171
      102.100   0.000118463
      102.200   0.000117768
      102.300   0.000117077
      102.400   0.000116388
      102.500   0.000115701
      102.600   0.000115015
      102.700   0.000114331
      102.800   0.000113650
      102.900   0.000112970
      103.000   0.000112293
      103.100   0.000111616
      103.200   0.000110942
      103.300   0.000110271
      103.400   0.000109602
      103.500   0.000108937
      103.600   0.000108273
      103.700   0.000107610
      103.800   0.000106924
      103.900   0.000106212
      104.000   0.000105504
      104.100   0.000104802
      104.200   0.000104116
      104.300   0.000103508
      104.400   0.000102905
      104.500   0.000102305
      104.600   0.000101707
      104.700   0.000101087
      104.800   0.000100459
      104.900   9.98330e-05
      105.000   9.92091e-05
      105.100   9.86053e-05
      105.200   9.80460e-05
      105.300   9.74899e-05
      105.400   9.69351e-05
      105.500   9.63809e-05
      105.600   9.58369e-05
      105.700   9.52962e-05
      105.800   9.47568e-05
      105.900   9.42202e-05
      106.000   9.36993e-05
      106.100   9.32090e-05
      106.200   9.27220e-05
      106.300   9.22363e-05
      106.400   9.17523e-05
      106.500   9.12704e-05
      106.600   9.07902e-05
      106.700   9.03112e-05
      106.800   8.98329e-05
      106.900   8.93565e-05
      107.000   8.88824e-05
      107.100   8.84107e-05
      107.200   8.79417e-05
      107.300   8.74747e-05
      107.400   8.70072e-05
      107.500   8.65392e-05
      107.600   8.60725e-05
      107.700   8.56071e-05
      107.800   8.51438e-05
      107.900   8.46762e-05
      108.000   8.42094e-05
      108.100   8.37433e-05
      108.200   8.32781e-05
      108.300   8.28137e-05
      108.400   8.23448e-05
      108.500   8.18780e-05
      108.600   8.14126e-05
      108.700   8.09476e-05
      108.800   8.04632e-05
      108.900   7.99512e-05
      109.000   7.94410e-05
      109.100   7.89332e-05
      109.200   7.84278e-05
      109.300   7.79247e-05
      109.400   7.74238e-05
      109.500   7.69252e-05
      109.600   7.64293e-05
      109.700   7.59362e-05
      109.800   7.54463e-05
      109.900   7.49592e-05
      110.000   7.44742e-05
      110.100   7.39912e-05
      110.200   7.35100e-05
      110.300   7.30434e-05
      110.400   7.25803e-05
      110.500   7.21200e-05
      110.600   7.16620e-05
      110.700   7.12058e-05
      110.800   7.07509e-05
      110.900   7.02974e-05
      111.000   6.98453e-05
      111.100   6.93947e-05
      111.200   6.89469e-05
      111.300   6.85242e-05
      111.400   6.81031e-05
      111.500   6.76829e-05
      111.600   6.72644e-05
      111.700   6.68487e-05
      111.800   6.64499e-05
      111.900   6.60538e-05
      112.000   6.56596e-05
      112.100   6.52668e-05
      112.200   6.48752e-05
      112.300   6.44703e-05
      112.400   6.40664e-05
      112.500   6.36647e-05
      112.600   6.32651e-05
      112.700   6.28698e-05
      112.800   6.24903e-05
      112.900   6.20780e-05
      113.000   6.16794e-05
      113.100   6.12877e-05
      113.200   6.08912e-05
      113.300   6.05044e-05
      113.400   6.00424e-05
      113.500   5.95636e-05
      113.600   5.91533e-05
      113.700   5.87246e-05
      113.800   5.82533e-05
      113.900   5.78494e-05
      114.000   5.74475e-05
      114.100   5.70019e-05
      114.200   5.65816e-05
      114.300   5.61998e-05
      114.400   5.58098e-05
      114.500   5.54114e-05
      114.600   5.50619e-05
      114.700   5.46784e-05
      114.800   5.43202e-05
      114.900   5.40182e-05
      115.000   5.36772e-05
      115.100   5.33139e-05
      115.200   5.29497e-05
      115.300   5.26364e-05
      115.400   5.22778e-05
      115.500   5.19442e-05
      115.600   5.15928e-05
      115.700   5.12140e-05
      115.800   5.08761e-05
      115.900   5.05190e-05
      116.000   5.01971e-05
      116.100   4.99283e-05
      116.200   4.96564e-05
      116.300   4.93761e-05
      116.400   4.90803e-05
      116.500   4.88219e-05
      116.600   4.85527e-05
      116.700   4.82933e-05
      116.800   4.80240e-05
      116.900   4.77113e-05
      117.000   4.74499e-05
      117.100   4.73317e-05
      117.200   4.73133e-05
      117.300   4.71957e-05
      117.400   4.70711e-05
      117.500   4.69477e-05
      117.600   4.67670e-05
      117.700   4.65646e-05
      117.800   4.63329e-05
      117.900   4.60869e-05
      118.000   4.58134e-05
      118.100   4.55136e-05
      118.200   4.52366e-05
      118.300   4.49697e-05
      118.400   4.45978e-05
      118.500   4.42366e-05
      118.600   4.39258e-05
      118.700   4.35992e-05
      118.800   4.32511e-05
      118.900   4.29206e-05
      119.000   4.25354e-05
      119.100   4.20882e-05
      119.200   4.16978e-05
      119.300   4.13553e-05
      119.400   4.10408e-05
      119.500   4.07397e-05
      119.600   4.04035e-05
      119.700   4.00264e-05
      119.800   3.95672e-05
      119.900   3.89994e-05
      120.000   3.84713e-05
      120.100   3.79753e-05
      120.200   3.76191e-05
      120.300   3.73433e-05
      120.400   3.70677e-05
      120.500   3.66832e-05
      120.600   3.62176e-05
      120.700   3.57284e-05
      120.800   3.52601e-05
      120.900   3.49370e-05
      121.000   3.48369e-05
      121.100   3.46975e-05
      121.200   3.44481e-05
      121.300   3.41217e-05
      121.400   3.37378e-05
      121.500   3.33117e-05
      121.600   3.27156e-05
      121.700   3.21932e-05
      121.800   3.16143e-05
      121.900   3.10323e-05
      122.000   3.04141e-05
      122.100   2.98318e-05
      122.200   2.92597e-05
      122.300   2.88354e-05
      122.400   2.85690e-05
      122.500   2.83370e-05
      122.600   2.80865e-05
      122.700   2.78359e-05
      122.800   2.75520e-05
      122.900   2.72895e-05
      123.000   2.72064e-05
      123.100   2.74315e-05
      123.200   2.76758e-05
      123.300   2.80764e-05
      123.400   2.86054e-05
      123.500   2.93177e-05
      123.600   2.99204e-05
      123.700   3.02070e-05
      123.800   3.04032e-05
      123.900   3.06872e-05
      124.000   3.11136e-05
      124.100   3.20062e-05
      124.200   3.38908e-05
      124.300   3.67357e-05
      124.400   3.94667e-05
      124.500   4.02046e-05
      124.600   4.00229e-05
      124.700   3.97368e-05
      124.800   3.94628e-05
      124.900   3.91894e-05
      125.000   3.89161e-05
      125.100   3.86356e-05
      125.200   3.83555e-05
      125.300   3.80768e-05
      125.400   3.77996e-05
      125.500   3.75240e-05
      125.600   3.72496e-05
      125.700   3.69769e-05
      125.800   3.67057e-05
      125.900   3.64362e-05
      126.000   3.61684e-05
      126.100   3.59024e-05
      126.200   3.56382e-05
      126.300   3.53756e-05
      126.400   3.51145e-05
      126.500   3.48550e-05
      126.600   3.45970e-05
      126.700   3.43405e-05
      126.800   3.40854e-05
      126.900   3.38318e-05
      127.000   3.35788e-05
      127.100   3.33242e-05
      127.200   3.30696e-05
      127.300   3.28160e-05
      127.400   3.25639e-05
      127.500   3.23133e-05
      127.600   3.20643e-05
      127.700   3.18169e-05
      127.800   3.15710e-05
      127.900   3.13267e-05
      128.000   3.10839e-05
      128.100   3.08426e-05
      128.200   3.06027e-05
      128.300   3.03642e-05
      128.400   3.01270e-05
      128.500   2.98912e-05
      128.600   2.96567e-05
      128.700   2.94237e-05
      128.800   2.91921e-05
      128.900   2.89619e-05
      129.000   2.87332e-05
      129.100   2.85054e-05
      129.200   2.82773e-05
      129.300   2.80506e-05
      129.400   2.78253e-05
      129.500   2.76016e-05
      129.600   2.73795e-05
      129.700   2.71589e-05
      129.800   2.69398e-05
      129.900   2.67223e-05
      130.000   2.65063e-05
      130.100   2.62919e-05
      130.200   2.60788e-05
      130.300   2.58674e-05
      130.400   2.56575e-05
      130.500   2.54491e-05
      130.600   2.52423e-05
      130.700   2.50371e-05
      130.800   2.48333e-05
      130.900   2.46311e-05
      131.000   2.44303e-05
      131.100   2.42308e-05
      131.200   2.40325e-05
      131.300   2.38350e-05
      131.400   2.36388e-05
      131.500   2.34438e-05
      131.600   2.32501e-05
      131.700   2.30577e-05
      131.800   2.28664e-05
      131.900   2.26764e-05
      132.000   2.24876e-05
      132.100   2.23000e-05
      132.200   2.21136e-05
      132.300   2.19284e-05
      132.400   2.17445e-05
      132.500   2.15619e-05
      132.600   2.13806e-05
      132.700   2.12006e-05
      132.800   2.10219e-05
      132.900   2.08444e-05
      133.000   2.06680e-05
      133.100   2.04929e-05
      133.200   2.03190e-05
      133.300   2.01462e-05
      133.400   1.99744e-05
      133.500   1.98038e-05
      133.600   1.96345e-05
      133.700   1.94664e-05
      133.800   1.92995e-05
      133.900   1.91340e-05
      134.000   1.89697e-05
      134.100   1.88066e-05
      134.200   1.86448e-05
      134.300   1.84841e-05
      134.400   1.83247e-05
      134.500   1.81665e-05
      134.600   1.80095e-05
      134.700   1.78537e-05
      134.800   1.76991e-05
      134.900   1.75457e-05
      135.000   1.73934e-05
      135.100   1.72422e-05
      135.200   1.70922e-05
      135.300   1.69434e-05
      135.400   1.67957e-05
      135.500   1.66486e-05
      135.600   1.65023e-05
      135.700   1.63571e-05
      135.800   1.62130e-05
      135.900   1.60699e-05
      136.000   1.59279e-05
      136.100   1.57869e-05
      136.200   1.56470e-05
      136.300   1.55080e-05
      136.400   1.53701e-05
      136.500   1.52332e-05
      136.600   1.50972e-05
      136.700   1.49621e-05
      136.800   1.48281e-05
      136.900   1.46950e-05
      137.000   1.45629e-05
      137.100   1.44317e-05
      137.200   1.43015e-05
      137.300   1.41724e-05
      137.400   1.40443e-05
      137.500   1.39172e-05
      137.600   1.37911e-05
      137.700   1.36657e-05
      137.800   1.35413e-05
      137.900   1.34178e-05
      138.000   1.32954e-05
      138.100   1.31739e-05
      138.200   1.30535e-05
      138.300   1.29340e-05
      138.400   1.28156e-05
      138.500   1.26981e-05
      138.600   1.25815e-05
      138.700   1.24660e-05
      138.800   1.23514e-05
      138.900   1.22377e-05
      139.000   1.21250e-05
      139.100   1.20133e-05
      139.200   1.19025e-05
      139.300   1.17926e-05
      139.400   1.16837e-05
      139.500   1.15756e-05
      139.600   1.14684e-05
      139.700   1.13621e-05
      139.800   1.12566e-05
      139.900   1.11519e-05
      140.000   1.10481e-05
      140.100   1.09451e-05
      140.200   1.08429e-05
      140.300   1.07416e-05
      140.400   1.06410e-05
      140.500   1.05412e-05
      140.600   1.04422e-05
      140.700   1.03440e-05
      140.800   1.02467e-05
      140.900   1.01503e-05
      141.000   1.00545e-05
      141.100   9.95958e-06
      141.200   9.86542e-06
      141.300   9.77199e-06
      141.400   9.67929e-06
      141.500   9.58734e-06
      141.600   9.49619e-06
      141.700   9.40577e-06
      141.800   9.31609e-06
      141.900   9.22712e-06
      142.000   9.13886e-06
      142.100   9.05492e-06
      142.200   8.98201e-06
      142.300   8.91846e-06
      142.400   8.85524e-06
      142.500   8.79233e-06
      142.600   8.72970e-06
      142.700   8.66740e-06
      142.800   8.60542e-06
      142.900   8.54376e-06
      143.000   8.48244e-06
      143.100   8.42145e-06
      143.200   8.36083e-06
      143.300   8.30053e-06
      143.400   8.24057e-06
      143.500   8.18094e-06
      143.600   8.12162e-06
      143.700   8.06259e-06
      143.800   8.00392e-06
      143.900   7.94558e-06
      144.000   7.88754e-06
      144.100   7.82980e-06
      144.200   7.77239e-06
      144.300   7.71525e-06
      144.400   7.65927e-06
      144.500   7.61501e-06
      144.600   7.57446e-06
      144.700   7.53438e-06
      144.800   7.49432e-06
      144.900   7.45429e-06
      145.000   7.41428e-06
      145.100   7.37433e-06
      145.200   7.33438e-06
      145.300   7.29449e-06
      145.400   7.25463e-06
      145.500   7.21479e-06
      145.600   7.17499e-06
      145.700   7.13521e-06
      145.800   7.09548e-06
      145.900   7.05580e-06
      146.000   7.01614e-06
      146.100   6.97653e-06
      146.200   6.93697e-06
      146.300   6.89746e-06
      146.400   6.85800e-06
      146.500   6.81863e-06
      146.600   6.77931e-06
      146.700   6.74008e-06
      146.800   6.70051e-06
      146.900   6.66043e-06
      147.000   6.62045e-06
      147.100   6.58055e-06
      147.200   6.54076e-06
      147.300   6.50106e-06
      147.400   6.46146e-06
      147.500   6.42196e-06
      147.600   6.38255e-06
      147.700   6.34325e-06
      147.800   6.30407e-06
      147.900   6.26499e-06
      148.000   6.22601e-06
      148.100   6.18716e-06
      148.200   6.14844e-06
      148.300   6.10984e-06
      148.400   6.07137e-06
      148.500   6.03302e-06
      148.600   5.99481e-06
      148.700   5.95672e-06
      148.800   5.91876e-06
      148.900   5.88096e-06
      149.000   5.84330e-06
      149.100   5.80577e-06
      149.200   5.76835e-06
      149.300   5.73103e-06
      149.400   5.69385e-06
      149.500   5.65681e-06
      149.600   5.61990e-06
      149.700   5.58312e-06
      149.800   5.54646e-06
      149.900   5.50992e-06
      150.000   5.47351e-06
      150.100   5.43723e-06
      150.200   5.40106e-06
      150.300   5.36504e-06
      150.400   5.32913e-06
      150.500   5.29334e-06
      150.600   5.25768e-06
      150.700   5.22213e-06
      150.800   5.18672e-06
      150.900   5.15143e-06
      151.000   5.11625e-06
      151.100   5.08120e-06
      151.200   5.04627e-06
      151.300   5.01147e-06
      151.400   4.97678e-06
      151.500   4.94224e-06
      151.600   4.90789e-06
      151.700   4.87376e-06
      151.800   4.83974e-06
      151.900   4.80584e-06
      152.000   4.77209e-06
      152.100   4.73848e-06
      152.200   4.70501e-06
      152.300   4.67167e-06
      152.400   4.63848e-06
      152.500   4.60543e-06
      152.600   4.57253e-06
      152.700   4.53978e-06
      152.800   4.50718e-06
      152.900   4.47476e-06
      153.000   4.44248e-06
      153.100   4.41036e-06
      153.200   4.37838e-06
      153.300   4.34658e-06
      153.400   4.31493e-06
      153.500   4.28342e-06
      153.600   4.25207e-06
      153.700   4.22089e-06
      153.800   4.18985e-06
      153.900   4.15897e-06
      154.000   4.12873e-06
      154.100   4.09972e-06
      154.200   4.07121e-06
      154.300   4.04282e-06
      154.400   4.01455e-06
      154.500   3.98640e-06
      154.600   3.95838e-06
      154.700   3.93048e-06
      154.800   3.90269e-06
      154.900   3.87503e-06
      155.000   3.84748e-06
      155.100   3.82006e-06
      155.200   3.79275e-06
      155.300   3.76557e-06
      155.400   3.73852e-06
      155.500   3.71158e-06
      155.600   3.68476e-06
      155.700   3.65805e-06
      155.800   3.63147e-06
      155.900   3.60499e-06
      156.000   3.57864e-06
      156.100   3.55240e-06
      156.200   3.52628e-06
      156.300   3.50027e-06
      156.400   3.47437e-06
      156.500   3.44845e-06
      156.600   3.42186e-06
      156.700   3.39538e-06
      156.800   3.36904e-06
      156.900   3.34281e-06
      157.000   3.31673e-06
      157.100   3.29077e-06
      157.200   3.26495e-06
      157.300   3.23924e-06
      157.400   3.21368e-06
      157.500   3.18823e-06
      157.600   3.16292e-06
      157.700   3.13774e-06
      157.800   3.11269e-06
      157.900   3.08777e-06
      158.000   3.06299e-06
      158.100   3.03834e-06
      158.200   3.01383e-06
      158.300   2.98945e-06
      158.400   2.96521e-06
      158.500   2.94111e-06
      158.600   2.91714e-06
      158.700   2.89330e-06
      158.800   2.86961e-06
      158.900   2.84606e-06
      159.000   2.82265e-06
      159.100   2.79936e-06
      159.200   2.77621e-06
      159.300   2.75320e-06
      159.400   2.73032e-06
      159.500   2.70760e-06
      159.600   2.68501e-06
      159.700   2.66256e-06
      159.800   2.64025e-06
      159.900   2.61808e-06
      160.000   2.59605e-06
      160.100   2.57416e-06
      160.200   2.55240e-06
      160.300   2.53078e-06
      160.400   2.50930e-06
      160.500   2.48794e-06
      160.600   2.46672e-06
      160.700   2.44564e-06
      160.800   2.42468e-06
      160.900   2.40385e-06
      161.000   2.38315e-06
      161.100   2.36258e-06
      161.200   2.34214e-06
      161.300   2.32183e-06
      161.400   2.30165e-06
      161.500   2.28159e-06
      161.600   2.26166e-06
      161.700   2.24183e-06
      161.800   2.22212e-06
      161.900   2.20254e-06
      162.000   2.18308e-06
      162.100   2.16375e-06
      162.200   2.14454e-06
      162.300   2.12546e-06
      162.400   2.10651e-06
      162.500   2.08768e-06
      162.600   2.06897e-06
      162.700   2.05039e-06
      162.800   2.03193e-06
      162.900   2.01360e-06
      163.000   1.99539e-06
      163.100   1.97730e-06
      163.200   1.95934e-06
      163.300   1.94149e-06
      163.400   1.92377e-06
      163.500   1.90616e-06
      163.600   1.88868e-06
      163.700   1.87132e-06
      163.800   1.85409e-06
      163.900   1.83698e-06
      164.000   1.81998e-06
      164.100   1.80312e-06
      164.200   1.78638e-06
      164.300   1.76986e-06
      164.400   1.75347e-06
      164.500   1.73720e-06
      164.600   1.72105e-06
      164.700   1.70502e-06
      164.800   1.68910e-06
      164.900   1.67331e-06
      165.000   1.65763e-06
      165.100   1.64208e-06
      165.200   1.62664e-06
      165.300   1.61133e-06
      165.400   1.59613e-06
      165.500   1.58104e-06
      165.600   1.56608e-06
      165.700   1.55123e-06
      165.800   1.53650e-06
      165.900   1.52188e-06
      166.000   1.50739e-06
      166.100   1.49301e-06
      166.200   1.47874e-06
      166.300   1.46459e-06
      166.400   1.45055e-06
      166.500   1.43663e-06
      166.600   1.42281e-06
      166.700   1.40911e-06
      166.800   1.39550e-06
      166.900   1.38201e-06
      167.000   1.36865e-06
      167.100   1.35537e-06
      167.200   1.34221e-06
      167.300   1.32914e-06
      167.400   1.31619e-06
      167.500   1.30333e-06
      167.600   1.29058e-06
      167.700   1.27794e-06
      167.800   1.26539e-06
      167.900   1.25295e-06
      168.000   1.24060e-06
      168.100   1.22835e-06
      168.200   1.21621e-06
      168.300   1.20415e-06
      168.400   1.19220e-06
      168.500   1.18035e-06
      168.600   1.16858e-06
      168.700   1.15691e-06
      168.800   1.14534e-06
      168.900   1.13387e-06
      169.000   1.12248e-06
      169.100   1.11119e-06
      169.200   1.10000e-06
      169.300   1.08889e-06
      169.400   1.07788e-06
      169.500   1.06690e-06
      169.600   1.05576e-06
      169.700   1.04443e-06
      169.800   1.03313e-06
      169.900   1.02191e-06
      170.000   1.01079e-06
      170.100   9.99770e-07
      170.200   9.88842e-07
      170.300   1.29717e-06
      170.400   2.80415e-06
      170.500   5.34184e-06
      170.600   7.90494e-06
      170.700   9.98045e-06
      170.800   1.09756e-05
      170.900   1.10562e-05
      171.000   1.09105e-05
      171.100   1.07660e-05
      171.200   1.06227e-05
      171.300   1.04805e-05
      171.400   1.03395e-05
      171.500   1.01998e-05
      171.600   1.00612e-05
      171.700   9.92402e-06
      171.800   9.78820e-06
      171.900   9.65387e-06
      172.000   9.52115e-06
      172.100   9.39001e-06
      172.200   9.26062e-06
      172.300   9.13263e-06
      172.400   9.00457e-06
      172.500   8.87791e-06
      172.600   8.75305e-06
      172.700   8.63001e-06
      172.800   8.50872e-06
      172.900   8.38916e-06
      173.000   8.27141e-06
      173.100   8.15540e-06
      173.200   8.04105e-06
      173.300   7.92841e-06
      173.400   7.81738e-06
      173.500   7.70801e-06
      173.600   7.60028e-06
      173.700   7.49409e-06
      173.800   7.38942e-06
      173.900   7.28632e-06
      174.000   7.18468e-06
      174.100   7.08445e-06
      174.200   6.98568e-06
      174.300   6.88830e-06
      174.400   6.79229e-06
      174.500   6.69760e-06
      174.600   6.60415e-06
      174.700   6.51202e-06
      174.800   6.42115e-06
      174.900   6.33147e-06
      175.000   6.24292e-06
      175.100   6.15556e-06
      175.200   6.06959e-06
      175.300   5.98471e-06
      175.400   5.90091e-06
      175.500   5.81824e-06
      175.600   5.73664e-06
      175.700   5.65611e-06
      175.800   5.57662e-06
      175.900   5.49818e-06
      176.000   5.42077e-06
      176.100   5.34441e-06
      176.200   5.26903e-06
      176.300   5.19462e-06
      176.400   5.12124e-06
      176.500   5.04880e-06
      176.600   4.97731e-06
      176.700   4.90676e-06
      176.800   4.83715e-06
      176.900   4.76848e-06
      177.000   4.70070e-06
      177.100   4.63380e-06
      177.200   4.56781e-06
      177.300   4.50269e-06
      177.400   4.43841e-06
      177.500   4.37496e-06
      177.600   4.31236e-06
      177.700   4.25059e-06
      177.800   4.18963e-06
      177.900   4.12942e-06
      178.000   4.07027e-06
      178.100   4.01193e-06
      178.200   3.95433e-06
      178.300   3.89749e-06
      178.400   3.84141e-06
      178.500   3.78607e-06
      178.600   3.73144e-06
      178.700   3.67752e-06
      178.800   3.62433e-06
      178.900   3.57185e-06
      179.000   3.52007e-06
      179.100   3.46895e-06
      179.200   3.41854e-06
      179.300   3.36882e-06
      179.400   3.31976e-06
      179.500   3.27141e-06
      179.600   3.22370e-06
      179.700   3.17669e-06
      179.800   3.13032e-06
      179.900   3.08460e-06
      180.000   3.03952e-06
      180.100   2.99509e-06
      180.200   2.95130e-06
      180.300   2.90815e-06
      180.400   2.86560e-06
      180.500   2.82369e-06
      180.600   2.78239e-06
      180.700   2.74170e-06
      180.800   2.70160e-06
      180.900   2.66208e-06
      181.000   2.62314e-06
      181.100   2.58479e-06
      181.200   2.54699e-06
      181.300   2.50974e-06
      181.400   2.47306e-06
      181.500   2.43690e-06
      181.600   2.40128e-06
      181.700   2.36617e-06
      181.800   2.33158e-06
      181.900   2.29749e-06
      182.000   2.26391e-06
      182.100   2.23080e-06
      182.200   2.19819e-06
      182.300   2.16604e-06
      182.400   2.13437e-06
      182.500   2.10314e-06
      182.600   2.07235e-06
      182.700   2.04201e-06
      182.800   2.01210e-06
      182.900   1.98260e-06
      183.000   1.95353e-06
      183.100   1.92487e-06
      183.200   1.89662e-06
      183.300   1.86875e-06
      183.400   1.84129e-06
      183.500   1.81421e-06
      183.600   1.78751e-06
      183.700   1.76120e-06
      183.800   1.73527e-06
      183.900   1.70972e-06
      184.000   1.68454e-06
      184.100   1.65971e-06
      184.200   1.63524e-06
      184.300   1.61112e-06
      184.400   1.58734e-06
      184.500   1.56391e-06
      184.600   1.54080e-06
      184.700   1.51802e-06
      184.800   1.49557e-06
      184.900   1.47344e-06
      185.000   1.45162e-06
      185.100   1.43010e-06
      185.200   1.40889e-06
      185.300   1.38799e-06
      185.400   1.36738e-06
      185.500   1.34707e-06
      185.600   1.32704e-06
      185.700   1.30728e-06
      185.800   1.28782e-06
      185.900   1.26864e-06
      186.000   1.24972e-06
      186.100   1.23107e-06
      186.200   1.21268e-06
      186.300   1.19454e-06
      186.400   1.17666e-06
      186.500   1.15902e-06
      186.600   1.14163e-06
      186.700   1.12447e-06
      186.800   1.10755e-06
      186.900   1.09086e-06
      187.000   1.07440e-06
      187.100   1.05816e-06
      187.200   1.04215e-06
      187.300   1.02638e-06
      187.400   1.01082e-06
      187.500   9.95480e-07
      187.600   9.80352e-07
      187.700   9.65437e-07
      187.800   9.50727e-07
      187.900   9.36223e-07
      188.000   9.21929e-07
      188.100   9.07835e-07
      188.200   8.93936e-07
      188.300   8.80233e-07
      188.400   8.66726e-07
      188.500   8.53418e-07
      188.600   8.40307e-07
      188.700   8.27391e-07
      188.800   8.14666e-07
      188.900   8.02133e-07
      189.000   7.89779e-07
      189.100   7.77605e-07
      189.200   7.65612e-07
      189.300   7.53800e-07
      189.400   7.42166e-07
      189.500   7.30705e-07
      189.600   7.19411e-07
      189.700   7.08292e-07
      189.800   6.97400e-07
      189.900   6.86689e-07
      190.000   6.76136e-07
      190.100   6.65746e-07
      190.200   6.55512e-07
      190.300   6.45434e-07
      190.400   6.35504e-07
      190.500   6.25725e-07
      190.600   6.16098e-07
      190.700   6.06612e-07
      190.800   5.97271e-07
      190.900   5.88074e-07
      191.000   5.79017e-07
      191.100   5.70106e-07
      191.200   5.61326e-07
      191.300   5.52679e-07
      191.400   5.44163e-07
      191.500   5.35773e-07
      191.600   5.27511e-07
      191.700   5.19372e-07
      191.800   5.11352e-07
      191.900   5.03455e-07
      192.000   4.95680e-07
      192.100   4.88025e-07
      192.200   4.80492e-07
      192.300   4.73070e-07
      192.400   4.65758e-07
      192.500   4.58555e-07
      192.600   4.51461e-07
      192.700   4.44475e-07
      192.800   4.37592e-07
      192.900   4.30808e-07
      193.000   4.24128e-07
      193.100   4.17554e-07
      193.200   4.11081e-07
      193.300   4.04708e-07
      193.400   3.98434e-07
      193.500   3.92254e-07
      193.600   3.86166e-07
      193.700   3.80170e-07
      193.800   3.74267e-07
      193.900   3.68456e-07
      194.000   3.62731e-07
      194.100   3.57097e-07
      194.200   3.51555e-07
      194.300   3.46098e-07
      194.400   3.40722e-07
      194.500   3.35428e-07
      194.600   3.30212e-07
      194.700   3.25078e-07
      194.800   3.20022e-07
      194.900   3.15041e-07
      195.000   3.10135e-07
      195.100   3.05309e-07
      195.200   3.00557e-07
      195.300   2.95877e-07
      195.400   2.91265e-07
      195.500   2.86721e-07
      195.600   2.82245e-07
      195.700   2.77835e-07
      195.800   2.73490e-07
      195.900   2.69208e-07
      196.000   2.64942e-07
      196.100   2.60739e-07
      196.200   2.56598e-07
      196.300   2.52519e-07
      196.400   2.48500e-07
      196.500   2.44538e-07
      196.600   2.40636e-07
      196.700   2.36791e-07
      196.800   2.33006e-07
      196.900   2.29278e-07
      197.000   2.25606e-07
      197.100   2.21988e-07
      197.200   2.18423e-07
      197.300   2.14910e-07
      197.400   2.11447e-07
      197.500   2.08036e-07
      197.600   2.04676e-07
      197.700   2.01371e-07
      197.800   1.98116e-07
      197.900   1.94907e-07
      198.000   1.91747e-07
      198.100   1.88634e-07
      198.200   1.85567e-07
      198.300   1.82545e-07
      198.400   1.79571e-07
      198.500   1.76644e-07
      198.600   1.73764e-07
      198.700   1.70927e-07
      198.800   1.68133e-07
      198.900   1.65383e-07
      199.000   1.62674e-07
      199.100   1.60006e-07
      199.200   1.57379e-07
      199.300   1.54797e-07
      199.400   1.52257e-07
      199.500   1.49756e-07
      199.600   1.47294e-07
      199.700   1.44870e-07
      199.800   1.42483e-07
      199.900   1.40135e-07
      200.000   1.37823e-07
      200.100   1.35557e-07
      200.200   1.33321e-07
      200.300   1.31121e-07
      200.400   1.28956e-07
      200.500   1.26825e-07
      200.600   1.24729e-07
      200.700   1.22666e-07
      200.800   1.20635e-07
      200.900   1.18637e-07
      201.000   1.16673e-07
      201.100   1.14740e-07
      201.200   1.12838e-07
      201.300   1.10967e-07
      201.400   1.09127e-07
      201.500   1.07315e-07
      201.600   1.05532e-07
      201.700   1.03779e-07
      201.800   1.02053e-07
      201.900   1.00356e-07
      202.000   9.86878e-08
      202.100   9.70456e-08
      202.200   9.54305e-08
      202.300   9.38982e-08
      202.400   9.24925e-08
      202.500   9.11368e-08
      202.600   8.98001e-08
      202.700   8.84830e-08
      202.800   8.71856e-08
      202.900   8.59073e-08
      203.000   8.46478e-08
      203.100   8.34072e-08
      203.200   8.21841e-08
      203.300   8.09785e-08
      203.400   7.97906e-08
      203.500   7.86203e-08
      203.600   7.74670e-08
      203.700   7.63307e-08
      203.800   7.52118e-08
      203.900   7.41099e-08
      204.000   7.30240e-08
      204.100   7.19543e-08
      204.200   7.09007e-08
      204.300   6.98621e-08
      204.400   6.88392e-08
      204.500   6.78314e-08
      204.600   6.68383e-08
      204.700   6.58599e-08
      204.800   6.48970e-08
      204.900   6.39483e-08
      205.000   6.30136e-08
      205.100   6.20929e-08
      205.200   6.11854e-08
      205.300   6.02917e-08
      205.400   5.94111e-08
      205.500   5.85430e-08
      205.600   5.77105e-08
      205.700   5.69103e-08
      205.800   5.61238e-08
      205.900   5.53487e-08
      206.000   5.45848e-08
      206.100   5.38311e-08
      206.200   5.30874e-08
      206.300   5.23543e-08
      206.400   5.16312e-08
      206.500   5.09175e-08
      206.600   5.02136e-08
      206.700   4.95193e-08
      206.800   4.88339e-08
      206.900   4.81578e-08
      207.000   4.74911e-08
      207.100   4.68330e-08
      207.200   4.61842e-08
      207.300   4.55439e-08
      207.400   4.49118e-08
      207.500   4.42881e-08
      207.600   4.36726e-08
      207.700   4.30650e-08
      207.800   4.24654e-08
      207.900   4.18736e-08
      208.000   4.12895e-08
      208.100   4.07131e-08
      208.200   4.01443e-08
      208.300   3.95829e-08
      208.400   3.90290e-08
      208.500   3.84825e-08
      208.600   3.79429e-08
      208.700   3.74103e-08
      208.800   3.68847e-08
      208.900   3.63653e-08
      209.000   3.58493e-08
      209.100   3.53401e-08
      209.200   3.48376e-08
      209.300   3.43417e-08
      209.400   3.38525e-08
      209.500   3.33698e-08
      209.600   3.28936e-08
      209.700   3.24238e-08
      209.800   3.19608e-08
      209.900   3.15037e-08
      210.000   3.10529e-08
      210.100   3.06082e-08
      210.200   3.01695e-08
      210.300   2.97368e-08
      210.400   2.93100e-08
      210.500   2.88889e-08
      210.600   2.84737e-08
      210.700   2.80641e-08
      210.800   2.76601e-08
      210.900   2.72617e-08
      211.000   2.68687e-08
      211.100   2.64812e-08
      211.200   2.60990e-08
      211.300   2.57223e-08
      211.400   2.53510e-08
      211.500   2.49846e-08
      211.600   2.46234e-08
      211.700   2.42672e-08
      211.800   2.39158e-08
      211.900   2.35693e-08
      212.000   2.32278e-08
      212.100   2.28910e-08
      212.200   2.25587e-08
      212.300   2.22313e-08
      212.400   2.19086e-08
      212.500   2.15903e-08
      212.600   2.12766e-08
      212.700   2.09672e-08
      212.800   2.06621e-08
      212.900   2.03614e-08
      213.000   2.00648e-08
      213.100   1.97727e-08
      213.200   1.94846e-08
      213.300   1.92006e-08
      213.400   1.89206e-08
      213.500   1.86445e-08
      213.600   1.83723e-08
      213.700   1.81041e-08
      213.800   1.78395e-08
      213.900   1.75790e-08
      214.000   1.73220e-08
      214.100   1.70687e-08
      214.200   1.68192e-08
      214.300   1.65731e-08
      214.400   1.63306e-08
      214.500   1.60916e-08
      214.600   1.58562e-08
      214.700   1.56241e-08
      214.800   1.53954e-08
      214.900   1.51702e-08
      215.000   1.49481e-08
      215.100   1.47293e-08
      215.200   1.45138e-08
      215.300   1.43016e-08
      215.400   1.40924e-08
      215.500   1.38864e-08
      215.600   1.36835e-08
      215.700   1.34835e-08
      215.800   1.32864e-08
      215.900   1.30923e-08
      216.000   1.29010e-08
      216.100   1.27126e-08
      216.200   1.25270e-08
      216.300   1.23442e-08
      216.400   1.21641e-08
      216.500   1.19867e-08
      216.600   1.18120e-08
      216.700   1.16399e-08
      216.800   1.14704e-08
      216.900   1.13034e-08
      217.000   1.11389e-08
      217.100   1.09768e-08
      217.200   1.08172e-08
      217.300   1.06599e-08
      217.400   1.05050e-08
      217.500   1.03524e-08
      217.600   1.02020e-08
      217.700   1.00538e-08
      217.800   9.90786e-09
      217.900   9.76413e-09
      218.000   9.62248e-09
      218.100   9.48291e-09
      218.200   9.34538e-09
      218.300   9.20989e-09
      218.400   9.07641e-09
      218.500   8.94478e-09
      218.600   8.81512e-09
      218.700   8.68731e-09
      218.800   8.56135e-09
      218.900   8.43724e-09
      219.000   8.31488e-09
      219.100   8.19425e-09
      219.200   8.07538e-09
      219.300   7.95819e-09
      219.400   7.84264e-09
      219.500   7.72876e-09
      219.600   7.61650e-09
      219.700   7.50582e-09
      219.800   7.39674e-09
      219.900   7.28919e-09
      220.000   7.18313e-09
      220.100   7.07858e-09
      220.200   6.97549e-09
      220.300   6.87388e-09
      220.400   6.77369e-09
      220.500   6.67493e-09
      220.600   6.57757e-09
      220.700   6.48154e-09
      220.800   6.38684e-09
      220.900   6.29354e-09
      221.000   6.20151e-09
      221.100   6.11075e-09
      221.200   6.02132e-09
      221.300   5.93313e-09
      221.400   5.84617e-09
      221.500   5.76045e-09
      221.600   5.67594e-09
      221.700   5.59259e-09
      221.800   5.51040e-09
      221.900   5.42939e-09
      222.000   5.34956e-09
      222.100   5.27080e-09
      222.200   5.19319e-09
      222.300   5.11665e-09
      222.400   5.04121e-09
      222.500   4.96680e-09
      222.600   4.89349e-09
      222.700   4.82118e-09
      222.800   4.74988e-09
      222.900   4.67960e-09
      223.000   4.61031e-09
      223.100   4.54198e-09
      223.200   4.47463e-09
      223.300   4.40823e-09
      223.400   4.34279e-09
      223.500   4.27824e-09
      223.600   4.21465e-09
      223.700   4.15194e-09
      223.800   4.09011e-09
      223.900   4.02921e-09
      224.000   3.96913e-09
      224.100   3.90990e-09
      224.200   3.85151e-09
      224.300   3.79397e-09
      224.400   3.73723e-09
      224.500   3.68131e-09
      224.600   3.62616e-09
      224.700   3.57184e-09
      224.800   3.51828e-09
      224.900   3.46546e-09
      225.000   3.41341e-09
      225.100   3.36210e-09
      225.200   3.31151e-09
      225.300   3.26167e-09
      225.400   3.21252e-09
      225.500   3.16407e-09
      225.600   3.11632e-09
      225.700   3.06927e-09
      225.800   3.02287e-09
      225.900   2.97715e-09
      226.000   2.93210e-09
      226.100   2.88769e-09
      226.200   2.84393e-09
      226.300   2.80100e-09
      226.400   2.75887e-09
      226.500   2.71730e-09
      226.600   2.67628e-09
      226.700   2.63583e-09
      226.800   2.59593e-09
      226.900   2.55659e-09
      227.000   2.51782e-09
      227.100   2.47961e-09
      227.200   2.44197e-09
      227.300   2.40488e-09
      227.400   2.36834e-09
      227.500   2.33233e-09
      227.600   2.29686e-09
      227.700   2.26191e-09
      227.800   2.22749e-09
      227.900   2.19358e-09
      228.000   2.16018e-09
      228.100   2.12728e-09
      228.200   2.09486e-09
      228.300   2.06293e-09
      228.400   2.03149e-09
      228.500   2.00052e-09
      228.600   1.97002e-09
      228.700   1.93998e-09
      228.800   1.91039e-09
      228.900   1.88127e-09
      229.000   1.85258e-09
      229.100   1.82433e-09
      229.200   1.79651e-09
      229.300   1.76911e-09
      229.400   1.74214e-09
      229.500   1.71558e-09
      229.600   1.68943e-09
      229.700   1.66368e-09
      229.800   1.63832e-09
      229.900   1.61335e-09
      230.000   1.58864e-09
      230.100   1.56343e-09
      230.200   1.53859e-09
      230.300   1.51417e-09
      230.400   1.49012e-09
      230.500   1.46646e-09
      230.600   1.44319e-09
      230.700   1.42028e-09
      230.800   1.39774e-09
      230.900   1.37557e-09
      231.000   1.35374e-09
      231.100   1.33227e-09
      231.200   1.31113e-09
      231.300   1.29034e-09
      231.400   1.26988e-09
      231.500   1.24974e-09
      231.600   1.22992e-09
      231.700   1.21042e-09
      231.800   1.19123e-09
      231.900   1.17234e-09
      232.000   1.15376e-09
      232.100   1.13546e-09
      232.200   1.11746e-09
      232.300   1.09975e-09
      232.400   1.08231e-09
      232.500   1.06514e-09
      232.600   1.04825e-09
      232.700   1.03163e-09
      232.800   1.01526e-09
      232.900   9.99161e-10
      233.000   9.83308e-10
      233.100   9.67710e-10
      233.200   9.52351e-10
      233.300   9.37237e-10
      233.400   9.22364e-10
      233.500   9.07722e-10
      233.600   8.93318e-10
      233.700   8.79132e-10
      233.800   8.63683e-10
      233.900   8.48308e-10
      234.000   8.33195e-10
      234.100   8.18349e-10
      234.200   8.03767e-10
      234.300   7.89438e-10
      234.400   7.75359e-10
      234.500   7.61527e-10
      234.600   7.47934e-10
      234.700   7.34582e-10
      234.800   7.21466e-10
      234.900   7.08576e-10
      235.000   6.95909e-10
      235.100   6.83465e-10
      235.200   6.71240e-10
      235.300   6.59229e-10
      235.400   6.47426e-10
      235.500   6.35831e-10
      235.600   6.24442e-10
      235.700   6.13249e-10
      235.800   6.02261e-10
      235.900   5.91465e-10
      236.000   5.80858e-10
      236.100   5.70435e-10
      236.200   5.60194e-10
      236.300   5.50131e-10
      236.400   5.40248e-10
      236.500   5.30535e-10
      236.600   5.20992e-10
      236.700   5.11616e-10
      236.800   5.02403e-10
      236.900   4.93352e-10
      237.000   4.84458e-10
      237.100   4.75718e-10
      237.200   4.67133e-10
      237.300   4.58698e-10
      237.400   4.50409e-10
      237.500   4.42263e-10
      237.600   4.34256e-10
      237.700   4.26394e-10
      237.800   4.18670e-10
      237.900   4.11080e-10
      238.000   4.03624e-10
      238.100   3.96296e-10
      238.200   3.89097e-10
      238.300   3.82022e-10
      238.400   3.75070e-10
      238.500   3.68239e-10
      238.600   3.61529e-10
      238.700   3.54936e-10
      238.800   3.48457e-10
      238.900   3.42092e-10
      239.000   3.35835e-10
      239.100   3.29690e-10
      239.200   3.23653e-10
      239.300   3.17721e-10
      239.400   3.11899e-10
      239.500   3.06178e-10
      239.600   3.00555e-10
      239.700   2.95034e-10
      239.800   2.89607e-10
      239.900   2.84275e-10
      240.000   2.79037e-10
      240.100   2.73890e-10
      240.200   2.68833e-10
      240.300   2.63865e-10
      240.400   2.58983e-10
      240.500   2.54190e-10
      240.600   2.49481e-10
      240.700   2.44854e-10
      240.800   2.40311e-10
      240.900   2.35851e-10
      241.000   2.31469e-10
      241.100   2.27166e-10
      241.200   2.22939e-10
      241.300   2.18786e-10
      241.400   2.14708e-10
      241.500   2.10702e-10
      241.600   2.06767e-10
      241.700   2.02902e-10
      241.800   1.99107e-10
      241.900   1.95378e-10
      242.000   1.91718e-10
      242.100   1.88123e-10
      242.200   1.84596e-10
      242.300   1.81134e-10
      242.400   1.77734e-10
      242.500   1.74396e-10
      242.600   1.71118e-10
      242.700   1.67899e-10
      242.800   1.64739e-10
      242.900   1.61636e-10
      243.000   1.58590e-10
      243.100   1.55599e-10
      243.200   1.52663e-10
      243.300   1.49780e-10
      243.400   1.46951e-10
      243.500   1.44175e-10
      243.600   1.41453e-10
      243.700   1.38779e-10
      243.800   1.36155e-10
      243.900   1.33580e-10
      244.000   1.31052e-10
      244.100   1.28570e-10
      244.200   1.26135e-10
      244.300   1.23744e-10
      244.400   1.21398e-10
      244.500   1.19096e-10
      244.600   1.16835e-10
      244.700   1.14619e-10
      244.800   1.12446e-10
      244.900   1.10313e-10
      245.000   1.08219e-10
      245.100   1.06164e-10
      245.200   1.04148e-10
      245.300   1.02170e-10
      245.400   1.00228e-10
      245.500   9.83234e-11
      245.600   9.64540e-11
      245.700   9.46190e-11
      245.800   9.28180e-11
      245.900   9.10534e-11
      246.000   8.93231e-11
      246.100   8.76245e-11
      246.200   8.59579e-11
      246.300   8.43224e-11
      246.400   8.27181e-11
      246.500   8.11435e-11
      246.600   7.95984e-11
      246.700   7.80827e-11
      246.800   7.65947e-11
      246.900   7.51348e-11
      247.000   7.37044e-11
      247.100   7.23012e-11
      247.200   7.09247e-11
      247.300   6.95741e-11
      247.400   6.82487e-11
      247.500   6.69482e-11
      247.600   6.56722e-11
      247.700   6.44202e-11
      247.800   6.31917e-11
      247.900   6.19861e-11
      248.000   6.08034e-11
      248.100   5.96456e-11
      248.200   5.85093e-11
      248.300   5.73941e-11
      248.400   5.63000e-11
      248.500   5.52262e-11
      248.600   5.41727e-11
      248.700   5.31392e-11
      248.800   5.21251e-11
      248.900   5.11302e-11
      249.000   5.01540e-11
      249.100   4.91974e-11
      249.200   4.82596e-11
      249.300   4.73391e-11
      249.400   4.64358e-11
      249.500   4.55498e-11
      249.600   4.46801e-11
      249.700   4.38269e-11
      249.800   4.29897e-11
      249.900   4.21683e-11
      250.000   4.13625e-11
      250.100   4.05729e-11
      250.200   3.97982e-11
      250.300   3.90386e-11
      250.400   3.82933e-11
      250.500   3.75621e-11
      250.600   3.68448e-11
      250.700   3.61409e-11
      250.800   3.54503e-11
      250.900   3.47728e-11
      251.000   3.41080e-11
      251.100   3.34558e-11
      251.200   3.28164e-11
      251.300   3.21896e-11
      251.400   3.15746e-11
      251.500   3.09710e-11
      251.600   3.03789e-11
      251.700   2.97983e-11
      251.800   2.92284e-11
      251.900   2.86692e-11
      252.000   2.81205e-11
      252.100   2.75825e-11
      252.200   2.70542e-11
      252.300   2.65366e-11
      252.400   2.60286e-11
      252.500   2.55306e-11
      252.600   2.50417e-11
      252.700   2.45621e-11
      252.800   2.40916e-11
      252.900   2.36300e-11
      253.000   2.31769e-11
      253.100   2.27326e-11
      253.200   2.22965e-11
      253.300   2.18770e-11
      253.400   2.14690e-11
      253.500   2.10688e-11
      253.600   2.06761e-11
      253.700   2.02905e-11
      253.800   1.99121e-11
      253.900   1.95406e-11
      254.000   1.91758e-11
      254.100   1.88176e-11
      254.200   1.84659e-11
      254.300   1.81207e-11
      254.400   1.77817e-11
      254.500   1.74489e-11
      254.600   1.71221e-11
      254.700   1.68014e-11
      254.800   1.64867e-11
      254.900   1.61778e-11
      255.000   1.58745e-11
      255.100   1.55766e-11
      255.200   1.52841e-11
      255.300   1.49970e-11
      255.400   1.47151e-11
      255.500   1.44383e-11
      255.600   1.41666e-11
      255.700   1.38998e-11
      255.800   1.36378e-11
      255.900   1.33806e-11
      256.000   1.31280e-11
      256.100   1.28802e-11
      256.200   1.26369e-11
      256.300   1.23980e-11
      256.400   1.21637e-11
      256.500   1.19334e-11
      256.600   1.17075e-11
      256.700   1.14856e-11
      256.800   1.12678e-11
      256.900   1.10539e-11
      257.000   1.08439e-11
      257.100   1.06377e-11
      257.200   1.04354e-11
      257.300   1.02367e-11
      257.400   1.00439e-11
      257.500   9.85535e-12
      257.600   9.67044e-12
      257.700   9.48884e-12
      257.800   9.31052e-12
      257.900   9.13546e-12
      258.000   8.96356e-12
      258.100   8.79472e-12
      258.200   8.62897e-12
      258.300   8.46627e-12
      258.400   8.30644e-12
      258.500   8.14948e-12
      258.600   7.99544e-12
      258.700   7.84419e-12
      258.800   7.69565e-12
      258.900   7.54991e-12
      259.000   7.40672e-12
      259.100   7.26622e-12
      259.200   7.12825e-12
      259.300   6.99296e-12
      259.400   6.86009e-12
      259.500   6.72963e-12
      259.600   6.60162e-12
      259.700   6.47597e-12
      259.800   6.35257e-12
      259.900   6.23140e-12
      260.000   6.11253e-12
      260.100   5.99585e-12
      260.200   5.88131e-12
      260.300   5.76888e-12
      260.400   5.65855e-12
      260.500   5.55029e-12
      260.600   5.44398e-12
      260.700   5.33964e-12
      260.800   5.23732e-12
      260.900   5.13682e-12
      261.000   5.03826e-12
      261.100   4.94156e-12
      261.200   4.84665e-12
      261.300   4.75351e-12
      261.400   4.66215e-12
      261.500   4.57261e-12
      261.600   4.48509e-12
      261.700   4.39926e-12
      261.800   4.31506e-12
      261.900   4.23239e-12
      262.000   4.15127e-12
      262.100   4.07167e-12
      262.200   3.99359e-12
      262.300   3.91694e-12
      262.400   3.84175e-12
      262.500   3.76795e-12
      262.600   3.69552e-12
      262.700   3.62447e-12
      262.800   3.55476e-12
      262.900   3.48633e-12
      263.000   3.41925e-12
      263.100   3.35341e-12
      263.200   3.28884e-12
      263.300   3.22548e-12
      263.400   3.16332e-12
      263.500   3.10235e-12
      263.600   3.04254e-12
      263.700   2.98384e-12
      263.800   2.92625e-12
      263.900   2.86980e-12
      264.000   2.81439e-12
      264.100   2.76002e-12
      264.200   2.70667e-12
      264.300   2.65438e-12
      264.400   2.60307e-12
      264.500   2.55273e-12
      264.600   2.50334e-12
      264.700   2.45491e-12
      264.800   2.40738e-12
      264.900   2.36078e-12
      265.000   2.31508e-12
      265.100   2.27023e-12
      265.200   2.22624e-12
      265.300   2.18310e-12
      265.400   2.14079e-12
      265.500   2.09928e-12
      265.600   2.05859e-12
      265.700   2.01864e-12
      265.800   1.97955e-12
      265.900   1.94119e-12
      266.000   1.90359e-12
      266.100   1.86671e-12
      266.200   1.83054e-12
      266.300   1.79506e-12
      266.400   1.76027e-12
      266.500   1.72613e-12
      266.600   1.69267e-12
      266.700   1.65984e-12
      266.800   1.62766e-12
      266.900   1.59609e-12
      267.000   1.56512e-12
      267.100   1.53476e-12
      267.200   1.50500e-12
      267.300   1.47580e-12
      267.400   1.44716e-12
      267.500   1.41907e-12
      267.600   1.39154e-12
      267.700   1.36453e-12
      267.800   1.33804e-12
      267.900   1.31206e-12
      268.000   1.28660e-12
      268.100   1.26162e-12
      268.200   1.23713e-12
      268.300   1.21312e-12
      268.400   1.18957e-12
      268.500   1.16647e-12
      268.600   1.14382e-12
      268.700   1.12161e-12
      268.800   1.09983e-12
      268.900   1.07848e-12
      269.000   1.05754e-12
      269.100   1.03700e-12
      269.200   1.01687e-12
      269.300   9.97133e-13
      269.400   9.77760e-13
      269.500   9.58770e-13
      269.600   9.40154e-13
      269.700   9.21902e-13
      269.800   9.04000e-13
      269.900   8.86443e-13
      270.000   8.69233e-13
      270.100   8.52380e-13
      270.200   8.35875e-13
      270.300   8.19685e-13
      270.400   8.03804e-13
      270.500   7.88235e-13
      270.600   7.72962e-13
      270.700   7.57988e-13
      270.800   7.43307e-13
      270.900   7.28898e-13
      271.000   7.14777e-13
      271.100   7.00926e-13
      271.200   6.87338e-13
      271.300   6.74018e-13
      271.400   6.60952e-13
      271.500   6.48140e-13
      271.600   6.35568e-13
      271.700   6.23243e-13
      271.800   6.11158e-13
      271.900   5.99304e-13
      272.000   5.87681e-13
      272.100   5.76277e-13
      272.200   5.65096e-13
      272.300   5.54126e-13
      272.400   5.43367e-13
      272.500   5.32818e-13
      272.600   5.22469e-13
      272.700   5.12319e-13
      272.800   5.02364e-13
      272.900   4.92601e-13
      273.000   4.83028e-13
      273.100   4.73635e-13
      273.200   4.64421e-13
      273.300   4.55390e-13
      273.400   4.46527e-13
      273.500   4.37835e-13
      273.600   4.29310e-13
      273.700   4.20946e-13
      273.800   4.12743e-13
      273.900   4.04702e-13
      274.000   3.96811e-13
      274.100   3.89071e-13
      274.200   3.81479e-13
      274.300   3.74033e-13
      274.400   3.66419e-13
      274.500   3.58285e-13
      274.600   3.50183e-13
      274.700   3.42263e-13
      274.800   3.34514e-13
      274.900   3.26935e-13
      275.000   3.19526e-13
      275.100   3.12281e-13
      275.200   3.05196e-13
      275.300   2.98267e-13
      275.400   2.91493e-13
      275.500   2.84870e-13
      275.600   2.78389e-13
      275.700   2.72056e-13
      275.800   2.65864e-13
      275.900   2.59808e-13
      276.000   2.53886e-13
      276.100   2.48095e-13
      276.200   2.42433e-13
      276.300   2.36896e-13
      276.400   2.31483e-13
      276.500   2.26188e-13
      276.600   2.21013e-13
      276.700   2.15952e-13
      276.800   2.11006e-13
      276.900   2.06168e-13
      277.000   2.01438e-13
      277.100   1.96813e-13
      277.200   1.92291e-13
      277.300   1.87872e-13
      277.400   1.83550e-13
      277.500   1.79324e-13
      277.600   1.75194e-13
      277.700   1.71155e-13
      277.800   1.67206e-13
      277.900   1.63346e-13
      278.000   1.59573e-13
      278.100   1.55885e-13
      278.200   1.52279e-13
      278.300   1.48755e-13
      278.400   1.45310e-13
      278.500   1.41941e-13
      278.600   1.38648e-13
      278.700   1.35430e-13
      278.800   1.32285e-13
      278.900   1.29179e-13
      279.000   1.26135e-13
      279.100   1.23161e-13
      279.200   1.20254e-13
      279.300   1.17415e-13
      279.400   1.14639e-13
      279.500   1.11928e-13
      279.600   1.09279e-13
      279.700   1.06692e-13
      279.800   1.04163e-13
      279.900   1.01692e-13
      280.000   9.92784e-14
      280.100   9.69197e-14
      280.200   9.46165e-14
      280.300   9.23656e-14
      280.400   9.01663e-14
      280.500   8.80195e-14
      280.600   8.59217e-14
      280.700   8.38721e-14
      280.800   8.18703e-14
      280.900   7.99146e-14
      281.000   7.80043e-14
      281.100   7.61383e-14
      281.200   7.43155e-14
      281.300   7.25351e-14
      281.400   7.07968e-14
      281.500   6.90982e-14
      281.600   6.74392e-14
      281.700   6.58189e-14
      281.800   6.42374e-14
      281.900   6.26919e-14
      282.000   6.11825e-14
      282.100   5.97084e-14
      282.200   5.82700e-14
      282.300   5.68646e-14
      282.400   5.54919e-14
      282.500   5.41512e-14
      282.600   5.28427e-14
      282.700   5.15645e-14
      282.800   5.03160e-14
      282.900   4.90982e-14
      283.000   4.79083e-14
      283.100   4.67475e-14
      283.200   4.56138e-14
      283.300   4.45072e-14
      283.400   4.34266e-14
      283.500   4.23718e-14
      283.600   4.13414e-14
      283.700   4.03353e-14
      283.800   3.93534e-14
      283.900   3.83952e-14
      284.000   3.74594e-14
      284.100   3.65458e-14
      284.200   3.56540e-14
      284.300   3.47836e-14
      284.400   3.39338e-14
      284.500   3.31043e-14
      284.600   3.22946e-14
      284.700   3.15046e-14
      284.800   3.07333e-14
      284.900   2.99804e-14
      285.000   2.92454e-14
      285.100   2.85281e-14
      285.200   2.78282e-14
      285.300   2.71449e-14
      285.400   2.64780e-14
      285.500   2.58272e-14
      285.600   2.51923e-14
      285.700   2.45724e-14
      285.800   2.39679e-14
      285.900   2.33780e-14
      286.000   2.28025e-14
      286.100   2.22411e-14
      286.200   2.16929e-14
      286.300   2.11583e-14
      286.400   2.06366e-14
      286.500   2.01274e-14
      286.600   1.96306e-14
      286.700   1.91458e-14
      286.800   1.86728e-14
      286.900   1.82112e-14
      287.000   1.77609e-14
      287.100   1.73216e-14
      287.200   1.68930e-14
      287.300   1.64748e-14
      287.400   1.60667e-14
      287.500   1.56686e-14
      287.600   1.52803e-14
      287.700   1.49013e-14
      287.800   1.45317e-14
      287.900   1.41712e-14
      288.000   1.38195e-14
      288.100   1.34764e-14
      288.200   1.31421e-14
      288.300   1.28160e-14
      288.400   1.24978e-14
      288.500   1.21875e-14
      288.600   1.18845e-14
      288.700   1.15892e-14
      288.800   1.13010e-14
      288.900   1.10201e-14
      289.000   1.07459e-14
      289.100   1.04785e-14
      289.200   1.02177e-14
      289.300   9.96330e-15
      289.400   9.71507e-15
      289.500   9.47304e-15
      289.600   9.23691e-15
      289.700   9.00675e-15
      289.800   8.78211e-15
      289.900   8.56299e-15
      290.000   8.34934e-15
      290.100   8.14108e-15
      290.200   7.93809e-15
      290.300   7.74007e-15
      290.400   7.54696e-15
      290.500   7.35869e-15
      290.600   7.17496e-15
      290.700   6.99580e-15
      290.800   6.82115e-15
      290.900   6.65074e-15
      291.000   6.48447e-15
      291.100   6.32233e-15
      291.200   6.16424e-15
      291.300   6.01004e-15
      291.400   5.85969e-15
      291.500   5.71304e-15
      291.600   5.56999e-15
      291.700   5.43058e-15
      291.800   5.29459e-15
      291.900   5.16214e-15
      292.000   5.03296e-15
      292.100   4.90696e-15
      292.200   4.78413e-15
      292.300   4.66428e-15
      292.400   4.54742e-15
      292.500   4.43341e-15
      292.600   4.32224e-15
      292.700   4.21386e-15
      292.800   4.10818e-15
      292.900   4.00512e-15
      293.000   3.90461e-15
      293.100   3.80656e-15
      293.200   3.71095e-15
      293.300   3.61773e-15
      293.400   3.52688e-15
      293.500   3.43834e-15
      293.600   3.35200e-15
      293.700   3.26780e-15
      293.800   3.18569e-15
      293.900   3.10564e-15
      294.000   3.02755e-15
      294.100   2.95140e-15
      294.200   2.87716e-15
      294.300   2.80477e-15
      294.400   2.73412e-15
      294.500   2.66526e-15
      294.600   2.59810e-15
      294.700   2.53261e-15
      294.800   2.46875e-15
      294.900   2.40652e-15
      295.000   2.34587e-15
      295.100   2.28677e-15
      295.200   2.22911e-15
      295.300   2.17287e-15
      295.400   2.11805e-15
      295.500   2.06460e-15
      295.600   2.01246e-15
      295.700   1.96162e-15
      295.800   1.91205e-15
      295.900   1.86368e-15
      296.000   1.81652e-15
      296.100   1.77053e-15
      296.200   1.72571e-15
      296.300   1.68203e-15
      296.400   1.63949e-15
      296.500   1.59798e-15
      296.600   1.55751e-15
      296.700   1.51805e-15
      296.800   1.47958e-15
      296.900   1.44204e-15
      297.000   1.40545e-15
      297.100   1.36977e-15
      297.200   1.33498e-15
      297.300   1.30105e-15
      297.400   1.26797e-15
      297.500   1.23570e-15
      297.600   1.20426e-15
      297.700   1.17363e-15
      297.800   1.14377e-15
      297.900   1.11466e-15
      298.000   1.08628e-15
      298.100   1.05860e-15
      298.200   1.03161e-15
      298.300   1.00530e-15
      298.400   9.79634e-16
      298.500   9.54607e-16
      298.600   9.30202e-16
      298.700   9.06414e-16
      298.800   8.83210e-16
      298.900   8.60640e-16
      299.000   8.38640e-16
      299.100   8.17183e-16
      299.200   7.96256e-16
      299.300   7.75859e-16
      299.400   7.55965e-16
      299.500   7.36570e-16
      299.600   7.17663e-16
      299.700   6.99230e-16
      299.800   6.81244e-16
      299.900   6.63726e-16
      300.000   6.46643e-16
      300.100   6.29998e-16
      300.192   6.15061e-16
      300.285   6.00310e-16
      300.377   5.86064e-16
      300.470   5.72003e-16
      300.562   5.58418e-16
      300.654   5.45145e-16
      300.747   5.32038e-16
      300.839   5.19385e-16
      300.932   5.06883e-16
      301.025   4.94679e-16
      301.117   4.82894e-16
      301.210   4.71254e-16
      301.303   4.59891e-16
      301.395   4.48925e-16
      301.488   4.38078e-16
      301.581   4.27507e-16
      301.674   4.17173e-16
      301.766   4.07195e-16
      301.859   3.97343e-16
      301.952   3.87728e-16
      302.045   3.78335e-16
      302.138   3.69174e-16
      302.231   3.60237e-16
      302.324   3.51514e-16
      302.417   3.42994e-16
      302.510   3.34672e-16
      302.603   3.26559e-16
      302.696   3.18631e-16
      302.789   3.10889e-16
      302.882   3.03330e-16
      302.976   2.95878e-16
      303.069   2.88678e-16
      303.162   2.81651e-16
      303.255   2.74787e-16
      303.349   2.68017e-16
      303.442   2.61476e-16
      303.535   2.55098e-16
      303.629   2.48803e-16
      303.722   2.42726e-16
      303.816   2.36728e-16
      303.909   2.30937e-16
      304.003   2.25224e-16
      304.096   2.19706e-16
      304.190   2.14263e-16
      304.283   2.09008e-16
      304.377   2.03828e-16
      304.471   1.98769e-16
      304.564   1.93885e-16
      304.658   1.89071e-16
      304.752   1.84367e-16
      304.846   1.79782e-16
      304.939   1.75355e-16
      305.033   1.70987e-16
      305.127   1.66726e-16
      305.221   1.62569e-16
      305.315   1.58513e-16
      305.409   1.54556e-16
      305.503   1.50696e-16
      305.597   1.46929e-16
      305.691   1.43254e-16
      305.785   1.39668e-16
      305.879   1.36170e-16
      305.973   1.32760e-16
      306.067   1.29430e-16
      306.161   1.26184e-16
      306.255   1.23016e-16
      306.350   1.19894e-16
      306.444   1.16880e-16
      306.538   1.13941e-16
      306.633   1.11044e-16
      306.727   1.08248e-16
      306.821   1.05521e-16
      306.916   1.02833e-16
      307.010   1.00240e-16
      307.105   9.76845e-17
      307.199   9.52190e-17
      307.294   9.27880e-17
      307.388   9.04432e-17
      307.483   8.81327e-17
      307.577   8.59028e-17
      307.672   8.37053e-17
      307.767   8.15632e-17
      307.861   7.94967e-17
      307.956   7.74587e-17
      308.051   7.54723e-17
      308.146   7.35368e-17
      308.240   7.16694e-17
      308.335   6.98289e-17
      308.430   6.80338e-17
      308.525   6.62842e-17
      308.620   6.45794e-17
      308.715   6.29172e-17
      308.810   6.12969e-17
      308.905   5.97174e-17
      309.000   5.81781e-17
      309.095   5.66775e-17
      309.190   5.52155e-17
      309.285   5.37896e-17
      309.380   5.24000e-17
      309.476   5.10320e-17
      309.571   4.97123e-17
      309.666   4.84257e-17
      309.761   4.71723e-17
      309.857   4.59380e-17
      309.952   4.47476e-17
      310.047   4.35881e-17
      310.143   4.24457e-17
      310.238   4.13445e-17
      310.334   4.02600e-17
      310.429   3.92140e-17
      310.525   3.81846e-17
      310.620   3.71919e-17
      310.716   3.62143e-17
      310.811   3.52721e-17
      310.907   3.43447e-17
      311.003   3.34411e-17
      311.098   3.25697e-17
      311.194   3.17117e-17
      311.290   3.08762e-17
      311.386   3.00625e-17
      311.481   2.92778e-17
      311.577   2.85057e-17
      311.673   2.77534e-17
      311.769   2.70205e-17
      311.865   2.63070e-17
      311.961   2.56169e-17
      312.057   2.49654e-17
      312.153   2.43370e-17
      312.249   2.37241e-17
      312.345   2.31266e-17
      312.441   2.25436e-17
      312.537   2.19754e-17
      312.633   2.14214e-17
      312.730   2.08752e-17
      312.826   2.03485e-17
      312.922   1.98350e-17
      313.018   1.93343e-17
      313.115   1.88409e-17
      313.211   1.83648e-17
      313.307   1.79007e-17
      313.404   1.74436e-17
      313.500   1.70023e-17
      313.597   1.65680e-17
      313.693   1.61490e-17
      313.790   1.57361e-17
      313.886   1.53378e-17
      313.983   1.49453e-17
      314.079   1.45667e-17
      314.176   1.41940e-17
      314.273   1.38305e-17
      314.369   1.34801e-17
      314.466   1.31348e-17
      314.563   1.27982e-17
      314.660   1.24704e-17
      314.756   1.21539e-17
      314.853   1.18423e-17
      314.950   1.15386e-17
      315.047   1.12427e-17
      315.144   1.09542e-17
      315.241   1.06731e-17
      315.338   1.03991e-17
      315.435   1.01322e-17
      315.532   9.87201e-18
      315.629   9.61850e-18
      315.726   9.37146e-18
      315.823   9.13052e-18
      315.921   8.89355e-18
      316.018   8.66493e-18
      316.115   8.44220e-18
      316.212   8.22506e-18
      316.310   8.01138e-18
      316.407   7.80531e-18
      316.504   7.60441e-18
      316.602   7.40672e-18
      316.699   7.21611e-18
      316.796   7.03038e-18
      316.894   6.84755e-18
      316.991   6.67219e-18
      317.089   6.50533e-18
      317.187   6.34546e-18
      317.284   6.19112e-18
      317.382   6.03897e-18
      317.479   5.89198e-18
      317.577   5.74716e-18
      317.675   5.60591e-18
      317.773   5.46807e-18
      317.870   5.33500e-18
      317.968   5.20375e-18
      318.066   5.07573e-18
      318.164   4.95086e-18
      318.262   4.82906e-18
      318.360   4.71021e-18
      318.458   4.59432e-18
      318.556   4.48131e-18
      318.654   4.37103e-18
      318.752   4.26344e-18
      318.850   4.15850e-18
      318.948   4.05611e-18
      319.046   3.95624e-18
      319.144   3.85879e-18
      319.242   3.76376e-18
      319.341   3.67012e-18
      319.439   3.57971e-18
      319.537   3.49154e-18
      319.635   3.40552e-18
      319.734   3.32076e-18
      319.832   3.23894e-18
      319.930   3.15910e-18
      320.029   3.08045e-18
      320.127   3.00453e-18
      320.226   2.92971e-18
      320.324   2.85744e-18
      320.423   2.78623e-18
      320.522   2.71685e-18
      320.620   2.64985e-18
      320.719   2.58382e-18
      320.818   2.51943e-18
      320.916   2.45727e-18
      321.015   2.39600e-18
      321.114   2.33626e-18
      321.213   2.27800e-18
      321.311   2.22177e-18
      321.410   2.16638e-18
      321.509   2.11232e-18
      321.608   2.05964e-18
      321.707   2.00826e-18
      321.806   1.95813e-18
      321.905   1.90928e-18
      322.004   1.86161e-18
      322.103   1.81514e-18
      322.202   1.76982e-18
      322.301   1.72563e-18
      322.401   1.68212e-18
      322.500   1.64010e-18
      322.599   1.59914e-18
      322.698   1.55920e-18
      322.798   1.51985e-18
      322.897   1.48186e-18
      322.996   1.44483e-18
      323.096   1.40833e-18
      323.195   1.37311e-18
      323.294   1.33877e-18
      323.394   1.30495e-18
      323.493   1.27230e-18
      323.593   1.24015e-18
      323.692   1.20911e-18
      323.792   1.17854e-18
      323.892   1.14874e-18
      323.991   1.11996e-18
      324.091   1.09163e-18
      324.191   1.06400e-18
      324.291   1.03707e-18
      324.390   1.01109e-18
      324.490   9.85474e-19
      324.590   9.60521e-19
      324.690   9.36194e-19
      324.790   9.12471e-19
      324.890   8.89351e-19
      324.990   8.66799e-19
      325.090   8.44810e-19
      325.190   8.23386e-19
      325.290   8.02506e-19
      325.390   7.82127e-19
      325.490   7.62279e-19
      325.590   7.42932e-19
      325.690   7.24054e-19
      325.790   7.05659e-19
      325.891   6.87551e-19
      325.991   6.70073e-19
      326.091   6.53029e-19
      326.192   6.36254e-19
      326.292   6.20063e-19
      326.392   6.04285e-19
      326.493   5.88747e-19
      326.593   5.73749e-19
      326.694   5.58996e-19
      326.794   5.44749e-19
      326.895   5.30724e-19
      326.995   5.17186e-19
      327.096   5.03865e-19
      327.197   4.90880e-19
      327.297   4.78346e-19
      327.398   4.66009e-19
      327.499   4.53986e-19
      327.599   4.42380e-19
      327.700   4.30954e-19
      327.801   4.19821e-19
      327.902   4.08978e-19
      328.003   3.98403e-19
      328.104   3.88099e-19
      328.205   3.78057e-19
      328.306   3.68272e-19
      328.407   3.58738e-19
      328.508   3.49443e-19
      328.609   3.40386e-19
      328.710   3.31562e-19
      328.811   3.22962e-19
      328.912   3.14583e-19
      329.013   3.06416e-19
      329.115   2.98382e-19
      329.216   2.90629e-19
      329.317   2.83074e-19
      329.419   2.75645e-19
      329.520   2.68472e-19
      329.621   2.61481e-19
      329.723   2.54604e-19
      329.824   2.47976e-19
      329.926   2.41450e-19
      330.027   2.35153e-19
      330.129   2.28958e-19
      330.230   2.22985e-19
      330.332   2.17104e-19
      330.434   2.11377e-19
      330.535   2.05851e-19
      330.637   2.00415e-19
      330.739   1.95122e-19
      330.840   1.90014e-19
      330.942   1.84989e-19
      331.044   1.80095e-19
      331.146   1.75328e-19
      331.248   1.70684e-19
      331.350   1.66162e-19
      331.452   1.61762e-19
      331.554   1.57577e-19
      331.656   1.53654e-19
      331.758   1.49828e-19
      331.860   1.46092e-19
      331.962   1.42449e-19
      332.064   1.38894e-19
      332.166   1.35429e-19
      332.268   1.32045e-19
      332.371   1.28715e-19
      332.473   1.25495e-19
      332.575   1.22353e-19
      332.677   1.19291e-19
      332.780   1.16275e-19
      332.882   1.13361e-19
      332.985   1.10491e-19
      333.087   1.07718e-19
      333.190   1.04987e-19
      333.292   1.02314e-19
      333.395   9.95862e-20
      333.497   9.69201e-20
      333.600   9.42986e-20
      333.702   9.17708e-20
      333.805   8.92874e-20
      333.908   8.68669e-20
      334.011   8.45128e-20
      334.113   8.22425e-20
      334.216   8.00100e-20
      334.319   7.78378e-20
      334.422   7.57228e-20
      334.525   7.36642e-20
      334.628   7.16603e-20
      334.731   6.97111e-20
      334.834   6.78133e-20
      334.937   6.59655e-20
      335.040   6.41666e-20
      335.143   6.24172e-20
      335.246   6.07138e-20
      335.349   5.90562e-20
      335.452   5.74430e-20
      335.555   5.58732e-20
      335.659   5.43303e-20
      335.762   5.28434e-20
      335.865   5.13972e-20
      335.969   4.99757e-20
      336.072   4.86053e-20
      336.175   4.72730e-20
      336.279   4.59639e-20
      336.382   4.47022e-20
      336.486   4.34624e-20
      336.589   4.22678e-20
      336.693   4.10951e-20
      336.796   3.99649e-20
      336.900   3.88544e-20
      337.004   3.77736e-20
      337.107   3.67334e-20
      337.211   3.57109e-20
      337.315   3.47172e-20
      337.419   3.37500e-20
      337.523   3.28090e-20
      337.626   3.19029e-20
      337.730   3.10131e-20
      337.834   3.01473e-20
      337.938   2.93057e-20
      338.042   2.84885e-20
      338.146   2.76996e-20
      338.250   2.69330e-20
      338.354   2.61872e-20
      338.458   2.54614e-20
      338.562   2.47554e-20
      338.667   2.40625e-20
      338.771   2.33946e-20
      338.875   2.27452e-20
      338.979   2.21132e-20
      339.084   2.14933e-20
      339.188   2.08958e-20
      339.292   2.03148e-20
      339.397   1.97441e-20
      339.501   1.91947e-20
      339.606   1.86548e-20
      339.710   1.81352e-20
      339.815   1.76248e-20
      339.919   1.71335e-20
      340.024   1.66509e-20
      340.128   1.61865e-20
      340.233   1.57301e-20
      340.338   1.52868e-20
      340.442   1.48595e-20
      340.547   1.44403e-20
      340.652   1.40326e-20
      340.757   1.36364e-20
      340.862   1.32511e-20
      340.966   1.28801e-20
      341.071   1.25160e-20
      341.176   1.21620e-20
      341.281   1.18179e-20
      341.386   1.14835e-20
      341.491   1.11583e-20
      341.596   1.08423e-20
      341.702   1.05322e-20
      341.807   1.02337e-20
      341.912   9.94355e-21
      342.017   9.66148e-21
      342.122   9.38726e-21
      342.228   9.11847e-21
      342.333   8.85955e-21
      342.438   8.60792e-21
      342.544   8.36115e-21
      342.649   8.12349e-21
      342.754   7.89270e-21
      342.860   7.66612e-21
      342.965   7.44791e-21
      343.071   7.23418e-21
      343.176   7.02829e-21
      343.282   6.82626e-21
      343.388   6.63010e-21
      343.493   6.44198e-21
      343.599   6.26324e-21
      343.705   6.09006e-21
      343.810   5.92307e-21
      343.916   5.75922e-21
      344.022   5.59985e-21
      344.128   5.44486e-21
      344.234   5.29403e-21
      344.340   5.14742e-21
      344.446   5.00476e-21
      344.552   4.86604e-21
      344.658   4.73118e-21
      344.764   4.60007e-21
      344.870   4.47246e-21
      344.976   4.34845e-21
      345.082   4.22778e-21
      345.188   4.11052e-21
      345.294   3.99638e-21
      345.401   3.88442e-21
      345.507   3.77655e-21
      345.613   3.67169e-21
      345.719   3.56970e-21
      345.826   3.46961e-21
      345.932   3.37317e-21
      346.039   3.27856e-21
      346.145   3.18741e-21
      346.252   3.09798e-21
      346.358   3.01182e-21
      346.465   2.92732e-21
      346.571   2.84589e-21
      346.678   2.76596e-21
      346.785   2.68826e-21
      346.891   2.61345e-21
      346.998   2.54006e-21
      347.105   2.46871e-21
      347.212   2.39933e-21
      347.319   2.33188e-21
      347.425   2.26690e-21
      347.532   2.20316e-21
      347.639   2.14123e-21
      347.746   2.08101e-21
      347.853   2.02244e-21
      347.960   1.96556e-21
      348.067   1.91027e-21
      348.174   1.85653e-21
      348.281   1.80428e-21
      348.389   1.75304e-21
      348.496   1.70366e-21
      348.603   1.65574e-21
      348.710   1.60912e-21
      348.818   1.56339e-21
      348.925   1.51935e-21
      349.032   1.47656e-21
      349.140   1.43437e-21
      349.247   1.39373e-21
      349.355   1.35389e-21
      349.462   1.31552e-21
      349.570   1.27787e-21
      349.677   1.24165e-21
      349.785   1.20611e-21
      349.892   1.17192e-21
      350.000   1.13838e-21
      350.100   1.10819e-21
      350.193   1.08082e-21
      350.287   1.05382e-21
      350.380   1.02780e-21
      350.473   1.00241e-21
      350.567   9.77363e-22
      350.660   9.53215e-22
      350.754   9.29408e-22
      350.847   9.06447e-22
      350.941   8.83806e-22
      351.034   8.61961e-22
      351.128   8.40423e-22
      351.221   8.19658e-22
      351.315   7.99167e-22
      351.409   7.79186e-22
      351.502   7.59923e-22
      351.596   7.40932e-22
      351.690   7.22397e-22
      351.783   7.04539e-22
      351.877   6.86926e-22
      351.971   6.69746e-22
      352.065   6.52997e-22
      352.159   6.36664e-22
      352.252   6.20908e-22
      352.346   6.05369e-22
      352.440   5.90228e-22
      352.534   5.75471e-22
      352.628   5.61064e-22
      352.722   5.47019e-22
      352.816   5.33331e-22
      352.910   5.19988e-22
      353.004   5.06977e-22
      353.098   4.94280e-22
      353.192   4.81903e-22
      353.287   4.69708e-22
      353.381   4.57940e-22
      353.475   4.46478e-22
      353.569   4.35288e-22
      353.663   4.24388e-22
      353.758   4.13647e-22
      353.852   4.03285e-22
      353.946   3.93178e-22
      354.041   3.83220e-22
      354.135   3.73616e-22
      354.229   3.64247e-22
      354.324   3.55019e-22
      354.418   3.46118e-22
      354.513   3.37344e-22
      354.607   3.28890e-22
      354.702   3.20501e-22
      354.796   3.12213e-22
      354.891   3.04033e-22
      354.985   2.96152e-22
      355.080   2.88393e-22
      355.175   2.80832e-22
      355.269   2.73548e-22
      355.364   2.66374e-22
      355.459   2.59392e-22
      355.553   2.52657e-22
      355.648   2.46031e-22
      355.743   2.39580e-22
      355.838   2.33288e-22
      355.933   2.27169e-22
      356.027   2.21268e-22
      356.122   2.15456e-22
      356.217   2.09798e-22
      356.312   2.04291e-22
      356.407   1.98923e-22
      356.502   1.93697e-22
      356.597   1.88606e-22
      356.692   1.83649e-22
      356.787   1.78822e-22
      356.882   1.74117e-22
      356.977   1.69540e-22
      357.073   1.65034e-22
      357.168   1.60689e-22
      357.263   1.56461e-22
      357.358   1.52342e-22
      357.453   1.48332e-22
      357.549   1.44385e-22
      357.644   1.40583e-22
      357.739   1.36881e-22
      357.835   1.33234e-22
      357.930   1.29722e-22
      358.025   1.26302e-22
      358.121   1.22938e-22
      358.216   1.19695e-22
      358.312   1.16503e-22
      358.407   1.13430e-22
      358.503   1.10404e-22
      358.598   1.07491e-22
      358.694   1.04623e-22
      358.790   1.01830e-22
      358.885   9.91384e-23
      358.981   9.64908e-23
      359.076   9.39413e-23
      359.172   9.14324e-23
      359.268   8.89871e-23
      359.364   8.66076e-23
      359.459   8.43175e-23
      359.555   8.20619e-23
      359.651   7.98659e-23
      359.747   7.77286e-23
      359.843   7.56476e-23
      359.939   7.36215e-23
      360.035   7.16500e-23
      360.131   6.97312e-23
      360.227   6.78608e-23
      360.323   6.60419e-23
      360.419   6.42713e-23
      360.515   6.25478e-23
      360.611   6.08689e-23
      360.707   5.92333e-23
      360.803   5.76442e-23
      360.899   5.60951e-23
      360.995   5.45887e-23
      361.092   5.31063e-23
      361.188   5.16779e-23
      361.284   5.02880e-23
      361.380   4.89352e-23
      361.477   4.76044e-23
      361.573   4.63223e-23
      361.669   4.50749e-23
      361.766   4.38475e-23
      361.862   4.26661e-23
      361.959   4.15042e-23
      362.055   4.03836e-23
      362.152   3.92834e-23
      362.248   3.82231e-23
      362.345   3.71796e-23
      362.441   3.61759e-23
      362.538   3.51885e-23
      362.635   3.42277e-23
      362.731   3.33018e-23
      362.828   3.23915e-23
      362.925   3.15060e-23
      363.021   3.06529e-23
      363.118   2.98145e-23
      363.215   2.89982e-23
      363.312   2.82038e-23
      363.409   2.74315e-23
      363.505   2.66873e-23
      363.602   2.59553e-23
      363.699   2.52436e-23
      363.796   2.45509e-23
      363.893   2.38769e-23
      363.990   2.32212e-23
      364.087   2.25833e-23
      364.184   2.19627e-23
      364.281   2.13586e-23
      364.378   2.07712e-23
      364.475   2.01995e-23
      364.573   1.96377e-23
      364.670   1.90968e-23
      364.767   1.85706e-23
      364.864   1.80585e-23
      364.961   1.75605e-23
      365.059   1.70710e-23
      365.156   1.66000e-23
      365.253   1.61415e-23
      365.351   1.56909e-23
      365.448   1.52572e-23
      365.545   1.48354e-23
      365.643   1.44207e-23
      365.740   1.40214e-23
      365.838   1.36292e-23
      365.935   1.32517e-23
      366.033   1.28808e-23
      366.130   1.25236e-23
      366.228   1.21727e-23
      366.326   1.18315e-23
      366.423   1.15031e-23
      366.521   1.11804e-23
      366.618   1.08695e-23
      366.716   1.05642e-23
      366.814   1.02675e-23
      366.912   9.97903e-24
      367.010   9.69826e-24
      367.107   9.42815e-24
      367.205   9.16265e-24
      367.303   8.90459e-24
      367.401   8.65372e-24
      367.499   8.40970e-24
      367.597   8.17251e-24
      367.695   7.94194e-24
      367.793   7.71780e-24
      367.891   7.49987e-24
      367.989   7.28783e-24
      368.087   7.08183e-24
      368.185   6.88155e-24
      368.283   6.68677e-24
      368.381   6.49735e-24
      368.480   6.31148e-24
      368.578   6.13257e-24
      368.676   5.95873e-24
      368.774   5.78973e-24
      368.873   5.62377e-24
      368.971   5.46408e-24
      369.069   5.30882e-24
      369.168   5.15633e-24
      369.266   5.00969e-24
      369.364   4.86715e-24
      369.463   4.72719e-24
      369.561   4.59257e-24
      369.660   4.46039e-24
      369.758   4.33322e-24
      369.857   4.20841e-24
      369.955   4.08834e-24
      370.054   3.97041e-24
      370.153   3.85584e-24
      370.251   3.74566e-24
      370.350   3.63750e-24
      370.449   3.53244e-24
      370.547   3.43134e-24
      370.646   3.33204e-24
      370.745   3.23566e-24
      370.844   3.14199e-24
      370.943   3.05098e-24
      371.041   2.96346e-24
      371.140   2.87752e-24
      371.239   2.79403e-24
      371.338   2.71295e-24
      371.437   2.63420e-24
      371.536   2.55770e-24
      371.635   2.48333e-24
      371.734   2.41113e-24
      371.833   2.34100e-24
      371.932   2.27287e-24
      372.032   2.20603e-24
      372.131   2.14174e-24
      372.230   2.07934e-24
      372.329   2.01871e-24
      372.428   1.95980e-24
      372.528   1.90204e-24
      372.627   1.84653e-24
      372.726   1.79259e-24
      372.826   1.73969e-24
      372.925   1.68881e-24
      373.024   1.63940e-24
      373.124   1.59092e-24
      373.223   1.54436e-24
      373.323   1.49868e-24
      373.422   1.45475e-24
      373.522   1.41166e-24
      373.621   1.37027e-24
      373.721   1.32966e-24
      373.820   1.29063e-24
      373.920   1.25234e-24
      374.020   1.21515e-24
      374.119   1.17944e-24
      374.219   1.14439e-24
      374.319   1.11040e-24
      374.419   1.07740e-24
      374.518   1.04567e-24
      374.618   1.01455e-24
      374.718   9.84327e-25
      374.818   9.55026e-25
      374.918   9.26587e-25
      375.018   8.98962e-25
      375.118   8.72164e-25
      375.218   8.46135e-25
      375.318   8.20885e-25
      375.418   7.96363e-25
      375.518   7.72587e-25
      375.618   7.49509e-25
      375.718   7.27096e-25
      375.818   7.05353e-25
      375.918   6.84250e-25
      376.019   6.63575e-25
      376.119   6.43703e-25
      376.219   6.24424e-25
      376.319   6.05706e-25
      376.420   5.87375e-25
      376.520   5.69760e-25
      376.620   5.52673e-25
      376.721   5.35920e-25
      376.821   5.19832e-25
      376.922   5.04066e-25
      377.022   4.88917e-25
      377.122   4.74226e-25
      377.223   4.59828e-25
      377.323   4.46001e-25
      377.424   4.32446e-25
      377.525   4.19303e-25
      377.625   4.06678e-25
      377.726   3.94310e-25
      377.827   3.82313e-25
      377.927   3.70787e-25
      378.028   3.59501e-25
      378.129   3.48549e-25
      378.230   3.37925e-25
      378.330   3.27723e-25
      378.431   3.17730e-25
      378.532   3.08045e-25
      378.633   2.98643e-25
      378.734   2.89525e-25
      378.835   2.80686e-25
      378.936   2.72114e-25
      379.037   2.63801e-25
      379.138   2.55737e-25
      379.239   2.47917e-25
      379.340   2.40339e-25
      379.441   2.32988e-25
      379.542   2.25856e-25
      379.643   2.18945e-25
      379.745   2.12176e-25
      379.846   2.05676e-25
      379.947   1.99373e-25
      380.048   1.93265e-25
      380.150   1.87281e-25
      380.251   1.81537e-25
      380.352   1.75970e-25
      380.454   1.70519e-25
      380.555   1.65285e-25
      380.656   1.60210e-25
      380.758   1.55241e-25
      380.859   1.50473e-25
      380.961   1.45806e-25
      381.062   1.41325e-25
      381.164   1.36938e-25
      381.266   1.32686e-25
      381.367   1.28604e-25
      381.469   1.24610e-25
      381.570   1.20776e-25
      381.672   1.17022e-25
      381.774   1.13384e-25
      381.876   1.09857e-25
      381.977   1.06474e-25
      382.079   1.03161e-25
      382.181   9.99504e-26
      382.283   9.68412e-26
      382.385   9.38259e-26
      382.487   9.09023e-26
      382.589   8.80716e-26
      382.691   8.53279e-26
      382.793   8.26694e-26
      382.895   8.00925e-26
      382.997   7.75950e-26
      383.099   7.51751e-26
      383.201   7.28309e-26
      383.303   7.05583e-26
      383.405   6.83563e-26
      383.507   6.62225e-26
      383.610   6.41358e-26
      383.712   6.21326e-26
      383.814   6.01931e-26
      383.916   5.83133e-26
      384.019   5.64737e-26
      384.121   5.47085e-26
      384.223   5.29987e-26
      384.326   5.13263e-26
      384.428   4.97203e-26
      384.531   4.81490e-26
      384.633   4.66417e-26
      384.736   4.51669e-26
      384.838   4.37519e-26
      384.941   4.23681e-26
      385.043   4.10402e-26
      385.146   3.97420e-26
      385.249   3.84845e-26
      385.351   3.72779e-26
      385.454   3.60976e-26
      385.557   3.49551e-26
      385.660   3.38479e-26
      385.762   3.27864e-26
      385.865   3.17478e-26
      385.968   3.07417e-26
      386.071   2.97671e-26
      386.174   2.88236e-26
      386.277   2.79102e-26
      386.380   2.70253e-26
      386.483   2.61682e-26
      386.586   2.53386e-26
      386.689   2.45349e-26
      386.792   2.37564e-26
      386.895   2.30026e-26
      386.998   2.22726e-26
      387.101   2.15659e-26
      387.204   2.08808e-26
      387.308   2.02116e-26
      387.411   1.95696e-26
      387.514   1.89481e-26
      387.617   1.83463e-26
      387.721   1.77580e-26
      387.824   1.71938e-26
      387.927   1.66470e-26
      388.031   1.61128e-26
      388.134   1.56006e-26
      388.238   1.51001e-26
      388.341   1.46198e-26
      388.445   1.41504e-26
      388.548   1.37001e-26
      388.652   1.32602e-26
      388.755   1.28384e-26
      388.859   1.24259e-26
      388.962   1.20305e-26
      389.066   1.16438e-26
      389.170   1.12698e-26
      389.274   1.09075e-26
      389.377   1.05601e-26
      389.481   1.02204e-26
      389.585   9.89178e-27
      389.689   9.57363e-27
      389.793   9.26554e-27
      389.897   8.96757e-27
      390.000   8.68165e-27
      390.104   8.40235e-27
      390.208   8.13182e-27
      390.312   7.87006e-27
      390.416   7.61669e-27
      390.520   7.37127e-27
      390.625   7.13141e-27
      390.729   6.90172e-27
      390.833   6.67924e-27
      390.937   6.46392e-27
      391.041   6.25560e-27
      391.145   6.05396e-27
      391.250   5.85684e-27
      391.354   5.66801e-27
      391.458   5.48521e-27
      391.563   5.30655e-27
      391.667   5.13535e-27
      391.771   4.96967e-27
      391.876   4.80773e-27
      391.980   4.65250e-27
      392.085   4.50088e-27
      392.189   4.35556e-27
      392.294   4.21354e-27
      392.398   4.07746e-27
      392.503   3.94449e-27
      392.607   3.81705e-27
      392.712   3.69257e-27
      392.817   3.57203e-27
      392.921   3.45661e-27
      393.026   3.34378e-27
      393.131   3.23467e-27
      393.236   3.12900e-27
      393.340   3.02780e-27
      393.445   2.92894e-27
      393.550   2.83328e-27
      393.655   2.74070e-27
      393.760   2.65117e-27
      393.865   2.56451e-27
      393.970   2.48074e-27
      394.075   2.39961e-27
      394.180   2.32117e-27
      394.285   2.24526e-27
      394.390   2.17185e-27
      394.495   2.10077e-27
      394.600   2.03204e-27
      394.706   1.96493e-27
      394.811   1.90064e-27
      394.916   1.83838e-27
      395.021   1.77817e-27
      395.126   1.71998e-27
      395.232   1.66309e-27
      395.337   1.60859e-27
      395.443   1.55539e-27
      395.548   1.50442e-27
      395.653   1.45512e-27
      395.759   1.40694e-27
      395.864   1.36082e-27
      395.970   1.31577e-27
      396.075   1.27260e-27
      396.181   1.23044e-27
      396.286   1.19004e-27
      396.392   1.15064e-27
      396.498   1.11251e-27
      396.603   1.07595e-27
      396.709   1.04029e-27
      396.815   1.00579e-27
      396.921   9.72409e-28
      397.026   9.40448e-28
      397.132   9.09224e-28
      397.238   8.79053e-28
      397.344   8.49841e-28
      397.450   8.21646e-28
      397.556   7.94334e-28
      397.662   7.67936e-28
      397.768   7.42424e-28
      397.874   7.17738e-28
      397.980   6.93873e-28
      398.086   6.70786e-28
      398.192   6.48478e-28
      398.298   6.26894e-28
      398.404   6.06026e-28
      398.510   5.85847e-28
      398.617   5.66168e-28
      398.723   5.47309e-28
      398.829   5.29064e-28
      398.935   5.11428e-28
      399.042   4.94227e-28
      399.148   4.77738e-28
      399.255   4.61665e-28
      399.361   4.46263e-28
      399.467   4.31358e-28
      399.574   4.16832e-28
      399.680   4.02909e-28
      399.787   3.89324e-28
      399.893       0.00000
      400.000       0.00000
