Filter Al-med
observation_date 22-Sept-2020 22:45:45
wavelength effective area 
      1.00000   2.66384e-10
      1.10000   7.49523e-10
      1.20000   1.91513e-09
      1.30000   4.48761e-09
      1.40000   9.94635e-09
      1.50000   2.06561e-08
      1.60000   4.05597e-08
      1.70000   7.60794e-08
      1.80000   1.36312e-07
      1.90000   2.34791e-07
      2.00000   3.89503e-07
      2.10000   6.24944e-07
      2.20000   9.74175e-07
      2.30000   1.47329e-06
      2.40000   2.16530e-06
      2.50000   3.08206e-06
      2.60000   4.35717e-06
      2.70000   5.98526e-06
      2.80000   8.02236e-06
      2.90000   1.05760e-05
      3.00000   1.36496e-05
      3.10000   1.72885e-05
      3.20000   2.15273e-05
      3.30000   2.63695e-05
      3.40000   3.17710e-05
      3.50000   3.76811e-05
      3.60000   4.41682e-05
      3.70000   5.09372e-05
      3.80000   5.80826e-05
      3.90000   6.54328e-05
      4.00000   7.27918e-05
      4.10000   8.00676e-05
      4.20000   8.71641e-05
      4.30000   9.39643e-05
      4.40000   0.000100337
      4.50000   0.000106135
      4.60000   0.000111174
      4.70000   0.000115621
      4.80000   0.000119220
      4.90000   0.000120690
      5.00000   0.000124300
      5.10000   0.000125599
      5.20000   0.000126175
      5.30000   0.000125052
      5.40000   0.000122733
      5.50000   0.000119904
      5.60000   0.000112858
      5.70000   0.000111191
      5.80000   9.77903e-05
      5.90000   0.000111582
      6.00000   0.000111454
      6.10000   0.000105198
      6.20000   9.55885e-05
      6.30000   8.25842e-05
      6.40000   6.78657e-05
      6.50000   5.31617e-05
      6.60000   3.94655e-05
      6.70000   2.87512e-05
      6.80000   2.03465e-05
      6.90000   1.86995e-05
      7.00000   1.41879e-05
      7.10000   1.04030e-05
      7.20000   7.48467e-06
      7.30000   5.33705e-06
      7.40000   3.77873e-06
      7.50000   2.63213e-06
      7.60000   1.80119e-06
      7.70000   1.22825e-06
      7.80000   8.19322e-07
      7.90000   5.41332e-07
      8.00000      0.298780
      8.10000      0.315078
      8.20000      0.308048
      8.30000      0.299548
      8.40000      0.290491
      8.50000      0.281157
      8.60000      0.271505
      8.70000      0.261689
      8.80000      0.251683
      8.90000      0.241592
      9.00000      0.231470
      9.10000      0.221362
      9.20000      0.211311
      9.30000      0.201396
      9.40000      0.191614
      9.50000      0.181990
      9.60000      0.172606
      9.70000      0.163434
      9.80000      0.154459
      9.90000      0.145739
      10.0000      0.137276
      10.1000      0.129069
      10.2000      0.121133
      10.3000      0.113524
      10.4000      0.106247
      10.5000     0.0992767
      10.6000     0.0926165
      10.7000     0.0862660
      10.8000     0.0802373
      10.9000     0.0745410
      11.0000     0.0691414
      11.1000     0.0640344
      11.2000     0.0592126
      11.3000     0.0546707
      11.4000     0.0503993
      11.5000     0.0463888
      11.6000     0.0426309
      11.7000     0.0391297
      11.8000     0.0358654
      11.9000     0.0328507
      12.0000     0.0300290
      12.1000     0.0275238
      12.2000     0.0256546
      12.3000     0.0236042
      12.4000     0.0215128
      12.5000     0.0195633
      12.6000     0.0177579
      12.7000     0.0160917
      12.8000     0.0145586
      12.9000     0.0131518
      13.0000     0.0118633
      13.1000     0.0106848
      13.2000    0.00960891
      13.3000    0.00862814
      13.4000    0.00773580
      13.5000    0.00692732
      13.6000    0.00620112
      13.7000    0.00554311
      13.8000    0.00494757
      13.9000    0.00440946
      14.0000    0.00392383
      14.1000    0.00348600
      14.2000    0.00309180
      14.3000    0.00273742
      14.4000    0.00241934
      14.5000    0.00213623
      14.6000    0.00188584
      14.7000    0.00166181
      14.8000    0.00146159
      14.9000    0.00128288
      15.0000    0.00112362
      15.1000   0.000981939
      15.2000   0.000859053
      15.3000   0.000750416
      15.4000   0.000654000
      15.5000   0.000568579
      15.6000   0.000493063
      15.7000   0.000427510
      15.8000   0.000370971
      15.9000   0.000321106
      16.0000   0.000277217
      16.1000   0.000238681
      16.2000   0.000206059
      16.3000   0.000177700
      16.4000   0.000152741
      16.5000   0.000130834
      16.6000   0.000112110
      16.7000   9.61853e-05
      16.8000   8.21890e-05
      16.9000   6.99329e-05
      17.0000   5.95656e-05
      17.1000   5.07932e-05
      17.2000   4.31009e-05
      17.3000   3.63943e-05
      17.4000   3.09470e-05
      17.5000   2.63015e-05
      17.6000   2.22732e-05
      17.7000   1.88725e-05
      17.8000   1.61322e-05
      17.9000   1.37144e-05
      18.0000   1.15842e-05
      18.1000   9.85082e-06
      18.2000   8.31940e-06
      18.3000   6.96051e-06
      18.4000   5.82811e-06
      18.5000   4.85664e-06
      18.6000   3.99838e-06
      18.7000   3.28660e-06
      18.8000   2.70096e-06
      18.9000   2.19461e-06
      19.0000   1.79331e-06
      19.1000   1.46595e-06
      19.2000   1.18422e-06
      19.3000   9.67393e-07
      19.4000   7.88253e-07
      19.5000   6.34350e-07
      19.6000   5.20159e-07
      19.7000   4.22575e-07
      19.8000   3.39707e-07
      19.9000   2.78831e-07
      20.0000   2.25166e-07
      20.1000   1.81886e-07
      20.2000   1.47886e-07
      20.3000   1.18139e-07
      20.4000   9.58540e-08
      20.5000   7.70058e-08
      20.6000   6.12189e-08
      20.7000   4.95618e-08
      20.8000   3.92443e-08
      20.9000   3.14689e-08
      21.0000   2.50673e-08
      21.1000   1.96974e-08
      21.2000   1.58202e-08
      21.3000   1.23702e-08
      21.4000   9.85755e-09
      21.5000   7.75206e-09
      21.6000   6.05855e-09
      21.7000   4.80043e-09
      21.8000   3.68800e-09
      21.9000   2.93897e-09
      22.0000   2.26768e-09
      22.1000   1.77552e-09
      22.2000   1.37438e-09
      22.3000   1.05230e-09
      22.4000   8.07762e-10
      22.5000   5.88586e-10
      22.6000   4.22372e-10
      22.7000   2.85015e-10
      22.8000   2.73525e-10
      22.9000   2.70255e-10
      23.0000   2.74247e-10
      23.1000   2.54905e-10
      23.2000   2.14207e-10
      23.3000   1.74454e-10
      23.4000   1.35267e-10
      23.5000   1.07218e-10
      23.6000   8.19543e-11
      23.7000   6.50601e-11
      23.8000   4.91019e-11
      23.9000   3.89780e-11
      24.0000   2.93872e-11
      24.1000   2.31353e-11
      24.2000   1.74073e-11
      24.3000   1.36138e-11
      24.4000   1.02363e-11
      24.5000   7.96325e-12
      24.6000   5.98445e-12
      24.7000   4.63408e-12
      24.8000   3.47938e-12
      24.9000   2.68981e-12
      25.0000   2.01904e-12
      25.1000   1.55634e-12
      25.2000   1.16442e-12
      25.3000   8.97047e-13
      25.4000   6.68826e-13
      25.5000   5.14730e-13
      25.6000   3.81406e-13
      25.7000   2.93645e-13
      25.8000   2.16003e-13
      25.9000   1.66503e-13
      26.0000   1.21377e-13
      26.1000   9.37808e-14
      26.2000   6.76552e-14
      26.3000   5.24489e-14
      26.4000   3.73910e-14
      26.5000   2.91109e-14
      26.6000   2.08742e-14
      26.7000   1.60263e-14
      26.8000   1.15998e-14
      26.9000   8.74886e-15
      27.0000   6.39887e-15
      27.1000   4.73170e-15
      27.2000   3.49916e-15
      27.3000   2.53591e-15
      27.4000   1.90641e-15
      27.5000   1.35704e-15
      27.6000   1.02997e-15
      27.7000   7.13601e-16
      27.8000   5.48090e-16
      27.9000   3.83445e-16
      28.0000   2.88048e-16
      28.1000   2.06460e-16
      28.2000   1.50140e-16
      28.3000   1.10698e-16
      28.4000   7.82656e-17
      28.5000   5.89682e-17
      28.6000   4.04755e-17
      28.7000   3.14114e-17
      28.8000   2.23957e-17
      28.9000   1.68815e-17
      29.0000   1.23804e-17
      29.1000   8.95218e-18
      29.2000   6.73370e-18
      29.3000   4.68240e-18
      29.4000   3.60293e-18
      29.5000   2.52935e-18
      29.6000   1.89613e-18
      29.7000   1.38068e-18
      29.8000   9.81393e-19
      29.9000   7.37239e-19
      30.0000   4.99494e-19
      30.1000   3.85418e-19
      30.2000   2.71967e-19
      30.3000   1.99211e-19
      30.4000   1.49792e-19
      30.5000   1.05657e-19
      30.6000   8.03798e-20
      30.7000   5.52424e-20
      30.8000   4.07438e-20
      30.9000   2.94789e-20
      31.0000   2.01696e-20
      31.1000   1.51953e-20
      31.2000   1.02486e-20
      31.3000   7.59743e-21
      31.4000   5.44588e-21
      31.5000   3.69505e-21
      31.6000   2.77342e-21
      31.7000   1.85697e-21
      31.8000   1.36285e-21
      31.9000   9.76308e-22
      32.0000   6.48945e-22
      32.1000   4.88454e-22
      32.2000   3.28867e-22
      32.3000   2.34699e-22
      32.4000   1.69525e-22
      32.5000   1.08937e-22
      32.6000   8.27661e-23
      32.7000   5.67407e-23
      32.8000   3.87032e-23
      32.9000   2.84144e-23
      33.0000   1.81838e-23
      33.1000   1.34473e-23
      33.2000   9.47281e-24
      33.3000   6.08731e-24
      33.4000   4.56801e-24
      33.5000   3.05707e-24
      33.6000   2.08230e-24
      33.7000   1.51481e-24
      33.8000   9.50382e-25
      33.9000   6.98045e-25
      34.0000   4.89783e-25
      34.1000   3.04528e-25
      34.2000   2.28043e-25
      34.3000   1.51947e-25
      34.4000   9.76737e-26
      34.5000   7.13296e-26
      34.6000   4.51218e-26
      34.7000   3.04694e-26
      34.8000   2.12024e-26
      34.9000   1.19828e-26
      35.0000   8.56799e-27
      35.1000   5.76570e-27
      35.2000   3.18795e-27
      35.3000   2.35664e-27
      35.4000   1.52959e-27
      35.5000   8.73761e-28
      35.6000   6.34392e-28
      35.7000   3.96255e-28
      35.8000   2.34438e-28
      35.9000   1.67235e-28
      36.0000   1.00379e-28
      36.1000   6.15948e-29
      36.2000   4.32063e-29
      36.3000   2.49127e-29
      36.4000   1.58496e-29
      36.5000   1.09477e-29
      36.6000   6.07157e-30
      36.7000   3.99398e-30
      36.8000   2.72244e-30
      36.9000   1.45760e-30
      37.0000   9.86024e-31
      37.1000   6.65100e-31
      37.2000   3.45843e-31
      37.3000   2.38489e-31
      37.4000   1.59711e-31
      37.5000   8.13504e-32
      37.6000   5.65025e-32
      37.7000   3.77105e-32
      37.8000   1.90180e-32
      37.9000   1.31099e-32
      38.0000   8.75469e-33
      38.1000   4.42238e-33
      38.2000   2.97691e-33
      38.3000   1.99690e-33
      38.4000   1.02206e-33
      38.5000   6.60906e-34
      38.6000   4.47017e-34
      38.7000   2.34260e-34
      38.8000   1.43350e-34
      38.9000   9.80869e-35
      39.0000   5.30622e-35
      39.1000   3.03428e-35
      39.2000   2.10610e-35
      39.3000   1.18281e-35
      39.4000   6.25973e-36
      39.5000   4.41643e-36
      39.6000   2.58302e-36
      39.7000   1.25691e-36
      39.8000   9.02690e-37
      39.9000   5.50342e-37
      40.0000   2.45314e-37
      40.1000   1.79476e-37
      40.2000   1.13988e-37
      40.3000   4.88562e-38
      40.4000   3.46439e-38
      40.5000   2.28802e-38
      40.6000   1.11787e-38
      40.7000   6.48006e-39
      40.8000   4.43879e-39
      40.9000   2.40858e-39
      41.0000   1.17216e-39
      41.1000   8.30447e-40
      41.2000   4.90596e-40
      41.3000   2.04777e-40
      41.4000   1.49624e-40
      41.5000   9.47558e-41
      41.6000   4.01836e-41
      41.7000   2.59296e-41
      41.8000   1.73901e-41
      41.9000   8.89825e-42
      42.0000   4.32020e-42
      42.1000   3.03802e-42
      42.2000   1.76423e-42
      42.3000   6.86636e-43
      42.4000   5.04467e-43
      42.5000   3.22299e-43
      42.6000   1.40130e-43
      42.7000   7.98740e-44
      42.8000   5.04467e-44
      42.9000   2.94273e-44
      43.0000   1.26117e-44
      43.1000   9.80909e-45
      43.2000   7.00649e-45
      43.3000       0.00000
      43.4000   2.80260e-45
      43.5000   2.80260e-45
      43.6000   2.80260e-45
      43.7000       0.00000
      43.8000       0.00000
      43.9000       0.00000
      44.0000       0.00000
      44.1000       0.00000
      44.2000       0.00000
      44.3000       0.00000
      44.4000       0.00000
      44.5000       0.00000
      44.6000       0.00000
      44.7000       0.00000
      44.8000       0.00000
      44.9000       0.00000
      45.0000       0.00000
      45.1000       0.00000
      45.2000       0.00000
      45.3000       0.00000
      45.4000       0.00000
      45.5000       0.00000
      45.6000       0.00000
      45.7000       0.00000
      45.8000       0.00000
      45.9000       0.00000
      46.0000       0.00000
      46.1000       0.00000
      46.2000       0.00000
      46.3000       0.00000
      46.4000       0.00000
      46.5000       0.00000
      46.6000       0.00000
      46.7000       0.00000
      46.8000       0.00000
      46.9000       0.00000
      47.0000       0.00000
      47.1000       0.00000
      47.2000       0.00000
      47.3000       0.00000
      47.4000       0.00000
      47.5000       0.00000
      47.6000       0.00000
      47.7000       0.00000
      47.8000       0.00000
      47.9000       0.00000
      48.0000       0.00000
      48.1000       0.00000
      48.2000       0.00000
      48.3000       0.00000
      48.4000       0.00000
      48.5000       0.00000
      48.6000       0.00000
      48.7000       0.00000
      48.8000       0.00000
      48.9000       0.00000
      49.0000       0.00000
      49.1000       0.00000
      49.2000       0.00000
      49.3000       0.00000
      49.4000       0.00000
      49.5000       0.00000
      49.6000       0.00000
      49.7000       0.00000
      49.8000       0.00000
      49.9000       0.00000
      50.0000       0.00000
      50.1000       0.00000
      50.2000       0.00000
      50.3000       0.00000
      50.4000       0.00000
      50.5000       0.00000
      50.6000       0.00000
      50.7000       0.00000
      50.8000       0.00000
      50.9000       0.00000
      51.0000       0.00000
      51.1000       0.00000
      51.2000       0.00000
      51.3000       0.00000
      51.4000       0.00000
      51.5000       0.00000
      51.6000       0.00000
      51.7000       0.00000
      51.8000       0.00000
      51.9000       0.00000
      52.0000       0.00000
      52.1000       0.00000
      52.2000       0.00000
      52.3000       0.00000
      52.4000       0.00000
      52.5000       0.00000
      52.6000       0.00000
      52.7000       0.00000
      52.8000       0.00000
      52.9000       0.00000
      53.0000       0.00000
      53.1000       0.00000
      53.2000       0.00000
      53.3000       0.00000
      53.4000       0.00000
      53.5000       0.00000
      53.6000       0.00000
      53.7000       0.00000
      53.8000       0.00000
      53.9000       0.00000
      54.0000       0.00000
      54.1000       0.00000
      54.2000       0.00000
      54.3000       0.00000
      54.4000       0.00000
      54.5000       0.00000
      54.6000       0.00000
      54.7000       0.00000
      54.8000       0.00000
      54.9000       0.00000
      55.0000       0.00000
      55.1000       0.00000
      55.2000       0.00000
      55.3000       0.00000
      55.4000       0.00000
      55.5000       0.00000
      55.6000       0.00000
      55.7000       0.00000
      55.8000       0.00000
      55.9000       0.00000
      56.0000       0.00000
      56.1000       0.00000
      56.2000       0.00000
      56.3000       0.00000
      56.4000       0.00000
      56.5000       0.00000
      56.6000       0.00000
      56.7000       0.00000
      56.8000       0.00000
      56.9000       0.00000
      57.0000       0.00000
      57.1000       0.00000
      57.2000       0.00000
      57.3000       0.00000
      57.4000       0.00000
      57.5000       0.00000
      57.6000       0.00000
      57.7000       0.00000
      57.8000       0.00000
      57.9000       0.00000
      58.0000       0.00000
      58.1000       0.00000
      58.2000       0.00000
      58.3000       0.00000
      58.4000       0.00000
      58.5000       0.00000
      58.6000       0.00000
      58.7000       0.00000
      58.8000       0.00000
      58.9000       0.00000
      59.0000       0.00000
      59.1000       0.00000
      59.2000       0.00000
      59.3000       0.00000
      59.4000       0.00000
      59.5000       0.00000
      59.6000       0.00000
      59.7000       0.00000
      59.8000       0.00000
      59.9000       0.00000
      60.0000       0.00000
      60.1000       0.00000
      60.2000       0.00000
      60.3000       0.00000
      60.4000       0.00000
      60.5000       0.00000
      60.6000       0.00000
      60.7000       0.00000
      60.8000       0.00000
      60.9000       0.00000
      61.0000       0.00000
      61.1000       0.00000
      61.2000       0.00000
      61.3000       0.00000
      61.4000       0.00000
      61.5000       0.00000
      61.6000       0.00000
      61.7000       0.00000
      61.8000       0.00000
      61.9000       0.00000
      62.0000       0.00000
      62.1000       0.00000
      62.2000       0.00000
      62.3000       0.00000
      62.4000       0.00000
      62.5000       0.00000
      62.6000       0.00000
      62.7000       0.00000
      62.8000       0.00000
      62.9000       0.00000
      63.0000       0.00000
      63.1000       0.00000
      63.2000       0.00000
      63.3000       0.00000
      63.4000       0.00000
      63.5000       0.00000
      63.6000       0.00000
      63.7000       0.00000
      63.8000       0.00000
      63.9000       0.00000
      64.0000       0.00000
      64.1000       0.00000
      64.2000       0.00000
      64.3000       0.00000
      64.4000       0.00000
      64.5000       0.00000
      64.6000       0.00000
      64.7000       0.00000
      64.8000       0.00000
      64.9000       0.00000
      65.0000       0.00000
      65.1000       0.00000
      65.2000       0.00000
      65.3000       0.00000
      65.4000       0.00000
      65.5000       0.00000
      65.6000       0.00000
      65.7000       0.00000
      65.8000       0.00000
      65.9000       0.00000
      66.0000       0.00000
      66.1000       0.00000
      66.2000       0.00000
      66.3000       0.00000
      66.4000       0.00000
      66.5000       0.00000
      66.6000       0.00000
      66.7000       0.00000
      66.8000       0.00000
      66.9000       0.00000
      67.0000       0.00000
      67.1000       0.00000
      67.2000       0.00000
      67.3000       0.00000
      67.4000       0.00000
      67.5000       0.00000
      67.6000       0.00000
      67.7000       0.00000
      67.8000       0.00000
      67.9000       0.00000
      68.0000       0.00000
      68.1000       0.00000
      68.2000       0.00000
      68.3000       0.00000
      68.4000       0.00000
      68.5000       0.00000
      68.6000       0.00000
      68.7000       0.00000
      68.8000       0.00000
      68.9000       0.00000
      69.0000       0.00000
      69.1000       0.00000
      69.2000       0.00000
      69.3000       0.00000
      69.4000       0.00000
      69.5000       0.00000
      69.6000       0.00000
      69.7000       0.00000
      69.8000       0.00000
      69.9000       0.00000
      70.0000       0.00000
      70.1000       0.00000
      70.2000       0.00000
      70.3000       0.00000
      70.4000       0.00000
      70.5000       0.00000
      70.6000       0.00000
      70.7000       0.00000
      70.8000       0.00000
      70.9000       0.00000
      71.0000       0.00000
      71.1000       0.00000
      71.2000       0.00000
      71.3000       0.00000
      71.4000       0.00000
      71.5000       0.00000
      71.6000       0.00000
      71.7000       0.00000
      71.8000       0.00000
      71.9000       0.00000
      72.0000       0.00000
      72.1000       0.00000
      72.2000       0.00000
      72.3000       0.00000
      72.4000       0.00000
      72.5000       0.00000
      72.6000       0.00000
      72.7000       0.00000
      72.8000       0.00000
      72.9000       0.00000
      73.0000       0.00000
      73.1000       0.00000
      73.2000       0.00000
      73.3000       0.00000
      73.4000       0.00000
      73.5000       0.00000
      73.6000       0.00000
      73.7000       0.00000
      73.8000       0.00000
      73.9000       0.00000
      74.0000       0.00000
      74.1000       0.00000
      74.2000       0.00000
      74.3000       0.00000
      74.4000       0.00000
      74.5000       0.00000
      74.6000       0.00000
      74.7000       0.00000
      74.8000       0.00000
      74.9000       0.00000
      75.0000       0.00000
      75.1000       0.00000
      75.2000       0.00000
      75.3000       0.00000
      75.4000       0.00000
      75.5000       0.00000
      75.6000       0.00000
      75.7000       0.00000
      75.8000       0.00000
      75.9000       0.00000
      76.0000       0.00000
      76.1000       0.00000
      76.2000       0.00000
      76.3000       0.00000
      76.4000       0.00000
      76.5000       0.00000
      76.6000       0.00000
      76.7000       0.00000
      76.8000       0.00000
      76.9000       0.00000
      77.0000       0.00000
      77.1000       0.00000
      77.2000       0.00000
      77.3000       0.00000
      77.4000       0.00000
      77.5000       0.00000
      77.6000       0.00000
      77.7000       0.00000
      77.8000       0.00000
      77.9000       0.00000
      78.0000       0.00000
      78.1000       0.00000
      78.2000       0.00000
      78.3000       0.00000
      78.4000       0.00000
      78.5000       0.00000
      78.6000       0.00000
      78.7000       0.00000
      78.8000       0.00000
      78.9000       0.00000
      79.0000       0.00000
      79.1000       0.00000
      79.2000       0.00000
      79.3000       0.00000
      79.4000       0.00000
      79.5000       0.00000
      79.6000       0.00000
      79.7000       0.00000
      79.8000       0.00000
      79.9000       0.00000
      80.0000       0.00000
      80.1000       0.00000
      80.2000       0.00000
      80.3000       0.00000
      80.4000       0.00000
      80.5000       0.00000
      80.6000       0.00000
      80.7000       0.00000
      80.8000       0.00000
      80.9000       0.00000
      81.0000       0.00000
      81.1000       0.00000
      81.2000       0.00000
      81.3000       0.00000
      81.4000       0.00000
      81.5000       0.00000
      81.6000       0.00000
      81.7000       0.00000
      81.8000       0.00000
      81.9000       0.00000
      82.0000       0.00000
      82.1000       0.00000
      82.2000       0.00000
      82.3000       0.00000
      82.4000       0.00000
      82.5000       0.00000
      82.6000       0.00000
      82.7000       0.00000
      82.8000       0.00000
      82.9000       0.00000
      83.0000       0.00000
      83.1000       0.00000
      83.2000       0.00000
      83.3000       0.00000
      83.4000       0.00000
      83.5000       0.00000
      83.6000       0.00000
      83.7000       0.00000
      83.8000       0.00000
      83.9000       0.00000
      84.0000       0.00000
      84.1000       0.00000
      84.2000       0.00000
      84.3000       0.00000
      84.4000       0.00000
      84.5000       0.00000
      84.6000       0.00000
      84.7000       0.00000
      84.8000       0.00000
      84.9000       0.00000
      85.0000       0.00000
      85.1000       0.00000
      85.2000       0.00000
      85.3000       0.00000
      85.4000       0.00000
      85.5000       0.00000
      85.6000       0.00000
      85.7000       0.00000
      85.8000       0.00000
      85.9000       0.00000
      86.0000       0.00000
      86.1000       0.00000
      86.2000       0.00000
      86.3000       0.00000
      86.4000       0.00000
      86.5000       0.00000
      86.6000       0.00000
      86.7000       0.00000
      86.8000       0.00000
      86.9000       0.00000
      87.0000       0.00000
      87.1000       0.00000
      87.2000       0.00000
      87.3000       0.00000
      87.4000       0.00000
      87.5000       0.00000
      87.6000       0.00000
      87.7000       0.00000
      87.8000       0.00000
      87.9000       0.00000
      88.0000       0.00000
      88.1000       0.00000
      88.2000       0.00000
      88.3000       0.00000
      88.4000       0.00000
      88.5000       0.00000
      88.6000       0.00000
      88.7000       0.00000
      88.8000       0.00000
      88.9000       0.00000
      89.0000       0.00000
      89.1000       0.00000
      89.2000       0.00000
      89.3000       0.00000
      89.4000       0.00000
      89.5000       0.00000
      89.6000       0.00000
      89.7000       0.00000
      89.8000       0.00000
      89.9000       0.00000
      90.0000       0.00000
      90.1000       0.00000
      90.2000       0.00000
      90.3000       0.00000
      90.4000       0.00000
      90.5000       0.00000
      90.6000       0.00000
      90.7000       0.00000
      90.8000       0.00000
      90.9000       0.00000
      91.0000       0.00000
      91.1000       0.00000
      91.2000       0.00000
      91.3000       0.00000
      91.4000       0.00000
      91.5000       0.00000
      91.6000       0.00000
      91.7000       0.00000
      91.8000       0.00000
      91.9000       0.00000
      92.0000       0.00000
      92.1000       0.00000
      92.2000       0.00000
      92.3000       0.00000
      92.4000       0.00000
      92.5000       0.00000
      92.6000       0.00000
      92.7000       0.00000
      92.8000       0.00000
      92.9000       0.00000
      93.0000       0.00000
      93.1000       0.00000
      93.2000       0.00000
      93.3000       0.00000
      93.4000       0.00000
      93.5000       0.00000
      93.6000       0.00000
      93.7000       0.00000
      93.8000       0.00000
      93.9000       0.00000
      94.0000       0.00000
      94.1000       0.00000
      94.2000       0.00000
      94.3000       0.00000
      94.4000       0.00000
      94.5000       0.00000
      94.6000       0.00000
      94.7000       0.00000
      94.8000       0.00000
      94.9000       0.00000
      95.0000       0.00000
      95.1000       0.00000
      95.2000       0.00000
      95.3000       0.00000
      95.4000       0.00000
      95.5000       0.00000
      95.6000       0.00000
      95.7000       0.00000
      95.8000       0.00000
      95.9000       0.00000
      96.0000       0.00000
      96.1000       0.00000
      96.2000       0.00000
      96.3000       0.00000
      96.4000       0.00000
      96.5000       0.00000
      96.6000       0.00000
      96.7000       0.00000
      96.8000       0.00000
      96.9000       0.00000
      97.0000       0.00000
      97.1000       0.00000
      97.2000       0.00000
      97.3000       0.00000
      97.4000       0.00000
      97.5000       0.00000
      97.6000       0.00000
      97.7000       0.00000
      97.8000       0.00000
      97.9000       0.00000
      98.0000       0.00000
      98.1000       0.00000
      98.2000       0.00000
      98.3000       0.00000
      98.4000       0.00000
      98.5000       0.00000
      98.6000       0.00000
      98.7000       0.00000
      98.8000       0.00000
      98.9000       0.00000
      99.0000       0.00000
      99.1000       0.00000
      99.2000       0.00000
      99.3000       0.00000
      99.4000       0.00000
      99.5000       0.00000
      99.6000       0.00000
      99.7000       0.00000
      99.8000       0.00000
      99.9000       0.00000
      100.000       0.00000
      100.100       0.00000
      100.200       0.00000
      100.300       0.00000
      100.400       0.00000
      100.500       0.00000
      100.600       0.00000
      100.700       0.00000
      100.800       0.00000
      100.900       0.00000
      101.000       0.00000
      101.100       0.00000
      101.200       0.00000
      101.300       0.00000
      101.400       0.00000
      101.500       0.00000
      101.600       0.00000
      101.700       0.00000
      101.800       0.00000
      101.900       0.00000
      102.000       0.00000
      102.100       0.00000
      102.200       0.00000
      102.300       0.00000
      102.400       0.00000
      102.500       0.00000
      102.600       0.00000
      102.700       0.00000
      102.800       0.00000
      102.900       0.00000
      103.000       0.00000
      103.100       0.00000
      103.200       0.00000
      103.300       0.00000
      103.400       0.00000
      103.500       0.00000
      103.600       0.00000
      103.700       0.00000
      103.800       0.00000
      103.900       0.00000
      104.000       0.00000
      104.100       0.00000
      104.200       0.00000
      104.300       0.00000
      104.400       0.00000
      104.500       0.00000
      104.600       0.00000
      104.700       0.00000
      104.800       0.00000
      104.900       0.00000
      105.000       0.00000
      105.100       0.00000
      105.200       0.00000
      105.300       0.00000
      105.400       0.00000
      105.500       0.00000
      105.600       0.00000
      105.700       0.00000
      105.800       0.00000
      105.900       0.00000
      106.000       0.00000
      106.100       0.00000
      106.200       0.00000
      106.300       0.00000
      106.400       0.00000
      106.500       0.00000
      106.600       0.00000
      106.700       0.00000
      106.800       0.00000
      106.900       0.00000
      107.000       0.00000
      107.100       0.00000
      107.200       0.00000
      107.300       0.00000
      107.400       0.00000
      107.500       0.00000
      107.600       0.00000
      107.700       0.00000
      107.800       0.00000
      107.900       0.00000
      108.000       0.00000
      108.100       0.00000
      108.200       0.00000
      108.300       0.00000
      108.400       0.00000
      108.500       0.00000
      108.600       0.00000
      108.700       0.00000
      108.800       0.00000
      108.900       0.00000
      109.000       0.00000
      109.100       0.00000
      109.200       0.00000
      109.300       0.00000
      109.400       0.00000
      109.500       0.00000
      109.600       0.00000
      109.700       0.00000
      109.800       0.00000
      109.900       0.00000
      110.000       0.00000
      110.100       0.00000
      110.200       0.00000
      110.300       0.00000
      110.400       0.00000
      110.500       0.00000
      110.600       0.00000
      110.700       0.00000
      110.800       0.00000
      110.900       0.00000
      111.000       0.00000
      111.100       0.00000
      111.200       0.00000
      111.300       0.00000
      111.400       0.00000
      111.500       0.00000
      111.600       0.00000
      111.700       0.00000
      111.800       0.00000
      111.900       0.00000
      112.000       0.00000
      112.100       0.00000
      112.200       0.00000
      112.300       0.00000
      112.400       0.00000
      112.500       0.00000
      112.600       0.00000
      112.700       0.00000
      112.800       0.00000
      112.900       0.00000
      113.000       0.00000
      113.100       0.00000
      113.200       0.00000
      113.300       0.00000
      113.400       0.00000
      113.500       0.00000
      113.600       0.00000
      113.700       0.00000
      113.800       0.00000
      113.900       0.00000
      114.000       0.00000
      114.100       0.00000
      114.200       0.00000
      114.300       0.00000
      114.400       0.00000
      114.500       0.00000
      114.600       0.00000
      114.700       0.00000
      114.800       0.00000
      114.900       0.00000
      115.000       0.00000
      115.100       0.00000
      115.200       0.00000
      115.300       0.00000
      115.400       0.00000
      115.500       0.00000
      115.600       0.00000
      115.700       0.00000
      115.800       0.00000
      115.900       0.00000
      116.000       0.00000
      116.100       0.00000
      116.200       0.00000
      116.300       0.00000
      116.400       0.00000
      116.500       0.00000
      116.600       0.00000
      116.700       0.00000
      116.800       0.00000
      116.900       0.00000
      117.000       0.00000
      117.100       0.00000
      117.200       0.00000
      117.300       0.00000
      117.400       0.00000
      117.500       0.00000
      117.600       0.00000
      117.700       0.00000
      117.800       0.00000
      117.900       0.00000
      118.000       0.00000
      118.100       0.00000
      118.200       0.00000
      118.300       0.00000
      118.400       0.00000
      118.500       0.00000
      118.600       0.00000
      118.700       0.00000
      118.800       0.00000
      118.900       0.00000
      119.000       0.00000
      119.100       0.00000
      119.200       0.00000
      119.300       0.00000
      119.400       0.00000
      119.500       0.00000
      119.600       0.00000
      119.700       0.00000
      119.800       0.00000
      119.900       0.00000
      120.000       0.00000
      120.100       0.00000
      120.200       0.00000
      120.300       0.00000
      120.400       0.00000
      120.500       0.00000
      120.600       0.00000
      120.700       0.00000
      120.800       0.00000
      120.900       0.00000
      121.000       0.00000
      121.100       0.00000
      121.200       0.00000
      121.300       0.00000
      121.400       0.00000
      121.500       0.00000
      121.600       0.00000
      121.700       0.00000
      121.800       0.00000
      121.900       0.00000
      122.000       0.00000
      122.100       0.00000
      122.200       0.00000
      122.300       0.00000
      122.400       0.00000
      122.500       0.00000
      122.600       0.00000
      122.700       0.00000
      122.800       0.00000
      122.900       0.00000
      123.000       0.00000
      123.100       0.00000
      123.200       0.00000
      123.300       0.00000
      123.400       0.00000
      123.500       0.00000
      123.600       0.00000
      123.700       0.00000
      123.800       0.00000
      123.900       0.00000
      124.000       0.00000
      124.100       0.00000
      124.200       0.00000
      124.300       0.00000
      124.400       0.00000
      124.500       0.00000
      124.600       0.00000
      124.700       0.00000
      124.800       0.00000
      124.900       0.00000
      125.000       0.00000
      125.100       0.00000
      125.200       0.00000
      125.300       0.00000
      125.400       0.00000
      125.500       0.00000
      125.600       0.00000
      125.700       0.00000
      125.800       0.00000
      125.900       0.00000
      126.000       0.00000
      126.100       0.00000
      126.200       0.00000
      126.300       0.00000
      126.400       0.00000
      126.500       0.00000
      126.600       0.00000
      126.700       0.00000
      126.800       0.00000
      126.900       0.00000
      127.000       0.00000
      127.100       0.00000
      127.200       0.00000
      127.300       0.00000
      127.400       0.00000
      127.500       0.00000
      127.600       0.00000
      127.700       0.00000
      127.800       0.00000
      127.900       0.00000
      128.000       0.00000
      128.100       0.00000
      128.200       0.00000
      128.300       0.00000
      128.400       0.00000
      128.500       0.00000
      128.600       0.00000
      128.700       0.00000
      128.800       0.00000
      128.900       0.00000
      129.000       0.00000
      129.100       0.00000
      129.200       0.00000
      129.300       0.00000
      129.400       0.00000
      129.500       0.00000
      129.600       0.00000
      129.700       0.00000
      129.800       0.00000
      129.900       0.00000
      130.000       0.00000
      130.100       0.00000
      130.200       0.00000
      130.300       0.00000
      130.400       0.00000
      130.500       0.00000
      130.600       0.00000
      130.700       0.00000
      130.800       0.00000
      130.900       0.00000
      131.000       0.00000
      131.100       0.00000
      131.200       0.00000
      131.300       0.00000
      131.400       0.00000
      131.500       0.00000
      131.600       0.00000
      131.700       0.00000
      131.800       0.00000
      131.900       0.00000
      132.000       0.00000
      132.100       0.00000
      132.200       0.00000
      132.300       0.00000
      132.400       0.00000
      132.500       0.00000
      132.600       0.00000
      132.700       0.00000
      132.800       0.00000
      132.900       0.00000
      133.000       0.00000
      133.100       0.00000
      133.200       0.00000
      133.300       0.00000
      133.400       0.00000
      133.500       0.00000
      133.600       0.00000
      133.700       0.00000
      133.800       0.00000
      133.900       0.00000
      134.000       0.00000
      134.100       0.00000
      134.200       0.00000
      134.300       0.00000
      134.400       0.00000
      134.500       0.00000
      134.600       0.00000
      134.700       0.00000
      134.800       0.00000
      134.900       0.00000
      135.000       0.00000
      135.100       0.00000
      135.200       0.00000
      135.300       0.00000
      135.400       0.00000
      135.500       0.00000
      135.600       0.00000
      135.700       0.00000
      135.800       0.00000
      135.900       0.00000
      136.000       0.00000
      136.100       0.00000
      136.200       0.00000
      136.300       0.00000
      136.400       0.00000
      136.500       0.00000
      136.600       0.00000
      136.700       0.00000
      136.800       0.00000
      136.900       0.00000
      137.000       0.00000
      137.100       0.00000
      137.200       0.00000
      137.300       0.00000
      137.400       0.00000
      137.500       0.00000
      137.600       0.00000
      137.700       0.00000
      137.800       0.00000
      137.900       0.00000
      138.000       0.00000
      138.100       0.00000
      138.200       0.00000
      138.300       0.00000
      138.400       0.00000
      138.500       0.00000
      138.600       0.00000
      138.700       0.00000
      138.800       0.00000
      138.900       0.00000
      139.000       0.00000
      139.100       0.00000
      139.200       0.00000
      139.300       0.00000
      139.400       0.00000
      139.500       0.00000
      139.600       0.00000
      139.700       0.00000
      139.800       0.00000
      139.900       0.00000
      140.000       0.00000
      140.100       0.00000
      140.200       0.00000
      140.300       0.00000
      140.400       0.00000
      140.500       0.00000
      140.600       0.00000
      140.700       0.00000
      140.800       0.00000
      140.900       0.00000
      141.000       0.00000
      141.100       0.00000
      141.200       0.00000
      141.300       0.00000
      141.400       0.00000
      141.500       0.00000
      141.600       0.00000
      141.700       0.00000
      141.800       0.00000
      141.900       0.00000
      142.000       0.00000
      142.100       0.00000
      142.200       0.00000
      142.300       0.00000
      142.400       0.00000
      142.500       0.00000
      142.600       0.00000
      142.700       0.00000
      142.800       0.00000
      142.900       0.00000
      143.000       0.00000
      143.100       0.00000
      143.200       0.00000
      143.300       0.00000
      143.400       0.00000
      143.500       0.00000
      143.600       0.00000
      143.700       0.00000
      143.800       0.00000
      143.900       0.00000
      144.000       0.00000
      144.100       0.00000
      144.200       0.00000
      144.300       0.00000
      144.400       0.00000
      144.500       0.00000
      144.600       0.00000
      144.700       0.00000
      144.800       0.00000
      144.900       0.00000
      145.000       0.00000
      145.100       0.00000
      145.200       0.00000
      145.300       0.00000
      145.400       0.00000
      145.500       0.00000
      145.600       0.00000
      145.700       0.00000
      145.800       0.00000
      145.900       0.00000
      146.000       0.00000
      146.100       0.00000
      146.200       0.00000
      146.300       0.00000
      146.400       0.00000
      146.500       0.00000
      146.600       0.00000
      146.700       0.00000
      146.800       0.00000
      146.900       0.00000
      147.000       0.00000
      147.100       0.00000
      147.200       0.00000
      147.300       0.00000
      147.400       0.00000
      147.500       0.00000
      147.600       0.00000
      147.700       0.00000
      147.800       0.00000
      147.900       0.00000
      148.000       0.00000
      148.100       0.00000
      148.200       0.00000
      148.300       0.00000
      148.400       0.00000
      148.500       0.00000
      148.600       0.00000
      148.700       0.00000
      148.800       0.00000
      148.900       0.00000
      149.000       0.00000
      149.100       0.00000
      149.200       0.00000
      149.300       0.00000
      149.400       0.00000
      149.500       0.00000
      149.600       0.00000
      149.700       0.00000
      149.800       0.00000
      149.900       0.00000
      150.000       0.00000
      150.100       0.00000
      150.200       0.00000
      150.300       0.00000
      150.400       0.00000
      150.500       0.00000
      150.600       0.00000
      150.700       0.00000
      150.800       0.00000
      150.900       0.00000
      151.000       0.00000
      151.100       0.00000
      151.200       0.00000
      151.300       0.00000
      151.400       0.00000
      151.500       0.00000
      151.600       0.00000
      151.700       0.00000
      151.800       0.00000
      151.900       0.00000
      152.000       0.00000
      152.100       0.00000
      152.200       0.00000
      152.300       0.00000
      152.400       0.00000
      152.500       0.00000
      152.600       0.00000
      152.700       0.00000
      152.800       0.00000
      152.900       0.00000
      153.000       0.00000
      153.100       0.00000
      153.200       0.00000
      153.300       0.00000
      153.400       0.00000
      153.500       0.00000
      153.600       0.00000
      153.700       0.00000
      153.800       0.00000
      153.900       0.00000
      154.000       0.00000
      154.100       0.00000
      154.200       0.00000
      154.300       0.00000
      154.400       0.00000
      154.500       0.00000
      154.600       0.00000
      154.700       0.00000
      154.800       0.00000
      154.900       0.00000
      155.000       0.00000
      155.100       0.00000
      155.200       0.00000
      155.300       0.00000
      155.400       0.00000
      155.500       0.00000
      155.600       0.00000
      155.700       0.00000
      155.800       0.00000
      155.900       0.00000
      156.000       0.00000
      156.100       0.00000
      156.200       0.00000
      156.300       0.00000
      156.400       0.00000
      156.500       0.00000
      156.600       0.00000
      156.700       0.00000
      156.800       0.00000
      156.900       0.00000
      157.000       0.00000
      157.100       0.00000
      157.200       0.00000
      157.300       0.00000
      157.400       0.00000
      157.500       0.00000
      157.600       0.00000
      157.700       0.00000
      157.800       0.00000
      157.900       0.00000
      158.000       0.00000
      158.100       0.00000
      158.200       0.00000
      158.300       0.00000
      158.400       0.00000
      158.500       0.00000
      158.600       0.00000
      158.700       0.00000
      158.800       0.00000
      158.900       0.00000
      159.000       0.00000
      159.100       0.00000
      159.200       0.00000
      159.300       0.00000
      159.400       0.00000
      159.500       0.00000
      159.600       0.00000
      159.700       0.00000
      159.800       0.00000
      159.900       0.00000
      160.000       0.00000
      160.100       0.00000
      160.200       0.00000
      160.300       0.00000
      160.400       0.00000
      160.500       0.00000
      160.600       0.00000
      160.700       0.00000
      160.800       0.00000
      160.900       0.00000
      161.000       0.00000
      161.100       0.00000
      161.200       0.00000
      161.300       0.00000
      161.400       0.00000
      161.500       0.00000
      161.600       0.00000
      161.700       0.00000
      161.800       0.00000
      161.900       0.00000
      162.000       0.00000
      162.100       0.00000
      162.200       0.00000
      162.300       0.00000
      162.400       0.00000
      162.500       0.00000
      162.600       0.00000
      162.700       0.00000
      162.800       0.00000
      162.900       0.00000
      163.000       0.00000
      163.100       0.00000
      163.200       0.00000
      163.300       0.00000
      163.400       0.00000
      163.500       0.00000
      163.600       0.00000
      163.700       0.00000
      163.800       0.00000
      163.900       0.00000
      164.000       0.00000
      164.100       0.00000
      164.200       0.00000
      164.300       0.00000
      164.400       0.00000
      164.500       0.00000
      164.600       0.00000
      164.700       0.00000
      164.800       0.00000
      164.900       0.00000
      165.000       0.00000
      165.100       0.00000
      165.200       0.00000
      165.300       0.00000
      165.400       0.00000
      165.500       0.00000
      165.600       0.00000
      165.700       0.00000
      165.800       0.00000
      165.900       0.00000
      166.000       0.00000
      166.100       0.00000
      166.200       0.00000
      166.300       0.00000
      166.400       0.00000
      166.500       0.00000
      166.600       0.00000
      166.700       0.00000
      166.800       0.00000
      166.900       0.00000
      167.000       0.00000
      167.100       0.00000
      167.200       0.00000
      167.300       0.00000
      167.400       0.00000
      167.500       0.00000
      167.600       0.00000
      167.700       0.00000
      167.800       0.00000
      167.900       0.00000
      168.000       0.00000
      168.100       0.00000
      168.200       0.00000
      168.300       0.00000
      168.400       0.00000
      168.500       0.00000
      168.600       0.00000
      168.700       0.00000
      168.800       0.00000
      168.900       0.00000
      169.000       0.00000
      169.100       0.00000
      169.200       0.00000
      169.300       0.00000
      169.400       0.00000
      169.500       0.00000
      169.600       0.00000
      169.700       0.00000
      169.800       0.00000
      169.900       0.00000
      170.000       0.00000
      170.100       0.00000
      170.200       0.00000
      170.300       0.00000
      170.400       0.00000
      170.500   2.56307e-31
      170.600   1.18357e-19
      170.700   1.25119e-12
      170.800   1.06079e-10
      170.900   1.73438e-10
      171.000   1.74960e-10
      171.100   1.76483e-10
      171.200   1.78004e-10
      171.300   1.79526e-10
      171.400   1.81047e-10
      171.500   1.82565e-10
      171.600   1.84084e-10
      171.700   1.85604e-10
      171.800   1.87126e-10
      171.900   1.88651e-10
      172.000   1.90181e-10
      172.100   1.91720e-10
      172.200   1.93266e-10
      172.300   1.94815e-10
      172.400   1.96339e-10
      172.500   1.97865e-10
      172.600   1.99403e-10
      172.700   2.00953e-10
      172.800   2.02513e-10
      172.900   2.04088e-10
      173.000   2.05674e-10
      173.100   2.07272e-10
      173.200   2.08884e-10
      173.300   2.10509e-10
      173.400   2.12149e-10
      173.500   2.13801e-10
      173.600   2.15468e-10
      173.700   2.17147e-10
      173.800   2.18843e-10
      173.900   2.20549e-10
      174.000   2.22268e-10
      174.100   2.24005e-10
      174.200   2.25751e-10
      174.300   2.27508e-10
      174.400   2.29279e-10
      174.500   2.31061e-10
      174.600   2.32856e-10
      174.700   2.34662e-10
      174.800   2.36477e-10
      174.900   2.38304e-10
      175.000   2.40142e-10
      175.100   2.41986e-10
      175.200   2.43853e-10
      175.300   2.45725e-10
      175.400   2.47610e-10
      175.500   2.49503e-10
      175.600   2.51404e-10
      175.700   2.53316e-10
      175.800   2.55241e-10
      175.900   2.57173e-10
      176.000   2.59113e-10
      176.100   2.61064e-10
      176.200   2.63025e-10
      176.300   2.64997e-10
      176.400   2.66978e-10
      176.500   2.68968e-10
      176.600   2.70970e-10
      176.700   2.72981e-10
      176.800   2.75000e-10
      176.900   2.77029e-10
      177.000   2.79069e-10
      177.100   2.81120e-10
      177.200   2.83177e-10
      177.300   2.85243e-10
      177.400   2.87321e-10
      177.500   2.89406e-10
      177.600   2.91500e-10
      177.700   2.93601e-10
      177.800   2.95710e-10
      177.900   2.97828e-10
      178.000   2.99975e-10
      178.100   3.02129e-10
      178.200   3.04292e-10
      178.300   3.06466e-10
      178.400   3.08645e-10
      178.500   3.10833e-10
      178.600   3.13029e-10
      178.700   3.15236e-10
      178.800   3.17449e-10
      178.900   3.19668e-10
      179.000   3.21895e-10
      179.100   3.24133e-10
      179.200   3.26381e-10
      179.300   3.28636e-10
      179.400   3.30900e-10
      179.500   3.33174e-10
      179.600   3.35465e-10
      179.700   3.37760e-10
      179.800   3.40066e-10
      179.900   3.42383e-10
      180.000   3.44718e-10
      180.100   3.47059e-10
      180.200   3.49415e-10
      180.300   3.51783e-10
      180.400   3.54168e-10
      180.500   3.56567e-10
      180.600   3.58977e-10
      180.700   3.61401e-10
      180.800   3.63872e-10
      180.900   3.66411e-10
      181.000   3.68990e-10
      181.100   3.71582e-10
      181.200   3.74194e-10
      181.300   3.76827e-10
      181.400   3.79472e-10
      181.500   3.82133e-10
      181.600   3.84814e-10
      181.700   3.87514e-10
      181.800   3.90227e-10
      181.900   3.92958e-10
      182.000   3.95708e-10
      182.100   3.98470e-10
      182.200   4.01257e-10
      182.300   4.04055e-10
      182.400   4.06869e-10
      182.500   4.09699e-10
      182.600   4.12549e-10
      182.700   4.15411e-10
      182.800   4.18285e-10
      182.900   4.21179e-10
      183.000   4.24087e-10
      183.100   4.27008e-10
      183.200   4.29943e-10
      183.300   4.32894e-10
      183.400   4.35862e-10
      183.500   4.38841e-10
      183.600   4.41835e-10
      183.700   4.44968e-10
      183.800   4.48652e-10
      183.900   4.52688e-10
      184.000   4.56744e-10
      184.100   4.60838e-10
      184.200   4.64956e-10
      184.300   4.69109e-10
      184.400   4.73289e-10
      184.500   4.77496e-10
      184.600   4.81732e-10
      184.700   4.86002e-10
      184.800   4.90300e-10
      184.900   4.94626e-10
      185.000   4.98981e-10
      185.100   5.03369e-10
      185.200   5.07789e-10
      185.300   5.12234e-10
      185.400   5.16708e-10
      185.500   5.21210e-10
      185.600   5.25744e-10
      185.700   5.30314e-10
      185.800   5.34911e-10
      185.900   5.39532e-10
      186.000   5.44192e-10
      186.100   5.48874e-10
      186.200   5.53580e-10
      186.300   5.58314e-10
      186.400   5.63080e-10
      186.500   5.67874e-10
      186.600   5.72690e-10
      186.700   5.77527e-10
      186.800   5.82389e-10
      186.900   5.87280e-10
      187.000   5.92197e-10
      187.100   5.97131e-10
      187.200   6.02096e-10
      187.300   6.07090e-10
      187.400   6.12106e-10
      187.500   6.17144e-10
      187.600   6.22206e-10
      187.700   6.27292e-10
      187.800   6.32409e-10
      187.900   6.37551e-10
      188.000   6.42712e-10
      188.100   6.47898e-10
      188.200   6.53113e-10
      188.300   6.58357e-10
      188.400   6.63629e-10
      188.500   6.68927e-10
      188.600   6.74253e-10
      188.700   6.79616e-10
      188.800   6.85003e-10
      188.900   6.90418e-10
      189.000   6.95864e-10
      189.100   7.01349e-10
      189.200   7.06864e-10
      189.300   7.12407e-10
      189.400   7.17983e-10
      189.500   7.23596e-10
      189.600   7.29251e-10
      189.700   7.34932e-10
      189.800   7.40714e-10
      189.900   7.46541e-10
      190.000   7.52417e-10
      190.100   7.58323e-10
      190.200   7.64270e-10
      190.300   7.70254e-10
      190.400   7.76281e-10
      190.500   7.82349e-10
      190.600   7.88452e-10
      190.700   7.94595e-10
      190.800   8.00777e-10
      190.900   8.07000e-10
      191.000   8.13277e-10
      191.100   8.19586e-10
      191.200   8.25937e-10
      191.300   8.32328e-10
      191.400   8.38762e-10
      191.500   8.45239e-10
      191.600   8.51751e-10
      191.700   8.58304e-10
      191.800   8.64904e-10
      191.900   8.71539e-10
      192.000   8.78210e-10
      192.100   8.84925e-10
      192.200   8.91688e-10
      192.300   8.98490e-10
      192.400   9.05343e-10
      192.500   9.12233e-10
      192.600   9.19160e-10
      192.700   9.26128e-10
      192.800   9.32783e-10
      192.900   9.38565e-10
      193.000   9.44280e-10
      193.100   9.50028e-10
      193.200   9.55815e-10
      193.300   9.61623e-10
      193.400   9.67456e-10
      193.500   9.73320e-10
      193.600   9.79217e-10
      193.700   9.85145e-10
      193.800   9.91098e-10
      193.900   9.97074e-10
      194.000   1.00309e-09
      194.100   1.00914e-09
      194.200   1.01522e-09
      194.300   1.02133e-09
      194.400   1.02746e-09
      194.500   1.03364e-09
      194.600   1.03984e-09
      194.700   1.04606e-09
      194.800   1.05232e-09
      194.900   1.05860e-09
      195.000   1.06492e-09
      195.100   1.07128e-09
      195.200   1.07765e-09
      195.300   1.08404e-09
      195.400   1.09047e-09
      195.500   1.09692e-09
      195.600   1.10340e-09
      195.700   1.10990e-09
      195.800   1.11634e-09
      195.900   1.12228e-09
      196.000   1.10987e-09
      196.100   1.09735e-09
      196.200   1.08497e-09
      196.300   1.07272e-09
      196.400   1.06059e-09
      196.500   1.04859e-09
      196.600   1.03672e-09
      196.700   1.02497e-09
      196.800   1.01334e-09
      196.900   1.00185e-09
      197.000   9.90466e-10
      197.100   9.79202e-10
      197.200   9.68054e-10
      197.300   9.57020e-10
      197.400   9.46095e-10
      197.500   9.35282e-10
      197.600   9.24582e-10
      197.700   9.14003e-10
      197.800   9.03539e-10
      197.900   8.93179e-10
      198.000   8.82926e-10
      198.100   8.72780e-10
      198.200   8.62740e-10
      198.300   8.52805e-10
      198.400   8.42976e-10
      198.500   8.33261e-10
      198.600   8.23653e-10
      198.700   8.14147e-10
      198.800   8.04744e-10
      198.900   7.95446e-10
      199.000   7.86244e-10
      199.100   7.77143e-10
      199.200   7.68146e-10
      199.300   7.59258e-10
      199.400   7.50473e-10
      199.500   7.41786e-10
      199.600   7.33192e-10
      199.700   7.24695e-10
      199.800   7.16295e-10
      199.900   7.07989e-10
      200.000   6.99775e-10
      200.100   6.91700e-10
      200.200   6.83681e-10
      200.300   6.75759e-10
      200.400   6.67925e-10
      200.500   6.60180e-10
      200.600   6.52528e-10
      200.700   6.44962e-10
      200.800   6.37479e-10
      200.900   6.30088e-10
      201.000   6.22783e-10
      201.100   6.15563e-10
      201.200   6.08428e-10
      201.300   6.01374e-10
      201.400   5.94405e-10
      201.500   5.87512e-10
      201.600   5.80700e-10
      201.700   5.73968e-10
      201.800   5.67314e-10
      201.900   5.60735e-10
      202.000   5.54240e-10
      202.100   5.47819e-10
      202.200   5.41473e-10
      202.300   5.35247e-10
      202.400   5.29180e-10
      202.500   5.23207e-10
      202.600   5.17299e-10
      202.700   5.11465e-10
      202.800   5.05697e-10
      202.900   4.99996e-10
      203.000   4.94363e-10
      203.100   4.88798e-10
      203.200   4.83294e-10
      203.300   4.77854e-10
      203.400   4.72477e-10
      203.500   4.67163e-10
      203.600   4.61911e-10
      203.700   4.56722e-10
      203.800   4.51594e-10
      203.900   4.46531e-10
      204.000   4.41526e-10
      204.100   4.36580e-10
      204.200   4.31695e-10
      204.300   4.26866e-10
      204.400   4.22094e-10
      204.500   4.17380e-10
      204.600   4.12719e-10
      204.700   4.08114e-10
      204.800   4.03568e-10
      204.900   3.99075e-10
      205.000   3.94636e-10
      205.100   3.90249e-10
      205.200   3.85912e-10
      205.300   3.81627e-10
      205.400   3.77393e-10
      205.500   3.73207e-10
      205.600   3.68784e-10
      205.700   3.64153e-10
      205.800   3.59543e-10
      205.900   3.54995e-10
      206.000   3.50509e-10
      206.100   3.46078e-10
      206.200   3.41703e-10
      206.300   3.37385e-10
      206.400   3.33122e-10
      206.500   3.28911e-10
      206.600   3.24753e-10
      206.700   3.20648e-10
      206.800   3.16592e-10
      206.900   3.12587e-10
      207.000   3.08632e-10
      207.100   3.04727e-10
      207.200   3.00871e-10
      207.300   2.97061e-10
      207.400   2.93298e-10
      207.500   2.89579e-10
      207.600   2.85906e-10
      207.700   2.82277e-10
      207.800   2.78690e-10
      207.900   2.75147e-10
      208.000   2.71647e-10
      208.100   2.68189e-10
      208.200   2.64771e-10
      208.300   2.61395e-10
      208.400   2.58061e-10
      208.500   2.54767e-10
      208.600   2.51511e-10
      208.700   2.48293e-10
      208.800   2.45115e-10
      208.900   2.41648e-10
      209.000   2.37638e-10
      209.100   2.33550e-10
      209.200   2.29530e-10
      209.300   2.25575e-10
      209.400   2.21686e-10
      209.500   2.17860e-10
      209.600   2.14098e-10
      209.700   2.10398e-10
      209.800   2.06763e-10
      209.900   2.03186e-10
      210.000   1.99670e-10
      210.100   1.96212e-10
      210.200   1.92811e-10
      210.300   1.89467e-10
      210.400   1.86179e-10
      210.500   1.82945e-10
      210.600   1.79766e-10
      210.700   1.76640e-10
      210.800   1.73566e-10
      210.900   1.70544e-10
      211.000   1.67572e-10
      211.100   1.64651e-10
      211.200   1.61778e-10
      211.300   1.58957e-10
      211.400   1.56184e-10
      211.500   1.53457e-10
      211.600   1.50777e-10
      211.700   1.48142e-10
      211.800   1.45551e-10
      211.900   1.43003e-10
      212.000   1.40500e-10
      212.100   1.38039e-10
      212.200   1.35620e-10
      212.300   1.33241e-10
      212.400   1.30903e-10
      212.500   1.28606e-10
      212.600   1.26347e-10
      212.700   1.24127e-10
      212.800   1.21945e-10
      212.900   1.19800e-10
      213.000   1.17692e-10
      213.100   1.15622e-10
      213.200   1.13587e-10
      213.300   1.11587e-10
      213.400   1.09621e-10
      213.500   1.07689e-10
      213.600   1.05790e-10
      213.700   1.03924e-10
      213.800   1.02090e-10
      213.900   1.00289e-10
      214.000   9.85184e-11
      214.100   9.67785e-11
      214.200   9.50695e-11
      214.300   9.33896e-11
      214.400   9.17390e-11
      214.500   9.01175e-11
      214.600   8.85248e-11
      214.700   8.69596e-11
      214.800   8.54221e-11
      214.900   8.39120e-11
      215.000   8.24278e-11
      215.100   8.09705e-11
      215.200   7.95391e-11
      215.300   7.81339e-11
      215.400   7.67530e-11
      215.500   7.53968e-11
      215.600   7.40656e-11
      215.700   7.27571e-11
      215.800   7.14719e-11
      215.900   7.02103e-11
      216.000   6.89707e-11
      216.100   6.77532e-11
      216.200   6.65576e-11
      216.300   6.53834e-11
      216.400   6.42304e-11
      216.500   6.30977e-11
      216.600   6.19854e-11
      216.700   6.08933e-11
      216.800   5.98205e-11
      216.900   5.87669e-11
      217.000   5.77322e-11
      217.100   5.67157e-11
      217.200   5.57177e-11
      217.300   5.47374e-11
      217.400   5.37743e-11
      217.500   5.28290e-11
      217.600   5.19001e-11
      217.700   5.09873e-11
      217.800   5.00912e-11
      217.900   4.92112e-11
      218.000   4.83470e-11
      218.100   4.74977e-11
      218.200   4.66637e-11
      218.300   4.58444e-11
      218.400   4.50397e-11
      218.500   4.42487e-11
      218.600   4.34719e-11
      218.700   4.27085e-11
      218.800   4.19584e-11
      218.900   4.12218e-11
      219.000   4.04978e-11
      219.100   3.97862e-11
      219.200   3.90871e-11
      219.300   3.84001e-11
      219.400   3.77248e-11
      219.500   3.70613e-11
      219.600   3.64094e-11
      219.700   3.57687e-11
      219.800   3.51392e-11
      219.900   3.45205e-11
      220.000   3.39123e-11
      220.100   3.33147e-11
      220.200   3.27274e-11
      220.300   3.21502e-11
      220.400   3.15830e-11
      220.500   3.10257e-11
      220.600   3.04779e-11
      220.700   2.99394e-11
      220.800   2.94101e-11
      220.900   2.88903e-11
      221.000   2.83791e-11
      221.100   2.78767e-11
      221.200   2.73832e-11
      221.300   2.68981e-11
      221.400   2.64213e-11
      221.500   2.59529e-11
      221.600   2.54925e-11
      221.700   2.50399e-11
      221.800   2.45950e-11
      221.900   2.41580e-11
      222.000   2.37286e-11
      222.100   2.33064e-11
      222.200   2.28918e-11
      222.300   2.24841e-11
      222.400   2.20836e-11
      222.500   2.16899e-11
      222.600   2.13032e-11
      222.700   2.09230e-11
      222.800   2.05494e-11
      222.900   2.01823e-11
      223.000   1.98215e-11
      223.100   1.94670e-11
      223.200   1.91186e-11
      223.300   1.87763e-11
      223.400   1.84400e-11
      223.500   1.81093e-11
      223.600   1.77846e-11
      223.700   1.74655e-11
      223.800   1.71518e-11
      223.900   1.68439e-11
      224.000   1.65411e-11
      224.100   1.62435e-11
      224.200   1.59512e-11
      224.300   1.56640e-11
      224.400   1.53817e-11
      224.500   1.51045e-11
      224.600   1.48319e-11
      224.700   1.45643e-11
      224.800   1.43013e-11
      224.900   1.40428e-11
      225.000   1.37889e-11
      225.100   1.35393e-11
      225.200   1.32942e-11
      225.300   1.30534e-11
      225.400   1.28168e-11
      225.500   1.25843e-11
      225.600   1.23558e-11
      225.700   1.21315e-11
      225.800   1.19110e-11
      225.900   1.16944e-11
      226.000   1.14817e-11
      226.100   1.12727e-11
      226.200   1.10674e-11
      226.300   1.08666e-11
      226.400   1.06696e-11
      226.500   1.04759e-11
      226.600   1.02854e-11
      226.700   1.00982e-11
      226.800   9.91416e-12
      226.900   9.73333e-12
      227.000   9.55571e-12
      227.100   9.38120e-12
      227.200   9.20985e-12
      227.300   9.04157e-12
      227.400   8.87630e-12
      227.500   8.71399e-12
      227.600   8.55459e-12
      227.700   8.39807e-12
      227.800   8.24438e-12
      227.900   8.09348e-12
      228.000   7.94531e-12
      228.100   7.79981e-12
      228.200   7.65692e-12
      228.300   7.51665e-12
      228.400   7.37897e-12
      228.500   7.24374e-12
      228.600   7.11101e-12
      228.700   6.98070e-12
      228.800   6.85274e-12
      228.900   6.72720e-12
      229.000   6.60391e-12
      229.100   6.48290e-12
      229.200   6.36410e-12
      229.300   6.24750e-12
      229.400   6.13304e-12
      229.500   6.02070e-12
      229.600   5.91039e-12
      229.700   5.80215e-12
      229.800   5.69589e-12
      229.900   5.59160e-12
      230.000   5.48820e-12
      230.100   5.37958e-12
      230.200   5.27286e-12
      230.300   5.16832e-12
      230.400   5.06584e-12
      230.500   4.96540e-12
      230.600   4.86699e-12
      230.700   4.77052e-12
      230.800   4.67599e-12
      230.900   4.58335e-12
      231.000   4.49253e-12
      231.100   4.40352e-12
      231.200   4.31628e-12
      231.300   4.23079e-12
      231.400   4.14703e-12
      231.500   4.06487e-12
      231.600   3.98434e-12
      231.700   3.90543e-12
      231.800   3.82810e-12
      231.900   3.75228e-12
      232.000   3.67797e-12
      232.100   3.60511e-12
      232.200   3.53371e-12
      232.300   3.46373e-12
      232.400   3.39512e-12
      232.500   3.32785e-12
      232.600   3.26193e-12
      232.700   3.19730e-12
      232.800   3.13396e-12
      232.900   3.07185e-12
      233.000   3.01097e-12
      233.100   2.95130e-12
      233.200   2.89279e-12
      233.300   2.83545e-12
      233.400   2.77923e-12
      233.500   2.72413e-12
      233.600   2.67014e-12
      233.700   2.61719e-12
      233.800   2.55890e-12
      233.900   2.50107e-12
      234.000   2.44450e-12
      234.100   2.38920e-12
      234.200   2.33515e-12
      234.300   2.28230e-12
      234.400   2.23062e-12
      234.500   2.18010e-12
      234.600   2.13069e-12
      234.700   2.08240e-12
      234.800   2.03520e-12
      234.900   1.98903e-12
      235.000   1.94389e-12
      235.100   1.89976e-12
      235.200   1.85661e-12
      235.300   1.81443e-12
      235.400   1.77319e-12
      235.500   1.73287e-12
      235.600   1.69346e-12
      235.700   1.65493e-12
      235.800   1.61729e-12
      235.900   1.58049e-12
      236.000   1.54452e-12
      236.100   1.50935e-12
      236.200   1.47496e-12
      236.300   1.44133e-12
      236.400   1.40847e-12
      236.500   1.37633e-12
      236.600   1.34491e-12
      236.700   1.31420e-12
      236.800   1.28416e-12
      236.900   1.25480e-12
      237.000   1.22610e-12
      237.100   1.19803e-12
      237.200   1.17060e-12
      237.300   1.14377e-12
      237.400   1.11755e-12
      237.500   1.09190e-12
      237.600   1.06683e-12
      237.700   1.04234e-12
      237.800   1.01840e-12
      237.900   9.94991e-13
      238.000   9.72113e-13
      238.100   9.49736e-13
      238.200   9.27863e-13
      238.300   9.06478e-13
      238.400   8.85571e-13
      238.500   8.65128e-13
      238.600   8.45146e-13
      238.700   8.25614e-13
      238.800   8.06516e-13
      238.900   7.87845e-13
      239.000   7.69589e-13
      239.100   7.51745e-13
      239.200   7.34305e-13
      239.300   7.17262e-13
      239.400   7.00617e-13
      239.500   6.84344e-13
      239.600   6.68432e-13
      239.700   6.52887e-13
      239.800   6.37685e-13
      239.900   6.22825e-13
      240.000   6.08300e-13
      240.100   5.94098e-13
      240.200   5.80216e-13
      240.300   5.66648e-13
      240.400   5.53382e-13
      240.500   5.40423e-13
      240.600   5.27756e-13
      240.700   5.15374e-13
      240.800   5.03280e-13
      240.900   4.91468e-13
      241.000   4.79926e-13
      241.100   4.68645e-13
      241.200   4.57621e-13
      241.300   4.46845e-13
      241.400   4.36317e-13
      241.500   4.26028e-13
      241.600   4.15974e-13
      241.700   4.06149e-13
      241.800   3.96547e-13
      241.900   3.87164e-13
      242.000   3.77997e-13
      242.100   3.69042e-13
      242.200   3.60302e-13
      242.300   3.51769e-13
      242.400   3.43430e-13
      242.500   3.35282e-13
      242.600   3.27323e-13
      242.700   3.19547e-13
      242.800   3.11952e-13
      242.900   3.04531e-13
      243.000   2.97283e-13
      243.100   2.90203e-13
      243.200   2.83284e-13
      243.300   2.76528e-13
      243.400   2.69931e-13
      243.500   2.63491e-13
      243.600   2.57210e-13
      243.700   2.51072e-13
      243.800   2.45077e-13
      243.900   2.39225e-13
      244.000   2.33507e-13
      244.100   2.27923e-13
      244.200   2.22471e-13
      244.300   2.17144e-13
      244.400   2.11944e-13
      244.500   2.06865e-13
      244.600   2.01905e-13
      244.700   1.97066e-13
      244.800   1.92347e-13
      244.900   1.87739e-13
      245.000   1.83238e-13
      245.100   1.78843e-13
      245.200   1.74553e-13
      245.300   1.70364e-13
      245.400   1.66272e-13
      245.500   1.62279e-13
      245.600   1.58379e-13
      245.700   1.54570e-13
      245.800   1.50851e-13
      245.900   1.47227e-13
      246.000   1.43691e-13
      246.100   1.40237e-13
      246.200   1.36866e-13
      246.300   1.33574e-13
      246.400   1.30360e-13
      246.500   1.27223e-13
      246.600   1.24159e-13
      246.700   1.21168e-13
      246.800   1.18247e-13
      246.900   1.15396e-13
      247.000   1.12617e-13
      247.100   1.09906e-13
      247.200   1.07259e-13
      247.300   1.04675e-13
      247.400   1.02152e-13
      247.500   9.96890e-14
      247.600   9.72842e-14
      247.700   9.49365e-14
      247.800   9.26444e-14
      247.900   9.04065e-14
      248.000   8.82221e-14
      248.100   8.60959e-14
      248.200   8.40195e-14
      248.300   8.19920e-14
      248.400   8.00128e-14
      248.500   7.80801e-14
      248.600   7.61935e-14
      248.700   7.43521e-14
      248.800   7.25541e-14
      248.900   7.07991e-14
      249.000   6.90858e-14
      249.100   6.74167e-14
      249.200   6.57884e-14
      249.300   6.41981e-14
      249.400   6.26457e-14
      249.500   6.11305e-14
      249.600   5.96508e-14
      249.700   5.82064e-14
      249.800   5.67965e-14
      249.900   5.54200e-14
      250.000   5.40764e-14
      250.100   5.27670e-14
      250.200   5.14893e-14
      250.300   5.02431e-14
      250.400   4.90262e-14
      250.500   4.78386e-14
      250.600   4.66794e-14
      250.700   4.55478e-14
      250.800   4.44432e-14
      250.900   4.33651e-14
      251.000   4.23127e-14
      251.100   4.12854e-14
      251.200   4.02837e-14
      251.300   3.93069e-14
      251.400   3.83537e-14
      251.500   3.74228e-14
      251.600   3.65142e-14
      251.700   3.56279e-14
      251.800   3.47625e-14
      251.900   3.39177e-14
      252.000   3.30930e-14
      252.100   3.22885e-14
      252.200   3.15029e-14
      252.300   3.07370e-14
      252.400   2.99896e-14
      252.500   2.92605e-14
      252.600   2.85487e-14
      252.700   2.78539e-14
      252.800   2.71759e-14
      252.900   2.65140e-14
      253.000   2.58679e-14
      253.100   2.52374e-14
      253.200   2.46220e-14
      253.300   2.40267e-14
      253.400   2.34479e-14
      253.500   2.28833e-14
      253.600   2.23325e-14
      253.700   2.17946e-14
      253.800   2.12696e-14
      253.900   2.07570e-14
      254.000   2.02564e-14
      254.100   1.97675e-14
      254.200   1.92903e-14
      254.300   1.88243e-14
      254.400   1.83693e-14
      254.500   1.79250e-14
      254.600   1.74913e-14
      254.700   1.70679e-14
      254.800   1.66550e-14
      254.900   1.62519e-14
      255.000   1.58584e-14
      255.100   1.54739e-14
      255.200   1.50986e-14
      255.300   1.47322e-14
      255.400   1.43745e-14
      255.500   1.40253e-14
      255.600   1.36843e-14
      255.700   1.33514e-14
      255.800   1.30264e-14
      255.900   1.27090e-14
      256.000   1.23991e-14
      256.100   1.20968e-14
      256.200   1.18018e-14
      256.300   1.15138e-14
      256.400   1.12329e-14
      256.500   1.09583e-14
      256.600   1.06904e-14
      256.700   1.04289e-14
      256.800   1.01735e-14
      256.900   9.92423e-15
      257.000   9.68090e-15
      257.100   9.44334e-15
      257.200   9.21152e-15
      257.300   8.98516e-15
      257.400   8.79304e-15
      257.500   8.61535e-15
      257.600   8.44180e-15
      257.700   8.27168e-15
      257.800   8.10486e-15
      257.900   7.94133e-15
      258.000   7.78100e-15
      258.100   7.62378e-15
      258.200   7.46969e-15
      258.300   7.31865e-15
      258.400   7.17048e-15
      258.500   7.02522e-15
      258.600   6.88287e-15
      258.700   6.74330e-15
      258.800   6.60645e-15
      258.900   6.47239e-15
      259.000   6.34087e-15
      259.100   6.21199e-15
      259.200   6.08567e-15
      259.300   5.96197e-15
      259.400   5.84071e-15
      259.500   5.72178e-15
      259.600   5.60527e-15
      259.700   5.49107e-15
      259.800   5.37910e-15
      259.900   5.26931e-15
      260.000   5.16178e-15
      260.100   5.05637e-15
      260.200   4.95305e-15
      260.300   4.85179e-15
      260.400   4.75257e-15
      260.500   4.65534e-15
      260.600   4.56003e-15
      260.700   4.46661e-15
      260.800   4.37513e-15
      260.900   4.28542e-15
      261.000   4.19757e-15
      261.100   4.11151e-15
      261.200   4.02717e-15
      261.300   3.94451e-15
      261.400   3.86356e-15
      261.500   3.79194e-15
      261.600   3.74666e-15
      261.700   3.70625e-15
      261.800   3.66630e-15
      261.900   3.62674e-15
      262.000   3.58760e-15
      262.100   3.54888e-15
      262.200   3.51058e-15
      262.300   3.47267e-15
      262.400   3.43517e-15
      262.500   3.39807e-15
      262.600   3.36136e-15
      262.700   3.32505e-15
      262.800   3.28912e-15
      262.900   3.25355e-15
      263.000   3.21842e-15
      263.100   3.18364e-15
      263.200   3.14923e-15
      263.300   3.11520e-15
      263.400   3.08153e-15
      263.500   3.04822e-15
      263.600   3.01529e-15
      263.700   2.98271e-15
      263.800   2.95046e-15
      263.900   2.91859e-15
      264.000   2.88706e-15
      264.100   2.85586e-15
      264.200   2.82500e-15
      264.300   2.79449e-15
      264.400   2.76431e-15
      264.500   2.73446e-15
      264.600   2.70492e-15
      264.700   2.67571e-15
      264.800   2.64682e-15
      264.900   2.61827e-15
      265.000   2.59001e-15
      265.100   2.56206e-15
      265.200   2.53442e-15
      265.300   2.50708e-15
      265.400   2.48006e-15
      265.500   2.45333e-15
      265.600   2.42689e-15
      265.700   2.40074e-15
      265.800   2.37492e-15
      265.900   2.34937e-15
      266.000   2.32413e-15
      266.100   2.29917e-15
      266.200   2.27447e-15
      266.300   2.25006e-15
      266.400   2.22591e-15
      266.500   2.20202e-15
      266.600   2.17842e-15
      266.700   2.15506e-15
      266.800   2.13198e-15
      266.900   2.10915e-15
      267.000   2.08657e-15
      267.100   2.06425e-15
      267.200   2.04220e-15
      267.300   2.02037e-15
      267.400   1.99878e-15
      267.500   1.97744e-15
      267.600   1.95634e-15
      267.700   1.93547e-15
      267.800   1.91483e-15
      267.900   1.89443e-15
      268.000   1.87427e-15
      268.100   1.85432e-15
      268.200   1.83460e-15
      268.300   1.81511e-15
      268.400   1.79582e-15
      268.500   1.77676e-15
      268.600   1.75790e-15
      268.700   1.73927e-15
      268.800   1.72083e-15
      268.900   1.70261e-15
      269.000   1.68459e-15
      269.100   1.66677e-15
      269.200   1.64915e-15
      269.300   1.63173e-15
      269.400   1.61450e-15
      269.500   1.59746e-15
      269.600   1.58063e-15
      269.700   1.56396e-15
      269.800   1.54750e-15
      269.900   1.53120e-15
      270.000   1.51511e-15
      270.100   1.49920e-15
      270.200   1.48348e-15
      270.300   1.46793e-15
      270.400   1.45255e-15
      270.500   1.43735e-15
      270.600   1.42230e-15
      270.700   1.40743e-15
      270.800   1.39273e-15
      270.900   1.37818e-15
      271.000   1.36379e-15
      271.100   1.34955e-15
      271.200   1.33547e-15
      271.300   1.32156e-15
      271.400   1.30778e-15
      271.500   1.29417e-15
      271.600   1.28069e-15
      271.700   1.26736e-15
      271.800   1.25418e-15
      271.900   1.24114e-15
      272.000   1.22825e-15
      272.100   1.21549e-15
      272.200   1.20286e-15
      272.300   1.19037e-15
      272.400   1.17801e-15
      272.500   1.16579e-15
      272.600   1.15369e-15
      272.700   1.14172e-15
      272.800   1.12988e-15
      272.900   1.11817e-15
      273.000   1.10658e-15
      273.100   1.09511e-15
      273.200   1.08377e-15
      273.300   1.07254e-15
      273.400   1.06143e-15
      273.500   1.05044e-15
      273.600   1.03956e-15
      273.700   1.02879e-15
      273.800   1.01813e-15
      273.900   1.00759e-15
      274.000   9.97157e-16
      274.100   9.86832e-16
      274.200   9.76611e-16
      274.300   9.66498e-16
      274.400   9.56368e-16
      274.500   9.46090e-16
      274.600   9.35866e-16
      274.700   9.25752e-16
      274.800   9.15745e-16
      274.900   9.05841e-16
      275.000   8.96042e-16
      275.100   8.86348e-16
      275.200   8.76755e-16
      275.300   8.67261e-16
      275.400   8.57874e-16
      275.500   8.48585e-16
      275.600   8.39388e-16
      275.700   8.30289e-16
      275.800   8.21289e-16
      275.900   8.12384e-16
      276.000   8.03573e-16
      276.100   7.94850e-16
      276.200   7.86217e-16
      276.300   7.77676e-16
      276.400   7.69225e-16
      276.500   7.60862e-16
      276.600   7.52588e-16
      276.700   7.44397e-16
      276.800   7.36295e-16
      276.900   7.28273e-16
      277.000   7.20338e-16
      277.100   7.12482e-16
      277.200   7.04711e-16
      277.300   6.97021e-16
      277.400   6.89411e-16
      277.500   6.81875e-16
      277.600   6.74424e-16
      277.700   6.67047e-16
      277.800   6.59742e-16
      277.900   6.52519e-16
      278.000   6.45374e-16
      278.100   6.38301e-16
      278.200   6.31299e-16
      278.300   6.24371e-16
      278.400   6.17518e-16
      278.500   6.10730e-16
      278.600   6.04014e-16
      278.700   5.97372e-16
      278.800   5.90799e-16
      278.900   5.84271e-16
      279.000   5.77807e-16
      279.100   5.71411e-16
      279.200   5.65079e-16
      279.300   5.58818e-16
      279.400   5.52617e-16
      279.500   5.46484e-16
      279.600   5.40416e-16
      279.700   5.34413e-16
      279.800   5.28472e-16
      279.900   5.22591e-16
      280.000   5.16775e-16
      280.100   5.11016e-16
      280.200   5.05322e-16
      280.300   4.99685e-16
      280.400   4.94108e-16
      280.500   4.88595e-16
      280.600   4.83137e-16
      280.700   4.77735e-16
      280.800   4.72392e-16
      280.900   4.67104e-16
      281.000   4.61873e-16
      281.100   4.56697e-16
      281.200   4.51576e-16
      281.300   4.46510e-16
      281.400   4.41501e-16
      281.500   4.36541e-16
      281.600   4.31632e-16
      281.700   4.26778e-16
      281.800   4.21978e-16
      281.900   4.17228e-16
      282.000   4.12529e-16
      282.100   4.07879e-16
      282.200   4.03283e-16
      282.300   3.98733e-16
      282.400   3.94233e-16
      282.500   3.89779e-16
      282.600   3.85376e-16
      282.700   3.81017e-16
      282.800   3.76708e-16
      282.900   3.72448e-16
      283.000   3.68231e-16
      283.100   3.64061e-16
      283.200   3.59938e-16
      283.300   3.55858e-16
      283.400   3.51824e-16
      283.500   3.47836e-16
      283.600   3.43889e-16
      283.700   3.39984e-16
      283.800   3.36123e-16
      283.900   3.32307e-16
      284.000   3.28529e-16
      284.100   3.24793e-16
      284.200   3.21098e-16
      284.300   3.17447e-16
      284.400   3.13834e-16
      284.500   3.10262e-16
      284.600   3.06729e-16
      284.700   3.03237e-16
      284.800   2.99783e-16
      284.900   2.96367e-16
      285.000   2.92987e-16
      285.100   2.89646e-16
      285.200   2.86344e-16
      285.300   2.83078e-16
      285.400   2.79848e-16
      285.500   2.76653e-16
      285.600   2.73498e-16
      285.700   2.70376e-16
      285.800   2.67290e-16
      285.900   2.64238e-16
      286.000   2.61221e-16
      286.100   2.58241e-16
      286.200   2.55292e-16
      286.300   2.52379e-16
      286.400   2.49498e-16
      286.500   2.46649e-16
      286.600   2.43832e-16
      286.700   2.41048e-16
      286.800   2.38296e-16
      286.900   2.35576e-16
      287.000   2.32886e-16
      287.100   2.30226e-16
      287.200   2.27599e-16
      287.300   2.25000e-16
      287.400   2.22432e-16
      287.500   2.19893e-16
      287.600   2.17385e-16
      287.700   2.14904e-16
      287.800   2.12452e-16
      287.900   2.10029e-16
      288.000   2.07634e-16
      288.100   2.05266e-16
      288.200   2.02928e-16
      288.300   2.00616e-16
      288.400   1.98331e-16
      288.500   1.96073e-16
      288.600   1.93840e-16
      288.700   1.91634e-16
      288.800   1.89453e-16
      288.900   1.87298e-16
      289.000   1.85169e-16
      289.100   1.83063e-16
      289.200   1.80982e-16
      289.300   1.78926e-16
      289.400   1.76893e-16
      289.500   1.74885e-16
      289.600   1.72899e-16
      289.700   1.70939e-16
      289.800   1.68999e-16
      289.900   1.67081e-16
      290.000   1.65189e-16
      290.100   1.63315e-16
      290.200   1.61467e-16
      290.300   1.59639e-16
      290.400   1.57833e-16
      290.500   1.56049e-16
      290.600   1.54285e-16
      290.700   1.52541e-16
      290.800   1.50819e-16
      290.900   1.49116e-16
      291.000   1.47433e-16
      291.100   1.45769e-16
      291.200   1.44125e-16
      291.300   1.42500e-16
      291.400   1.40895e-16
      291.500   1.39307e-16
      291.600   1.37739e-16
      291.700   1.36189e-16
      291.800   1.34656e-16
      291.900   1.33143e-16
      292.000   1.31648e-16
      292.100   1.30170e-16
      292.200   1.28709e-16
      292.300   1.27264e-16
      292.400   1.25837e-16
      292.500   1.24425e-16
      292.600   1.23030e-16
      292.700   1.21652e-16
      292.800   1.20289e-16
      292.900   1.18943e-16
      293.000   1.17612e-16
      293.100   1.16296e-16
      293.200   1.14995e-16
      293.300   1.13709e-16
      293.400   1.12439e-16
      293.500   1.11183e-16
      293.600   1.09942e-16
      293.700   1.08715e-16
      293.800   1.07502e-16
      293.900   1.06303e-16
      294.000   1.05118e-16
      294.100   1.03947e-16
      294.200   1.02789e-16
      294.300   1.01645e-16
      294.400   1.00513e-16
      294.500   9.93937e-17
      294.600   9.82871e-17
      294.700   9.71938e-17
      294.800   9.61127e-17
      294.900   9.50437e-17
      295.000   9.39877e-17
      295.100   9.29440e-17
      295.200   9.19119e-17
      295.300   9.08907e-17
      295.400   8.98817e-17
      295.500   8.88844e-17
      295.600   8.78978e-17
      295.700   8.69225e-17
      295.800   8.59582e-17
      295.900   8.50041e-17
      296.000   8.40613e-17
      296.100   8.31285e-17
      296.200   8.22069e-17
      296.300   8.12954e-17
      296.400   8.03953e-17
      296.500   7.95039e-17
      296.600   7.86231e-17
      296.700   7.77520e-17
      296.800   7.68907e-17
      296.900   7.60388e-17
      297.000   7.51964e-17
      297.100   7.43630e-17
      297.200   7.35392e-17
      297.300   7.27244e-17
      297.400   7.19187e-17
      297.500   7.11214e-17
      297.600   7.03338e-17
      297.700   6.95545e-17
      297.800   6.87840e-17
      297.900   6.80222e-17
      298.000   6.72689e-17
      298.100   6.65234e-17
      298.200   6.57862e-17
      298.300   6.50574e-17
      298.400   6.43361e-17
      298.500   6.36227e-17
      298.600   6.29171e-17
      298.700   6.22192e-17
      298.800   6.15287e-17
      298.900   6.08462e-17
      299.000   6.01717e-17
      299.100   5.95042e-17
      299.200   5.88436e-17
      299.300   5.81904e-17
      299.400   5.75443e-17
      299.500   5.69052e-17
      299.600   5.62729e-17
      299.700   5.56474e-17
      299.800   5.50285e-17
      299.900   5.44167e-17
      300.000   5.38113e-17
      300.100   5.32124e-17
      300.192   5.26675e-17
      300.285   5.21215e-17
      300.377   5.15873e-17
      300.470   5.10530e-17
      300.562   5.05293e-17
      300.654   5.00107e-17
      300.747   4.94918e-17
      300.839   4.89838e-17
      300.932   4.84748e-17
      301.025   4.79714e-17
      301.117   4.74784e-17
      301.210   4.69845e-17
      301.303   4.64961e-17
      301.395   4.60179e-17
      301.488   4.55385e-17
      301.581   4.50645e-17
      301.674   4.45951e-17
      301.766   4.41351e-17
      301.859   4.36748e-17
      301.952   4.32194e-17
      302.045   4.27683e-17
      302.138   4.23511e-17
      302.231   4.20040e-17
      302.324   4.16624e-17
      302.417   4.13237e-17
      302.510   4.09870e-17
      302.603   4.06535e-17
      302.696   4.03220e-17
      302.789   3.99929e-17
      302.882   3.96664e-17
      302.976   3.93393e-17
      303.069   3.90178e-17
      303.162   3.86986e-17
      303.255   3.83817e-17
      303.349   3.80640e-17
      303.442   3.77519e-17
      303.535   3.74423e-17
      303.629   3.71316e-17
      303.722   3.68267e-17
      303.816   3.65209e-17
      303.909   3.62203e-17
      304.003   3.59190e-17
      304.096   3.56231e-17
      304.190   3.53262e-17
      304.283   3.50346e-17
      304.377   3.47424e-17
      304.471   3.44520e-17
      304.564   3.41671e-17
      304.658   3.38816e-17
      304.752   3.35978e-17
      304.846   3.33163e-17
      304.939   3.30400e-17
      305.033   3.27627e-17
      305.127   3.24876e-17
      305.221   3.22146e-17
      305.315   3.19439e-17
      305.409   3.16748e-17
      305.503   3.14081e-17
      305.597   3.11435e-17
      305.691   3.08808e-17
      305.785   3.06202e-17
      305.879   3.03614e-17
      305.973   3.01047e-17
      306.067   2.98499e-17
      306.161   2.95972e-17
      306.255   2.93465e-17
      306.350   2.90950e-17
      306.444   2.88480e-17
      306.538   2.86031e-17
      306.633   2.83576e-17
      306.727   2.81164e-17
      306.821   2.78772e-17
      306.916   2.76373e-17
      307.010   2.74050e-17
      307.105   2.71823e-17
      307.199   2.69651e-17
      307.294   2.67472e-17
      307.388   2.65333e-17
      307.483   2.63188e-17
      307.577   2.61080e-17
      307.672   2.58965e-17
      307.767   2.56867e-17
      307.861   2.54806e-17
      307.956   2.52736e-17
      308.051   2.50683e-17
      308.146   2.48647e-17
      308.240   2.46645e-17
      308.335   2.44638e-17
      308.430   2.42644e-17
      308.525   2.40667e-17
      308.620   2.38705e-17
      308.715   2.36758e-17
      308.810   2.34826e-17
      308.905   2.32908e-17
      309.000   2.31003e-17
      309.095   2.29114e-17
      309.190   2.27241e-17
      309.285   2.25381e-17
      309.380   2.23536e-17
      309.476   2.21686e-17
      309.571   2.19868e-17
      309.666   2.18065e-17
      309.761   2.16276e-17
      309.857   2.14483e-17
      309.952   2.12720e-17
      310.047   2.10973e-17
      310.143   2.09221e-17
      310.238   2.07501e-17
      310.334   2.05777e-17
      310.429   2.04083e-17
      310.525   2.02385e-17
      310.620   2.00719e-17
      310.716   1.99049e-17
      310.811   1.97410e-17
      310.907   1.95766e-17
      311.003   1.94135e-17
      311.098   1.92534e-17
      311.194   1.90929e-17
      311.290   1.89339e-17
      311.386   1.87761e-17
      311.481   1.86211e-17
      311.577   1.84658e-17
      311.673   1.83118e-17
      311.769   1.81591e-17
      311.865   1.80075e-17
      311.961   1.78578e-17
      312.057   1.77116e-17
      312.153   1.75674e-17
      312.249   1.74243e-17
      312.345   1.72824e-17
      312.441   1.71416e-17
      312.537   1.70020e-17
      312.633   1.68636e-17
      312.730   1.67247e-17
      312.826   1.65885e-17
      312.922   1.64534e-17
      313.018   1.63194e-17
      313.115   1.61851e-17
      313.211   1.60533e-17
      313.307   1.59226e-17
      313.404   1.57916e-17
      313.500   1.56630e-17
      313.597   1.55343e-17
      313.693   1.54079e-17
      313.790   1.52813e-17
      313.886   1.51569e-17
      313.983   1.50323e-17
      314.079   1.49101e-17
      314.176   1.47876e-17
      314.273   1.46661e-17
      314.369   1.45471e-17
      314.466   1.44277e-17
      314.563   1.43093e-17
      314.660   1.41919e-17
      314.756   1.40767e-17
      314.853   1.39612e-17
      314.950   1.38468e-17
      315.047   1.37334e-17
      315.144   1.36209e-17
      315.241   1.35094e-17
      315.338   1.33989e-17
      315.435   1.32892e-17
      315.532   1.31805e-17
      315.629   1.30727e-17
      315.726   1.29659e-17
      315.823   1.28600e-17
      315.921   1.27539e-17
      316.018   1.26498e-17
      316.115   1.25466e-17
      316.212   1.24443e-17
      316.310   1.23418e-17
      316.407   1.22413e-17
      316.504   1.21415e-17
      316.602   1.20417e-17
      316.699   1.19438e-17
      316.796   1.18466e-17
      316.894   1.17494e-17
      316.991   1.16542e-17
      317.089   1.15604e-17
      317.187   1.14682e-17
      317.284   1.13777e-17
      317.382   1.12871e-17
      317.479   1.11981e-17
      317.577   1.11089e-17
      317.675   1.10206e-17
      317.773   1.09329e-17
      317.870   1.08470e-17
      317.968   1.07608e-17
      318.066   1.06754e-17
      318.164   1.05907e-17
      318.262   1.05068e-17
      318.360   1.04235e-17
      318.458   1.03410e-17
      318.556   1.02593e-17
      318.654   1.01782e-17
      318.752   1.00977e-17
      318.850   1.00180e-17
      318.948   9.93890e-18
      319.046   9.86050e-18
      319.144   9.78275e-18
      319.242   9.70568e-18
      319.341   9.62849e-18
      319.439   9.55272e-18
      319.537   9.47765e-18
      319.635   9.40317e-18
      319.734   9.32856e-18
      319.832   9.25536e-18
      319.930   9.18273e-18
      320.029   9.11001e-18
      320.127   9.03865e-18
      320.226   8.96717e-18
      320.324   8.89697e-18
      320.423   8.82663e-18
      320.522   8.75701e-18
      320.620   8.68862e-18
      320.719   8.62006e-18
      320.818   8.55215e-18
      320.916   8.48546e-18
      321.015   8.41866e-18
      321.114   8.35239e-18
      321.213   8.28671e-18
      321.311   8.22226e-18
      321.410   8.15771e-18
      321.509   8.09363e-18
      321.608   8.03013e-18
      321.707   7.96716e-18
      321.806   7.90471e-18
      321.905   7.84280e-18
      322.004   7.78139e-18
      322.103   7.72051e-18
      322.202   7.66008e-18
      322.301   7.60020e-18
      322.401   7.54025e-18
      322.500   7.48137e-18
      322.599   7.42298e-18
      322.698   7.36504e-18
      322.798   7.30701e-18
      322.897   7.25005e-18
      322.996   7.19357e-18
      323.096   7.13694e-18
      323.195   7.08137e-18
      323.294   7.02623e-18
      323.394   6.97100e-18
      323.493   6.91678e-18
      323.593   6.86250e-18
      323.692   6.80916e-18
      323.792   6.75571e-18
      323.892   6.70270e-18
      323.991   6.65062e-18
      324.091   6.59851e-18
      324.191   6.54680e-18
      324.291   6.49548e-18
      324.390   6.44512e-18
      324.490   6.39465e-18
      324.590   6.34457e-18
      324.690   6.29490e-18
      324.790   6.24563e-18
      324.890   6.19678e-18
      324.990   6.14831e-18
      325.090   6.10022e-18
      325.190   6.05249e-18
      325.290   6.00519e-18
      325.390   5.95820e-18
      325.490   5.91164e-18
      325.590   5.86546e-18
      325.690   5.81956e-18
      325.790   5.77407e-18
      325.891   5.72849e-18
      325.991   5.68373e-18
      326.091   5.63929e-18
      326.192   5.59477e-18
      326.292   5.55105e-18
      326.392   5.50768e-18
      326.493   5.46421e-18
      326.593   5.42149e-18
      326.694   5.37871e-18
      326.794   5.33666e-18
      326.895   5.29451e-18
      326.995   5.25311e-18
      327.096   5.21163e-18
      327.197   5.17045e-18
      327.297   5.13001e-18
      327.398   5.08948e-18
      327.499   5.04927e-18
      327.599   5.00974e-18
      327.700   4.97012e-18
      327.801   4.93080e-18
      327.902   4.89182e-18
      328.003   4.85310e-18
      328.104   4.81470e-18
      328.205   4.77659e-18
      328.306   4.73877e-18
      328.407   4.70123e-18
      328.508   4.66395e-18
      328.609   4.62697e-18
      328.710   4.59026e-18
      328.811   4.55384e-18
      328.912   4.51770e-18
      329.013   4.48181e-18
      329.115   4.44589e-18
      329.216   4.41056e-18
      329.317   4.37547e-18
      329.419   4.34034e-18
      329.520   4.30580e-18
      329.621   4.27147e-18
      329.723   4.23710e-18
      329.824   4.20335e-18
      329.926   4.16950e-18
      330.027   4.13622e-18
      330.129   4.10287e-18
      330.230   4.07011e-18
      330.332   4.03724e-18
      330.434   4.00463e-18
      330.535   3.97258e-18
      330.637   3.94045e-18
      330.739   3.90856e-18
      330.840   3.87721e-18
      330.942   3.84579e-18
      331.044   3.81461e-18
      331.146   3.78365e-18
      331.248   3.75293e-18
      331.350   3.72245e-18
      331.452   3.69222e-18
      331.554   3.66308e-18
      331.656   3.63550e-18
      331.758   3.60812e-18
      331.860   3.58090e-18
      331.962   3.55388e-18
      332.064   3.52704e-18
      332.166   3.50041e-18
      332.268   3.47392e-18
      332.371   3.44739e-18
      332.473   3.42126e-18
      332.575   3.39529e-18
      332.677   3.36952e-18
      332.780   3.34368e-18
      332.882   3.31826e-18
      332.985   3.29276e-18
      333.087   3.26767e-18
      333.190   3.24253e-18
      333.292   3.21736e-18
      333.395   3.19099e-18
      333.497   3.16465e-18
      333.600   3.13826e-18
      333.702   3.11232e-18
      333.805   3.08632e-18
      333.908   3.06050e-18
      334.011   3.03490e-18
      334.113   3.00972e-18
      334.216   2.98448e-18
      334.319   2.95945e-18
      334.422   2.93458e-18
      334.525   2.90991e-18
      334.628   2.88543e-18
      334.731   2.86114e-18
      334.834   2.83704e-18
      334.937   2.81312e-18
      335.040   2.78936e-18
      335.143   2.76581e-18
      335.246   2.74242e-18
      335.349   2.71920e-18
      335.452   2.69617e-18
      335.555   2.67332e-18
      335.659   2.65043e-18
      335.762   2.62793e-18
      335.865   2.60562e-18
      335.969   2.58324e-18
      336.072   2.56124e-18
      336.175   2.53942e-18
      336.279   2.51757e-18
      336.382   2.49610e-18
      336.486   2.47458e-18
      336.589   2.45342e-18
      336.693   2.43225e-18
      336.796   2.41144e-18
      336.900   2.39059e-18
      337.004   2.36990e-18
      337.107   2.34957e-18
      337.211   2.32921e-18
      337.315   2.30903e-18
      337.419   2.28899e-18
      337.523   2.26909e-18
      337.626   2.24956e-18
      337.730   2.23001e-18
      337.834   2.21059e-18
      337.938   2.19135e-18
      338.042   2.17233e-18
      338.146   2.15371e-18
      338.250   2.13527e-18
      338.354   2.11698e-18
      338.458   2.09883e-18
      338.562   2.08082e-18
      338.667   2.06279e-18
      338.771   2.04506e-18
      338.875   2.02748e-18
      338.979   2.01004e-18
      339.084   1.99259e-18
      339.188   1.97543e-18
      339.292   1.95843e-18
      339.397   1.94137e-18
      339.501   1.92464e-18
      339.606   1.90788e-18
      339.710   1.89141e-18
      339.815   1.87492e-18
      339.919   1.85873e-18
      340.024   1.84250e-18
      340.128   1.82658e-18
      340.233   1.81063e-18
      340.338   1.79482e-18
      340.442   1.77927e-18
      340.547   1.76372e-18
      340.652   1.74829e-18
      340.757   1.73299e-18
      340.862   1.71782e-18
      340.966   1.70293e-18
      341.071   1.68800e-18
      341.176   1.67321e-18
      341.281   1.65855e-18
      341.386   1.64402e-18
      341.491   1.62959e-18
      341.596   1.61531e-18
      341.702   1.60101e-18
      341.807   1.58695e-18
      341.912   1.57303e-18
      342.017   1.55923e-18
      342.122   1.54554e-18
      342.228   1.53183e-18
      342.333   1.51838e-18
      342.438   1.50505e-18
      342.544   1.49171e-18
      342.649   1.47860e-18
      342.754   1.46562e-18
      342.860   1.45261e-18
      342.965   1.43984e-18
      343.071   1.42708e-18
      343.176   1.41454e-18
      343.282   1.40199e-18
      343.388   1.38956e-18
      343.493   1.37744e-18
      343.599   1.36604e-18
      343.705   1.35483e-18
      343.810   1.34379e-18
      343.916   1.33275e-18
      344.022   1.32181e-18
      344.128   1.31095e-18
      344.234   1.30017e-18
      344.340   1.28950e-18
      344.446   1.27891e-18
      344.552   1.26840e-18
      344.658   1.25801e-18
      344.764   1.24768e-18
      344.870   1.23745e-18
      344.976   1.22730e-18
      345.082   1.21723e-18
      345.188   1.20726e-18
      345.294   1.19736e-18
      345.401   1.18746e-18
      345.507   1.17773e-18
      345.613   1.16809e-18
      345.719   1.15852e-18
      345.826   1.14896e-18
      345.932   1.13956e-18
      346.039   1.13015e-18
      346.145   1.12091e-18
      346.252   1.11167e-18
      346.358   1.10259e-18
      346.465   1.09350e-18
      346.571   1.08457e-18
      346.678   1.07564e-18
      346.785   1.06678e-18
      346.891   1.05809e-18
      346.998   1.04939e-18
      347.105   1.04077e-18
      347.212   1.03221e-18
      347.319   1.02374e-18
      347.425   1.01540e-18
      347.532   1.00707e-18
      347.639   9.98815e-19
      347.746   9.90625e-19
      347.853   9.82513e-19
      347.960   9.74463e-19
      348.067   9.66496e-19
      348.174   9.58598e-19
      348.281   9.50753e-19
      348.389   9.42920e-19
      348.496   9.35210e-19
      348.603   9.27588e-19
      348.710   9.20017e-19
      348.818   9.12456e-19
      348.925   9.05017e-19
      349.032   8.97654e-19
      349.140   8.90265e-19
      349.247   8.83006e-19
      349.355   8.75756e-19
      349.462   8.68628e-19
      349.570   8.61489e-19
      349.677   8.54488e-19
      349.785   8.47477e-19
      349.892   8.40598e-19
      350.000   8.33717e-19
      350.100   8.27396e-19
      350.193   8.21569e-19
      350.287   8.15719e-19
      350.380   8.09973e-19
      350.473   8.04276e-19
      350.567   7.98555e-19
      350.660   7.92943e-19
      350.754   7.87311e-19
      350.847   7.81790e-19
      350.941   7.76244e-19
      351.034   7.70799e-19
      351.128   7.65341e-19
      351.221   7.59980e-19
      351.315   7.54607e-19
      351.409   7.49265e-19
      351.502   7.44028e-19
      351.596   7.38770e-19
      351.690   7.33553e-19
      351.783   7.28434e-19
      351.877   7.23303e-19
      351.971   7.18201e-19
      352.065   7.13143e-19
      352.159   7.08126e-19
      352.252   7.03195e-19
      352.346   6.98248e-19
      352.440   6.93339e-19
      352.534   6.88474e-19
      352.628   6.83644e-19
      352.722   6.78845e-19
      352.816   6.74084e-19
      352.910   6.69361e-19
      353.004   6.64674e-19
      353.098   6.60018e-19
      353.192   6.55399e-19
      353.287   6.50769e-19
      353.381   6.46220e-19
      353.475   6.41708e-19
      353.569   6.37223e-19
      353.663   6.32775e-19
      353.758   6.28320e-19
      353.852   6.23942e-19
      353.946   6.19595e-19
      354.041   6.15233e-19
      354.135   6.10950e-19
      354.229   6.06697e-19
      354.324   6.02438e-19
      354.418   5.98246e-19
      354.513   5.94044e-19
      354.607   5.89926e-19
      354.702   5.85771e-19
      354.796   5.81643e-19
      354.891   5.77494e-19
      354.985   5.73424e-19
      355.080   5.69337e-19
      355.175   5.65284e-19
      355.269   5.61299e-19
      355.364   5.57305e-19
      355.459   5.53341e-19
      355.553   5.49448e-19
      355.648   5.45542e-19
      355.743   5.41667e-19
      355.838   5.37816e-19
      355.933   5.34000e-19
      356.027   5.30251e-19
      356.122   5.26486e-19
      356.217   5.22751e-19
      356.312   5.19046e-19
      356.407   5.15366e-19
      356.502   5.11714e-19
      356.597   5.08085e-19
      356.692   5.04489e-19
      356.787   5.00917e-19
      356.882   4.97369e-19
      356.977   4.93850e-19
      357.073   4.90321e-19
      357.168   4.86849e-19
      357.263   4.83405e-19
      357.358   4.79987e-19
      357.453   4.76595e-19
      357.549   4.73192e-19
      357.644   4.69847e-19
      357.739   4.66529e-19
      357.835   4.63199e-19
      357.930   4.59928e-19
      358.025   4.56679e-19
      358.121   4.53420e-19
      358.216   4.50218e-19
      358.312   4.47005e-19
      358.407   4.43851e-19
      358.503   4.40684e-19
      358.598   4.37577e-19
      358.694   4.34457e-19
      358.790   4.31359e-19
      358.885   4.28313e-19
      358.981   4.25260e-19
      359.076   4.22259e-19
      359.172   4.19251e-19
      359.268   4.16259e-19
      359.364   4.13289e-19
      359.459   4.10376e-19
      359.555   4.07452e-19
      359.651   4.04545e-19
      359.747   4.01660e-19
      359.843   3.98796e-19
      359.939   3.95951e-19
      360.035   3.93128e-19
      360.131   3.90324e-19
      360.227   3.87539e-19
      360.323   3.84775e-19
      360.419   3.82031e-19
      360.515   3.79306e-19
      360.611   3.76599e-19
      360.707   3.73909e-19
      360.803   3.71241e-19
      360.899   3.68589e-19
      360.995   3.65960e-19
      361.092   3.63319e-19
      361.188   3.60723e-19
      361.284   3.58145e-19
      361.380   3.55587e-19
      361.477   3.53017e-19
      361.573   3.50494e-19
      361.669   3.47987e-19
      361.766   3.45469e-19
      361.862   3.42998e-19
      361.959   3.40518e-19
      362.055   3.38075e-19
      362.152   3.35630e-19
      362.248   3.33223e-19
      362.345   3.30807e-19
      362.441   3.28437e-19
      362.538   3.26057e-19
      362.635   3.23693e-19
      362.731   3.21367e-19
      362.828   3.19032e-19
      362.925   3.16716e-19
      363.021   3.14440e-19
      363.118   3.12155e-19
      363.215   3.09883e-19
      363.312   3.07627e-19
      363.409   3.05390e-19
      363.505   3.03188e-19
      363.602   3.00978e-19
      363.699   2.98786e-19
      363.796   2.96606e-19
      363.893   2.94440e-19
      363.990   2.92290e-19
      364.087   2.90155e-19
      364.184   2.88034e-19
      364.281   2.85927e-19
      364.378   2.83836e-19
      364.475   2.81757e-19
      364.573   2.79670e-19
      364.670   2.77619e-19
      364.767   2.75583e-19
      364.864   2.73560e-19
      364.961   2.71550e-19
      365.059   2.69534e-19
      365.156   2.67552e-19
      365.253   2.65583e-19
      365.351   2.63607e-19
      365.448   2.61664e-19
      365.545   2.59735e-19
      365.643   2.57798e-19
      365.740   2.55894e-19
      365.838   2.53984e-19
      365.935   2.52106e-19
      366.033   2.50222e-19
      366.130   2.48368e-19
      366.228   2.46509e-19
      366.326   2.44663e-19
      366.423   2.42846e-19
      366.521   2.41024e-19
      366.618   2.39232e-19
      366.716   2.37433e-19
      366.814   2.35648e-19
      366.912   2.33875e-19
      367.010   2.32114e-19
      367.107   2.30382e-19
      367.205   2.28643e-19
      367.303   2.26917e-19
      367.401   2.25202e-19
      367.499   2.23499e-19
      367.597   2.21807e-19
      367.695   2.20126e-19
      367.793   2.18458e-19
      367.891   2.16802e-19
      367.989   2.15155e-19
      368.087   2.13520e-19
      368.185   2.11896e-19
      368.283   2.10283e-19
      368.381   2.08681e-19
      368.480   2.07073e-19
      368.578   2.05493e-19
      368.676   2.03924e-19
      368.774   2.02366e-19
      368.873   2.00803e-19
      368.971   1.99266e-19
      369.069   1.97740e-19
      369.168   1.96207e-19
      369.266   1.94700e-19
      369.364   1.93205e-19
      369.463   1.91705e-19
      369.561   1.90231e-19
      369.660   1.88751e-19
      369.758   1.87296e-19
      369.857   1.85837e-19
      369.955   1.84403e-19
      370.054   1.82963e-19
      370.153   1.81534e-19
      370.251   1.80129e-19
      370.350   1.78720e-19
      370.449   1.77322e-19
      370.547   1.75946e-19
      370.646   1.74565e-19
      370.745   1.73196e-19
      370.844   1.71835e-19
      370.943   1.70485e-19
      371.041   1.69157e-19
      371.140   1.67825e-19
      371.239   1.66502e-19
      371.338   1.65189e-19
      371.437   1.63886e-19
      371.536   1.62591e-19
      371.635   1.61305e-19
      371.734   1.60030e-19
      371.833   1.58763e-19
      371.932   1.57505e-19
      372.032   1.56244e-19
      372.131   1.55003e-19
      372.230   1.53773e-19
      372.329   1.52552e-19
      372.428   1.51339e-19
      372.528   1.50124e-19
      372.627   1.48929e-19
      372.726   1.47743e-19
      372.826   1.46554e-19
      372.925   1.45385e-19
      373.024   1.44225e-19
      373.124   1.43061e-19
      373.223   1.41917e-19
      373.323   1.40772e-19
      373.422   1.39645e-19
      373.522   1.38515e-19
      373.621   1.37405e-19
      373.721   1.36292e-19
      373.820   1.35199e-19
      373.920   1.34102e-19
      374.020   1.33013e-19
      374.119   1.31944e-19
      374.219   1.30871e-19
      374.319   1.29807e-19
      374.419   1.28752e-19
      374.518   1.27714e-19
      374.618   1.26673e-19
      374.718   1.25640e-19
      374.818   1.24615e-19
      374.918   1.23599e-19
      375.018   1.22589e-19
      375.118   1.21588e-19
      375.218   1.20594e-19
      375.318   1.19607e-19
      375.418   1.18628e-19
      375.518   1.17658e-19
      375.618   1.16694e-19
      375.718   1.15737e-19
      375.818   1.14788e-19
      375.918   1.13846e-19
      376.019   1.12903e-19
      376.119   1.11976e-19
      376.219   1.11056e-19
      376.319   1.10143e-19
      376.420   1.09229e-19
      376.520   1.08330e-19
      376.620   1.07439e-19
      376.721   1.06545e-19
      376.821   1.05668e-19
      376.922   1.04789e-19
      377.022   1.03925e-19
      377.122   1.03068e-19
      377.223   1.02210e-19
      377.323   1.01367e-19
      377.424   1.00522e-19
      377.525   9.96837e-20
      377.625   9.88603e-20
      377.726   9.80355e-20
      377.827   9.72176e-20
      377.927   9.64138e-20
      378.028   9.56090e-20
      378.129   9.48105e-20
      378.230   9.41240e-20
      378.330   9.36104e-20
      378.431   9.31214e-20
      378.532   9.26352e-20
      378.633   9.21507e-20
      378.734   9.16690e-20
      378.835   9.11895e-20
      378.936   9.07123e-20
      379.037   9.02373e-20
      379.138   8.97640e-20
      379.239   8.92935e-20
      379.340   8.88260e-20
      379.441   8.83604e-20
      379.542   8.78967e-20
      379.643   8.74357e-20
      379.745   8.69723e-20
      379.846   8.65157e-20
      379.947   8.60607e-20
      380.048   8.56088e-20
      380.150   8.51546e-20
      380.251   8.47070e-20
      380.352   8.42619e-20
      380.454   8.38149e-20
      380.555   8.33739e-20
      380.656   8.29350e-20
      380.758   8.24945e-20
      380.859   8.20603e-20
      380.961   8.16244e-20
      381.062   8.11949e-20
      381.164   8.07634e-20
      381.266   8.03341e-20
      381.367   7.99113e-20
      381.469   7.94868e-20
      381.570   7.90686e-20
      381.672   7.86482e-20
      381.774   7.82301e-20
      381.876   7.78143e-20
      381.977   7.74049e-20
      382.079   7.69935e-20
      382.181   7.65843e-20
      382.283   7.61777e-20
      382.385   7.57729e-20
      382.487   7.53705e-20
      382.589   7.49702e-20
      382.691   7.45719e-20
      382.793   7.41760e-20
      382.895   7.37825e-20
      382.997   7.33910e-20
      383.099   7.30015e-20
      383.201   7.26142e-20
      383.303   7.22294e-20
      383.405   7.18460e-20
      383.507   7.14648e-20
      383.610   7.10825e-20
      383.712   7.07058e-20
      383.814   7.03315e-20
      383.916   6.99594e-20
      384.019   6.95854e-20
      384.121   6.92172e-20
      384.223   6.88508e-20
      384.326   6.84952e-20
      384.428   6.81748e-20
      384.531   6.78616e-20
      384.633   6.75532e-20
      384.736   6.72432e-20
      384.838   6.69373e-20
      384.941   6.66303e-20
      385.043   6.63277e-20
      385.146   6.60243e-20
      385.249   6.57218e-20
      385.351   6.54238e-20
      385.454   6.51246e-20
      385.557   6.48269e-20
      385.660   6.45308e-20
      385.762   6.42391e-20
      385.865   6.39459e-20
      385.968   6.36541e-20
      386.071   6.33639e-20
      386.174   6.30751e-20
      386.277   6.27879e-20
      386.380   6.25021e-20
      386.483   6.22176e-20
      386.586   6.19354e-20
      386.689   6.16541e-20
      386.792   6.13742e-20
      386.895   6.10957e-20
      386.998   6.08189e-20
      387.101   6.05433e-20
      387.204   6.02687e-20
      387.308   5.99937e-20
      387.411   5.97225e-20
      387.514   5.94526e-20
      387.617   5.91841e-20
      387.721   5.89146e-20
      387.824   5.86491e-20
      387.927   5.83847e-20
      388.031   5.81193e-20
      388.134   5.78578e-20
      388.238   5.75954e-20
      388.341   5.73366e-20
      388.445   5.70769e-20
      388.548   5.68206e-20
      388.652   5.65639e-20
      388.755   5.63107e-20
      388.859   5.60561e-20
      388.962   5.58054e-20
      389.066   5.55535e-20
      389.170   5.53032e-20
      389.274   5.50543e-20
      389.377   5.48092e-20
      389.481   5.45625e-20
      389.585   5.43173e-20
      389.689   5.40733e-20
      389.793   5.38308e-20
      389.897   5.35895e-20
      390.000   5.33520e-20
      390.104   5.31133e-20
      390.208   5.28756e-20
      390.312   5.26393e-20
      390.416   5.24038e-20
      390.520   5.21690e-20
      390.625   5.19334e-20
      390.729   5.17011e-20
      390.833   5.14701e-20
      390.937   5.12403e-20
      391.041   5.10118e-20
      391.145   5.07842e-20
      391.250   5.05559e-20
      391.354   5.03308e-20
      391.458   5.01068e-20
      391.563   4.98820e-20
      391.667   4.96605e-20
      391.771   4.94402e-20
      391.876   4.92190e-20
      391.980   4.90007e-20
      392.085   4.87817e-20
      392.189   4.85660e-20
      392.294   4.83492e-20
      392.398   4.81357e-20
      392.503   4.79211e-20
      392.607   4.77096e-20
      392.712   4.74976e-20
      392.817   4.72860e-20
      392.921   4.70782e-20
      393.026   4.68690e-20
      393.131   4.66612e-20
      393.236   4.64540e-20
      393.340   4.62504e-20
      393.445   4.60458e-20
      393.550   4.58419e-20
      393.655   4.56393e-20
      393.760   4.54376e-20
      393.865   4.52371e-20
      393.970   4.50375e-20
      394.075   4.48388e-20
      394.180   4.46415e-20
      394.285   4.44450e-20
      394.390   4.42492e-20
      394.495   4.40545e-20
      394.600   4.38610e-20
      394.706   4.36664e-20
      394.811   4.34750e-20
      394.916   4.32838e-20
      395.021   4.30940e-20
      395.126   4.29052e-20
      395.232   4.27153e-20
      395.337   4.25281e-20
      395.443   4.23403e-20
      395.548   4.21549e-20
      395.653   4.19705e-20
      395.759   4.17854e-20
      395.864   4.16030e-20
      395.970   4.14197e-20
      396.075   4.12389e-20
      396.181   4.10572e-20
      396.286   4.08778e-20
      396.392   4.06981e-20
      396.498   4.05192e-20
      396.603   4.03424e-20
      396.709   4.01649e-20
      396.815   3.99878e-20
      396.921   3.98120e-20
      397.026   3.96386e-20
      397.132   3.94646e-20
      397.238   3.92913e-20
      397.344   3.91186e-20
      397.450   3.89470e-20
      397.556   3.87759e-20
      397.662   3.86056e-20
      397.768   3.84362e-20
      397.874   3.82679e-20
      397.980   3.80996e-20
      398.086   3.79326e-20
      398.192   3.77660e-20
      398.298   3.76003e-20
      398.404   3.74357e-20
      398.510   3.72713e-20
      398.617   3.71063e-20
      398.723   3.69436e-20
      398.829   3.67815e-20
      398.935   3.66200e-20
      399.042   3.64581e-20
      399.148   3.62979e-20
      399.255   3.61372e-20
      399.361   3.59786e-20
      399.467   3.58205e-20
      399.574   3.56621e-20
      399.680   3.55053e-20
      399.787   3.53476e-20
      399.893       0.00000
      400.000       0.00000
