Filter Al-med
observation_date 22-Sept-2010 22:40:45
wavelength effective area 
      1.00000   2.66386e-10
      1.10000   7.49530e-10
      1.20000   1.91515e-09
      1.30000   4.48767e-09
      1.40000   9.94653e-09
      1.50000   2.06566e-08
      1.60000   4.05608e-08
      1.70000   7.60820e-08
      1.80000   1.36317e-07
      1.90000   2.34802e-07
      2.00000   3.89524e-07
      2.10000   6.24984e-07
      2.20000   9.74247e-07
      2.30000   1.47341e-06
      2.40000   2.16551e-06
      2.50000   3.08240e-06
      2.60000   4.35771e-06
      2.70000   5.98609e-06
      2.80000   8.02360e-06
      2.90000   1.05778e-05
      3.00000   1.36522e-05
      3.10000   1.72921e-05
      3.20000   2.15323e-05
      3.30000   2.63762e-05
      3.40000   3.17798e-05
      3.50000   3.76926e-05
      3.60000   4.41829e-05
      3.70000   5.09555e-05
      3.80000   5.81053e-05
      3.90000   6.54605e-05
      4.00000   7.28250e-05
      4.10000   8.01068e-05
      4.20000   8.72100e-05
      4.30000   9.40174e-05
      4.40000   0.000100398
      4.50000   0.000106203
      4.60000   0.000111251
      4.70000   0.000115706
      4.80000   0.000119313
      4.90000   0.000120790
      5.00000   0.000124409
      5.10000   0.000125716
      5.20000   0.000126299
      5.30000   0.000125183
      5.40000   0.000122869
      5.50000   0.000120044
      5.60000   0.000112996
      5.70000   0.000111334
      5.80000   9.79232e-05
      5.90000   0.000111741
      6.00000   0.000111621
      6.10000   0.000105364
      6.20000   9.57461e-05
      6.30000   8.27268e-05
      6.40000   6.79883e-05
      6.50000   5.32622e-05
      6.60000   3.95434e-05
      6.70000   2.88105e-05
      6.80000   2.03903e-05
      6.90000   1.87414e-05
      7.00000   1.42211e-05
      7.10000   1.04284e-05
      7.20000   7.50367e-06
      7.30000   5.35115e-06
      7.40000   3.78911e-06
      7.50000   2.63964e-06
      7.60000   1.80653e-06
      7.70000   1.23203e-06
      7.80000   8.21937e-07
      7.90000   5.43124e-07
      8.00000      0.299805
      8.10000      0.316198
      8.20000      0.309183
      8.30000      0.300690
      8.40000      0.291637
      8.50000      0.282304
      8.60000      0.272650
      8.70000      0.262829
      8.80000      0.252816
      8.90000      0.242714
      9.00000      0.232580
      9.10000      0.222457
      9.20000      0.212389
      9.30000      0.202456
      9.40000      0.192653
      9.50000      0.183007
      9.60000      0.173600
      9.70000      0.164402
      9.80000      0.155401
      9.90000      0.146654
      10.0000      0.138162
      10.1000      0.129926
      10.2000      0.121960
      10.3000      0.114320
      10.4000      0.107012
      10.5000      0.100011
      10.6000     0.0933197
      10.7000     0.0869384
      10.8000     0.0808791
      10.9000     0.0751527
      11.0000     0.0697234
      11.1000     0.0645872
      11.2000     0.0597367
      11.3000     0.0551667
      11.4000     0.0508679
      11.5000     0.0468307
      11.6000     0.0430470
      11.7000     0.0395209
      11.8000     0.0362325
      11.9000     0.0331949
      12.0000     0.0303510
      12.1000     0.0278256
      12.2000     0.0259423
      12.3000     0.0238750
      12.4000     0.0217651
      12.5000     0.0197978
      12.6000     0.0179756
      12.7000     0.0162933
      12.8000     0.0147450
      12.9000     0.0133238
      13.0000     0.0120218
      13.1000     0.0108306
      13.2000    0.00974275
      13.3000    0.00875083
      13.4000    0.00784807
      13.5000    0.00702990
      13.6000    0.00629479
      13.7000    0.00562850
      13.8000    0.00502529
      13.9000    0.00448009
      14.0000    0.00398790
      14.1000    0.00354403
      14.2000    0.00314425
      14.3000    0.00278474
      14.4000    0.00246196
      14.5000    0.00217457
      14.6000    0.00192032
      14.7000    0.00169276
      14.8000    0.00148932
      14.9000    0.00130767
      15.0000    0.00114573
      15.1000    0.00100162
      15.2000   0.000876579
      15.3000   0.000766001
      15.4000   0.000667827
      15.5000   0.000580814
      15.6000   0.000503861
      15.7000   0.000437037
      15.8000   0.000379382
      15.9000   0.000328512
      16.0000   0.000283721
      16.1000   0.000244376
      16.2000   0.000211058
      16.3000   0.000182083
      16.4000   0.000156571
      16.5000   0.000134169
      16.6000   0.000115014
      16.7000   9.87180e-05
      16.8000   8.43882e-05
      16.9000   7.18344e-05
      17.0000   6.12111e-05
      17.1000   5.22188e-05
      17.2000   4.43297e-05
      17.3000   3.74483e-05
      17.4000   3.18570e-05
      17.5000   2.70864e-05
      17.6000   2.29477e-05
      17.7000   1.94521e-05
      17.8000   1.66344e-05
      17.9000   1.41471e-05
      18.0000   1.19546e-05
      18.1000   1.01701e-05
      18.2000   8.59266e-06
      18.3000   7.19226e-06
      18.4000   6.02482e-06
      18.5000   5.02280e-06
      18.6000   4.13709e-06
      18.7000   3.40221e-06
      18.8000   2.79730e-06
      18.9000   2.27398e-06
      19.0000   1.85906e-06
      19.1000   1.52044e-06
      19.2000   1.22883e-06
      19.3000   1.00433e-06
      19.4000   8.18757e-07
      19.5000   6.59224e-07
      19.6000   5.40825e-07
      19.7000   4.39584e-07
      19.8000   3.53558e-07
      19.9000   2.90346e-07
      20.0000   2.34585e-07
      20.1000   1.89591e-07
      20.2000   1.54230e-07
      20.3000   1.23272e-07
      20.4000   1.00071e-07
      20.5000   8.04357e-08
      20.6000   6.39796e-08
      20.7000   5.18245e-08
      20.8000   4.10581e-08
      20.9000   3.29412e-08
      21.0000   2.62545e-08
      21.1000   2.06416e-08
      21.2000   1.65878e-08
      21.3000   1.29776e-08
      21.4000   1.03474e-08
      21.5000   8.14190e-09
      21.6000   6.36686e-09
      21.7000   5.04764e-09
      21.8000   3.88017e-09
      21.9000   3.09392e-09
      22.0000   2.38864e-09
      22.1000   1.87135e-09
      22.2000   1.44943e-09
      22.3000   1.11043e-09
      22.4000   8.52900e-10
      22.5000   6.21856e-10
      22.6000   4.46521e-10
      22.7000   3.00375e-10
      22.8000   2.86269e-10
      22.9000   2.82069e-10
      23.0000   2.85944e-10
      23.1000   2.65863e-10
      23.2000   2.23519e-10
      23.3000   1.82122e-10
      23.4000   1.41279e-10
      23.5000   1.12036e-10
      23.6000   8.56778e-11
      23.7000   6.80485e-11
      23.8000   5.13820e-11
      23.9000   4.08077e-11
      24.0000   3.07817e-11
      24.1000   2.42449e-11
      24.2000   1.82512e-11
      24.3000   1.42808e-11
      24.4000   1.07432e-11
      24.5000   8.36184e-12
      24.6000   6.28718e-12
      24.7000   4.87097e-12
      24.8000   3.65912e-12
      24.9000   2.83022e-12
      25.0000   2.12554e-12
      25.1000   1.63928e-12
      25.2000   1.22713e-12
      25.3000   9.45851e-13
      25.4000   7.05589e-13
      25.5000   5.43311e-13
      25.6000   4.02798e-13
      25.7000   3.10280e-13
      25.8000   2.28361e-13
      25.9000   1.76123e-13
      26.0000   1.28460e-13
      26.1000   9.93069e-14
      26.2000   7.16810e-14
      26.3000   5.56003e-14
      26.4000   3.96596e-14
      26.5000   3.08942e-14
      26.6000   2.21653e-14
      26.7000   1.70271e-14
      26.8000   1.23311e-14
      26.9000   9.30573e-15
      27.0000   6.81006e-15
      27.1000   5.03863e-15
      27.2000   3.72829e-15
      27.3000   2.70353e-15
      27.4000   2.03361e-15
      27.5000   1.44843e-15
      27.6000   1.09999e-15
      27.7000   7.62560e-16
      27.8000   5.86043e-16
      27.9000   4.10243e-16
      28.0000   3.08364e-16
      28.1000   2.21156e-16
      28.2000   1.60925e-16
      28.3000   1.18722e-16
      28.4000   8.39903e-17
      28.5000   6.33206e-17
      28.6000   4.34900e-17
      28.7000   3.37719e-17
      28.8000   2.40939e-17
      28.9000   1.81730e-17
      29.0000   1.33359e-17
      29.1000   9.64931e-18
      29.2000   7.26273e-18
      29.3000   5.05352e-18
      29.4000   3.89101e-18
      29.5000   2.73337e-18
      29.6000   2.05041e-18
      29.7000   1.49400e-18
      29.8000   1.06264e-18
      29.9000   7.98806e-19
      30.0000   5.41567e-19
      30.1000   4.18163e-19
      30.2000   2.95272e-19
      30.3000   2.16428e-19
      30.4000   1.62849e-19
      30.5000   1.14945e-19
      30.6000   8.75059e-20
      30.7000   6.01814e-20
      30.8000   4.44174e-20
      30.9000   3.21592e-20
      31.0000   2.20188e-20
      31.1000   1.66001e-20
      31.2000   1.12041e-20
      31.3000   8.31163e-21
      31.4000   5.96207e-21
      31.5000   4.04819e-21
      31.6000   3.04066e-21
      31.7000   2.03737e-21
      31.8000   1.49634e-21
      31.9000   1.07272e-21
      32.0000   7.13554e-22
      32.1000   5.37481e-22
      32.2000   3.62143e-22
      32.3000   2.58640e-22
      32.4000   1.86957e-22
      32.5000   1.20228e-22
      32.6000   9.14109e-23
      32.7000   6.27127e-23
      32.8000   4.28081e-23
      32.9000   3.14510e-23
      33.0000   2.01419e-23
      33.1000   1.49057e-23
      33.2000   1.05075e-23
      33.3000   6.75689e-24
      33.4000   5.07402e-24
      33.5000   3.39809e-24
      33.6000   2.31621e-24
      33.7000   1.68617e-24
      33.8000   1.05864e-24
      33.9000   7.78115e-25
      34.0000   5.46354e-25
      34.1000   3.39945e-25
      34.2000   2.54748e-25
      34.3000   1.69864e-25
      34.4000   1.09270e-25
      34.5000   7.98564e-26
      34.6000   5.05526e-26
      34.7000   3.41617e-26
      34.8000   2.37892e-26
      34.9000   1.34547e-26
      35.0000   9.62755e-27
      35.1000   6.48352e-27
      35.2000   3.58752e-27
      35.3000   2.65400e-27
      35.4000   1.72389e-27
      35.5000   9.85495e-28
      35.6000   7.16057e-28
      35.7000   4.47603e-28
      35.8000   2.65020e-28
      35.9000   1.89195e-28
      36.0000   1.13646e-28
      36.1000   6.97898e-29
      36.2000   4.89925e-29
      36.3000   2.82709e-29
      36.4000   1.80001e-29
      36.5000   1.24428e-29
      36.6000   6.90616e-30
      36.7000   4.54656e-30
      36.8000   3.10154e-30
      36.9000   1.66188e-30
      37.0000   1.12511e-30
      37.1000   7.59518e-31
      37.2000   3.95255e-31
      37.3000   2.72781e-31
      37.4000   1.82823e-31
      37.5000   9.31979e-32
      37.6000   6.47837e-32
      37.7000   4.32725e-32
      37.8000   2.18408e-32
      37.9000   1.50681e-32
      38.0000   1.00706e-32
      38.1000   5.09128e-33
      38.2000   3.43000e-33
      38.3000   2.30273e-33
      38.4000   1.17958e-33
      38.5000   7.63397e-34
      38.6000   5.16771e-34
      38.7000   2.71042e-34
      38.8000   1.65997e-34
      38.9000   1.13679e-34
      39.0000   6.15489e-35
      39.1000   3.52257e-35
      39.2000   2.44710e-35
      39.3000   1.37550e-35
      39.4000   7.28571e-36
      39.5000   5.14471e-36
      39.6000   3.01156e-36
      39.7000   1.46671e-36
      39.8000   1.05428e-36
      39.9000   6.43319e-37
      40.0000   2.87008e-37
      40.1000   2.10164e-37
      40.2000   1.33596e-37
      40.3000   5.73108e-38
      40.4000   4.06749e-38
      40.5000   2.68870e-38
      40.6000   1.31481e-38
      40.7000   7.62846e-39
      40.8000   5.23012e-39
      40.9000   2.84052e-39
      41.0000   1.38361e-39
      41.1000   9.81140e-40
      41.2000   5.80145e-40
      41.3000   2.42376e-40
      41.4000   1.77256e-40
      41.5000   1.12358e-40
      41.6000   4.76946e-41
      41.7000   3.08019e-41
      41.8000   2.06776e-41
      41.9000   1.05910e-41
      42.0000   5.14417e-42
      42.1000   3.62376e-42
      42.2000   2.10615e-42
      42.3000   8.21161e-43
      42.4000   6.03960e-43
      42.5000   3.86758e-43
      42.6000   1.69557e-43
      42.7000   9.52883e-44
      42.8000   6.44597e-44
      42.9000   3.22299e-44
      43.0000   1.54143e-44
      43.1000   1.26117e-44
      43.2000   7.00649e-45
      43.3000       0.00000
      43.4000   2.80260e-45
      43.5000   2.80260e-45
      43.6000   2.80260e-45
      43.7000       0.00000
      43.8000       0.00000
      43.9000       0.00000
      44.0000       0.00000
      44.1000       0.00000
      44.2000       0.00000
      44.3000       0.00000
      44.4000       0.00000
      44.5000       0.00000
      44.6000       0.00000
      44.7000       0.00000
      44.8000       0.00000
      44.9000       0.00000
      45.0000       0.00000
      45.1000       0.00000
      45.2000       0.00000
      45.3000       0.00000
      45.4000       0.00000
      45.5000       0.00000
      45.6000       0.00000
      45.7000       0.00000
      45.8000       0.00000
      45.9000       0.00000
      46.0000       0.00000
      46.1000       0.00000
      46.2000       0.00000
      46.3000       0.00000
      46.4000       0.00000
      46.5000       0.00000
      46.6000       0.00000
      46.7000       0.00000
      46.8000       0.00000
      46.9000       0.00000
      47.0000       0.00000
      47.1000       0.00000
      47.2000       0.00000
      47.3000       0.00000
      47.4000       0.00000
      47.5000       0.00000
      47.6000       0.00000
      47.7000       0.00000
      47.8000       0.00000
      47.9000       0.00000
      48.0000       0.00000
      48.1000       0.00000
      48.2000       0.00000
      48.3000       0.00000
      48.4000       0.00000
      48.5000       0.00000
      48.6000       0.00000
      48.7000       0.00000
      48.8000       0.00000
      48.9000       0.00000
      49.0000       0.00000
      49.1000       0.00000
      49.2000       0.00000
      49.3000       0.00000
      49.4000       0.00000
      49.5000       0.00000
      49.6000       0.00000
      49.7000       0.00000
      49.8000       0.00000
      49.9000       0.00000
      50.0000       0.00000
      50.1000       0.00000
      50.2000       0.00000
      50.3000       0.00000
      50.4000       0.00000
      50.5000       0.00000
      50.6000       0.00000
      50.7000       0.00000
      50.8000       0.00000
      50.9000       0.00000
      51.0000       0.00000
      51.1000       0.00000
      51.2000       0.00000
      51.3000       0.00000
      51.4000       0.00000
      51.5000       0.00000
      51.6000       0.00000
      51.7000       0.00000
      51.8000       0.00000
      51.9000       0.00000
      52.0000       0.00000
      52.1000       0.00000
      52.2000       0.00000
      52.3000       0.00000
      52.4000       0.00000
      52.5000       0.00000
      52.6000       0.00000
      52.7000       0.00000
      52.8000       0.00000
      52.9000       0.00000
      53.0000       0.00000
      53.1000       0.00000
      53.2000       0.00000
      53.3000       0.00000
      53.4000       0.00000
      53.5000       0.00000
      53.6000       0.00000
      53.7000       0.00000
      53.8000       0.00000
      53.9000       0.00000
      54.0000       0.00000
      54.1000       0.00000
      54.2000       0.00000
      54.3000       0.00000
      54.4000       0.00000
      54.5000       0.00000
      54.6000       0.00000
      54.7000       0.00000
      54.8000       0.00000
      54.9000       0.00000
      55.0000       0.00000
      55.1000       0.00000
      55.2000       0.00000
      55.3000       0.00000
      55.4000       0.00000
      55.5000       0.00000
      55.6000       0.00000
      55.7000       0.00000
      55.8000       0.00000
      55.9000       0.00000
      56.0000       0.00000
      56.1000       0.00000
      56.2000       0.00000
      56.3000       0.00000
      56.4000       0.00000
      56.5000       0.00000
      56.6000       0.00000
      56.7000       0.00000
      56.8000       0.00000
      56.9000       0.00000
      57.0000       0.00000
      57.1000       0.00000
      57.2000       0.00000
      57.3000       0.00000
      57.4000       0.00000
      57.5000       0.00000
      57.6000       0.00000
      57.7000       0.00000
      57.8000       0.00000
      57.9000       0.00000
      58.0000       0.00000
      58.1000       0.00000
      58.2000       0.00000
      58.3000       0.00000
      58.4000       0.00000
      58.5000       0.00000
      58.6000       0.00000
      58.7000       0.00000
      58.8000       0.00000
      58.9000       0.00000
      59.0000       0.00000
      59.1000       0.00000
      59.2000       0.00000
      59.3000       0.00000
      59.4000       0.00000
      59.5000       0.00000
      59.6000       0.00000
      59.7000       0.00000
      59.8000       0.00000
      59.9000       0.00000
      60.0000       0.00000
      60.1000       0.00000
      60.2000       0.00000
      60.3000       0.00000
      60.4000       0.00000
      60.5000       0.00000
      60.6000       0.00000
      60.7000       0.00000
      60.8000       0.00000
      60.9000       0.00000
      61.0000       0.00000
      61.1000       0.00000
      61.2000       0.00000
      61.3000       0.00000
      61.4000       0.00000
      61.5000       0.00000
      61.6000       0.00000
      61.7000       0.00000
      61.8000       0.00000
      61.9000       0.00000
      62.0000       0.00000
      62.1000       0.00000
      62.2000       0.00000
      62.3000       0.00000
      62.4000       0.00000
      62.5000       0.00000
      62.6000       0.00000
      62.7000       0.00000
      62.8000       0.00000
      62.9000       0.00000
      63.0000       0.00000
      63.1000       0.00000
      63.2000       0.00000
      63.3000       0.00000
      63.4000       0.00000
      63.5000       0.00000
      63.6000       0.00000
      63.7000       0.00000
      63.8000       0.00000
      63.9000       0.00000
      64.0000       0.00000
      64.1000       0.00000
      64.2000       0.00000
      64.3000       0.00000
      64.4000       0.00000
      64.5000       0.00000
      64.6000       0.00000
      64.7000       0.00000
      64.8000       0.00000
      64.9000       0.00000
      65.0000       0.00000
      65.1000       0.00000
      65.2000       0.00000
      65.3000       0.00000
      65.4000       0.00000
      65.5000       0.00000
      65.6000       0.00000
      65.7000       0.00000
      65.8000       0.00000
      65.9000       0.00000
      66.0000       0.00000
      66.1000       0.00000
      66.2000       0.00000
      66.3000       0.00000
      66.4000       0.00000
      66.5000       0.00000
      66.6000       0.00000
      66.7000       0.00000
      66.8000       0.00000
      66.9000       0.00000
      67.0000       0.00000
      67.1000       0.00000
      67.2000       0.00000
      67.3000       0.00000
      67.4000       0.00000
      67.5000       0.00000
      67.6000       0.00000
      67.7000       0.00000
      67.8000       0.00000
      67.9000       0.00000
      68.0000       0.00000
      68.1000       0.00000
      68.2000       0.00000
      68.3000       0.00000
      68.4000       0.00000
      68.5000       0.00000
      68.6000       0.00000
      68.7000       0.00000
      68.8000       0.00000
      68.9000       0.00000
      69.0000       0.00000
      69.1000       0.00000
      69.2000       0.00000
      69.3000       0.00000
      69.4000       0.00000
      69.5000       0.00000
      69.6000       0.00000
      69.7000       0.00000
      69.8000       0.00000
      69.9000       0.00000
      70.0000       0.00000
      70.1000       0.00000
      70.2000       0.00000
      70.3000       0.00000
      70.4000       0.00000
      70.5000       0.00000
      70.6000       0.00000
      70.7000       0.00000
      70.8000       0.00000
      70.9000       0.00000
      71.0000       0.00000
      71.1000       0.00000
      71.2000       0.00000
      71.3000       0.00000
      71.4000       0.00000
      71.5000       0.00000
      71.6000       0.00000
      71.7000       0.00000
      71.8000       0.00000
      71.9000       0.00000
      72.0000       0.00000
      72.1000       0.00000
      72.2000       0.00000
      72.3000       0.00000
      72.4000       0.00000
      72.5000       0.00000
      72.6000       0.00000
      72.7000       0.00000
      72.8000       0.00000
      72.9000       0.00000
      73.0000       0.00000
      73.1000       0.00000
      73.2000       0.00000
      73.3000       0.00000
      73.4000       0.00000
      73.5000       0.00000
      73.6000       0.00000
      73.7000       0.00000
      73.8000       0.00000
      73.9000       0.00000
      74.0000       0.00000
      74.1000       0.00000
      74.2000       0.00000
      74.3000       0.00000
      74.4000       0.00000
      74.5000       0.00000
      74.6000       0.00000
      74.7000       0.00000
      74.8000       0.00000
      74.9000       0.00000
      75.0000       0.00000
      75.1000       0.00000
      75.2000       0.00000
      75.3000       0.00000
      75.4000       0.00000
      75.5000       0.00000
      75.6000       0.00000
      75.7000       0.00000
      75.8000       0.00000
      75.9000       0.00000
      76.0000       0.00000
      76.1000       0.00000
      76.2000       0.00000
      76.3000       0.00000
      76.4000       0.00000
      76.5000       0.00000
      76.6000       0.00000
      76.7000       0.00000
      76.8000       0.00000
      76.9000       0.00000
      77.0000       0.00000
      77.1000       0.00000
      77.2000       0.00000
      77.3000       0.00000
      77.4000       0.00000
      77.5000       0.00000
      77.6000       0.00000
      77.7000       0.00000
      77.8000       0.00000
      77.9000       0.00000
      78.0000       0.00000
      78.1000       0.00000
      78.2000       0.00000
      78.3000       0.00000
      78.4000       0.00000
      78.5000       0.00000
      78.6000       0.00000
      78.7000       0.00000
      78.8000       0.00000
      78.9000       0.00000
      79.0000       0.00000
      79.1000       0.00000
      79.2000       0.00000
      79.3000       0.00000
      79.4000       0.00000
      79.5000       0.00000
      79.6000       0.00000
      79.7000       0.00000
      79.8000       0.00000
      79.9000       0.00000
      80.0000       0.00000
      80.1000       0.00000
      80.2000       0.00000
      80.3000       0.00000
      80.4000       0.00000
      80.5000       0.00000
      80.6000       0.00000
      80.7000       0.00000
      80.8000       0.00000
      80.9000       0.00000
      81.0000       0.00000
      81.1000       0.00000
      81.2000       0.00000
      81.3000       0.00000
      81.4000       0.00000
      81.5000       0.00000
      81.6000       0.00000
      81.7000       0.00000
      81.8000       0.00000
      81.9000       0.00000
      82.0000       0.00000
      82.1000       0.00000
      82.2000       0.00000
      82.3000       0.00000
      82.4000       0.00000
      82.5000       0.00000
      82.6000       0.00000
      82.7000       0.00000
      82.8000       0.00000
      82.9000       0.00000
      83.0000       0.00000
      83.1000       0.00000
      83.2000       0.00000
      83.3000       0.00000
      83.4000       0.00000
      83.5000       0.00000
      83.6000       0.00000
      83.7000       0.00000
      83.8000       0.00000
      83.9000       0.00000
      84.0000       0.00000
      84.1000       0.00000
      84.2000       0.00000
      84.3000       0.00000
      84.4000       0.00000
      84.5000       0.00000
      84.6000       0.00000
      84.7000       0.00000
      84.8000       0.00000
      84.9000       0.00000
      85.0000       0.00000
      85.1000       0.00000
      85.2000       0.00000
      85.3000       0.00000
      85.4000       0.00000
      85.5000       0.00000
      85.6000       0.00000
      85.7000       0.00000
      85.8000       0.00000
      85.9000       0.00000
      86.0000       0.00000
      86.1000       0.00000
      86.2000       0.00000
      86.3000       0.00000
      86.4000       0.00000
      86.5000       0.00000
      86.6000       0.00000
      86.7000       0.00000
      86.8000       0.00000
      86.9000       0.00000
      87.0000       0.00000
      87.1000       0.00000
      87.2000       0.00000
      87.3000       0.00000
      87.4000       0.00000
      87.5000       0.00000
      87.6000       0.00000
      87.7000       0.00000
      87.8000       0.00000
      87.9000       0.00000
      88.0000       0.00000
      88.1000       0.00000
      88.2000       0.00000
      88.3000       0.00000
      88.4000       0.00000
      88.5000       0.00000
      88.6000       0.00000
      88.7000       0.00000
      88.8000       0.00000
      88.9000       0.00000
      89.0000       0.00000
      89.1000       0.00000
      89.2000       0.00000
      89.3000       0.00000
      89.4000       0.00000
      89.5000       0.00000
      89.6000       0.00000
      89.7000       0.00000
      89.8000       0.00000
      89.9000       0.00000
      90.0000       0.00000
      90.1000       0.00000
      90.2000       0.00000
      90.3000       0.00000
      90.4000       0.00000
      90.5000       0.00000
      90.6000       0.00000
      90.7000       0.00000
      90.8000       0.00000
      90.9000       0.00000
      91.0000       0.00000
      91.1000       0.00000
      91.2000       0.00000
      91.3000       0.00000
      91.4000       0.00000
      91.5000       0.00000
      91.6000       0.00000
      91.7000       0.00000
      91.8000       0.00000
      91.9000       0.00000
      92.0000       0.00000
      92.1000       0.00000
      92.2000       0.00000
      92.3000       0.00000
      92.4000       0.00000
      92.5000       0.00000
      92.6000       0.00000
      92.7000       0.00000
      92.8000       0.00000
      92.9000       0.00000
      93.0000       0.00000
      93.1000       0.00000
      93.2000       0.00000
      93.3000       0.00000
      93.4000       0.00000
      93.5000       0.00000
      93.6000       0.00000
      93.7000       0.00000
      93.8000       0.00000
      93.9000       0.00000
      94.0000       0.00000
      94.1000       0.00000
      94.2000       0.00000
      94.3000       0.00000
      94.4000       0.00000
      94.5000       0.00000
      94.6000       0.00000
      94.7000       0.00000
      94.8000       0.00000
      94.9000       0.00000
      95.0000       0.00000
      95.1000       0.00000
      95.2000       0.00000
      95.3000       0.00000
      95.4000       0.00000
      95.5000       0.00000
      95.6000       0.00000
      95.7000       0.00000
      95.8000       0.00000
      95.9000       0.00000
      96.0000       0.00000
      96.1000       0.00000
      96.2000       0.00000
      96.3000       0.00000
      96.4000       0.00000
      96.5000       0.00000
      96.6000       0.00000
      96.7000       0.00000
      96.8000       0.00000
      96.9000       0.00000
      97.0000       0.00000
      97.1000       0.00000
      97.2000       0.00000
      97.3000       0.00000
      97.4000       0.00000
      97.5000       0.00000
      97.6000       0.00000
      97.7000       0.00000
      97.8000       0.00000
      97.9000       0.00000
      98.0000       0.00000
      98.1000       0.00000
      98.2000       0.00000
      98.3000       0.00000
      98.4000       0.00000
      98.5000       0.00000
      98.6000       0.00000
      98.7000       0.00000
      98.8000       0.00000
      98.9000       0.00000
      99.0000       0.00000
      99.1000       0.00000
      99.2000       0.00000
      99.3000       0.00000
      99.4000       0.00000
      99.5000       0.00000
      99.6000       0.00000
      99.7000       0.00000
      99.8000       0.00000
      99.9000       0.00000
      100.000       0.00000
      100.100       0.00000
      100.200       0.00000
      100.300       0.00000
      100.400       0.00000
      100.500       0.00000
      100.600       0.00000
      100.700       0.00000
      100.800       0.00000
      100.900       0.00000
      101.000       0.00000
      101.100       0.00000
      101.200       0.00000
      101.300       0.00000
      101.400       0.00000
      101.500       0.00000
      101.600       0.00000
      101.700       0.00000
      101.800       0.00000
      101.900       0.00000
      102.000       0.00000
      102.100       0.00000
      102.200       0.00000
      102.300       0.00000
      102.400       0.00000
      102.500       0.00000
      102.600       0.00000
      102.700       0.00000
      102.800       0.00000
      102.900       0.00000
      103.000       0.00000
      103.100       0.00000
      103.200       0.00000
      103.300       0.00000
      103.400       0.00000
      103.500       0.00000
      103.600       0.00000
      103.700       0.00000
      103.800       0.00000
      103.900       0.00000
      104.000       0.00000
      104.100       0.00000
      104.200       0.00000
      104.300       0.00000
      104.400       0.00000
      104.500       0.00000
      104.600       0.00000
      104.700       0.00000
      104.800       0.00000
      104.900       0.00000
      105.000       0.00000
      105.100       0.00000
      105.200       0.00000
      105.300       0.00000
      105.400       0.00000
      105.500       0.00000
      105.600       0.00000
      105.700       0.00000
      105.800       0.00000
      105.900       0.00000
      106.000       0.00000
      106.100       0.00000
      106.200       0.00000
      106.300       0.00000
      106.400       0.00000
      106.500       0.00000
      106.600       0.00000
      106.700       0.00000
      106.800       0.00000
      106.900       0.00000
      107.000       0.00000
      107.100       0.00000
      107.200       0.00000
      107.300       0.00000
      107.400       0.00000
      107.500       0.00000
      107.600       0.00000
      107.700       0.00000
      107.800       0.00000
      107.900       0.00000
      108.000       0.00000
      108.100       0.00000
      108.200       0.00000
      108.300       0.00000
      108.400       0.00000
      108.500       0.00000
      108.600       0.00000
      108.700       0.00000
      108.800       0.00000
      108.900       0.00000
      109.000       0.00000
      109.100       0.00000
      109.200       0.00000
      109.300       0.00000
      109.400       0.00000
      109.500       0.00000
      109.600       0.00000
      109.700       0.00000
      109.800       0.00000
      109.900       0.00000
      110.000       0.00000
      110.100       0.00000
      110.200       0.00000
      110.300       0.00000
      110.400       0.00000
      110.500       0.00000
      110.600       0.00000
      110.700       0.00000
      110.800       0.00000
      110.900       0.00000
      111.000       0.00000
      111.100       0.00000
      111.200       0.00000
      111.300       0.00000
      111.400       0.00000
      111.500       0.00000
      111.600       0.00000
      111.700       0.00000
      111.800       0.00000
      111.900       0.00000
      112.000       0.00000
      112.100       0.00000
      112.200       0.00000
      112.300       0.00000
      112.400       0.00000
      112.500       0.00000
      112.600       0.00000
      112.700       0.00000
      112.800       0.00000
      112.900       0.00000
      113.000       0.00000
      113.100       0.00000
      113.200       0.00000
      113.300       0.00000
      113.400       0.00000
      113.500       0.00000
      113.600       0.00000
      113.700       0.00000
      113.800       0.00000
      113.900       0.00000
      114.000       0.00000
      114.100       0.00000
      114.200       0.00000
      114.300       0.00000
      114.400       0.00000
      114.500       0.00000
      114.600       0.00000
      114.700       0.00000
      114.800       0.00000
      114.900       0.00000
      115.000       0.00000
      115.100       0.00000
      115.200       0.00000
      115.300       0.00000
      115.400       0.00000
      115.500       0.00000
      115.600       0.00000
      115.700       0.00000
      115.800       0.00000
      115.900       0.00000
      116.000       0.00000
      116.100       0.00000
      116.200       0.00000
      116.300       0.00000
      116.400       0.00000
      116.500       0.00000
      116.600       0.00000
      116.700       0.00000
      116.800       0.00000
      116.900       0.00000
      117.000       0.00000
      117.100       0.00000
      117.200       0.00000
      117.300       0.00000
      117.400       0.00000
      117.500       0.00000
      117.600       0.00000
      117.700       0.00000
      117.800       0.00000
      117.900       0.00000
      118.000       0.00000
      118.100       0.00000
      118.200       0.00000
      118.300       0.00000
      118.400       0.00000
      118.500       0.00000
      118.600       0.00000
      118.700       0.00000
      118.800       0.00000
      118.900       0.00000
      119.000       0.00000
      119.100       0.00000
      119.200       0.00000
      119.300       0.00000
      119.400       0.00000
      119.500       0.00000
      119.600       0.00000
      119.700       0.00000
      119.800       0.00000
      119.900       0.00000
      120.000       0.00000
      120.100       0.00000
      120.200       0.00000
      120.300       0.00000
      120.400       0.00000
      120.500       0.00000
      120.600       0.00000
      120.700       0.00000
      120.800       0.00000
      120.900       0.00000
      121.000       0.00000
      121.100       0.00000
      121.200       0.00000
      121.300       0.00000
      121.400       0.00000
      121.500       0.00000
      121.600       0.00000
      121.700       0.00000
      121.800       0.00000
      121.900       0.00000
      122.000       0.00000
      122.100       0.00000
      122.200       0.00000
      122.300       0.00000
      122.400       0.00000
      122.500       0.00000
      122.600       0.00000
      122.700       0.00000
      122.800       0.00000
      122.900       0.00000
      123.000       0.00000
      123.100       0.00000
      123.200       0.00000
      123.300       0.00000
      123.400       0.00000
      123.500       0.00000
      123.600       0.00000
      123.700       0.00000
      123.800       0.00000
      123.900       0.00000
      124.000       0.00000
      124.100       0.00000
      124.200       0.00000
      124.300       0.00000
      124.400       0.00000
      124.500       0.00000
      124.600       0.00000
      124.700       0.00000
      124.800       0.00000
      124.900       0.00000
      125.000       0.00000
      125.100       0.00000
      125.200       0.00000
      125.300       0.00000
      125.400       0.00000
      125.500       0.00000
      125.600       0.00000
      125.700       0.00000
      125.800       0.00000
      125.900       0.00000
      126.000       0.00000
      126.100       0.00000
      126.200       0.00000
      126.300       0.00000
      126.400       0.00000
      126.500       0.00000
      126.600       0.00000
      126.700       0.00000
      126.800       0.00000
      126.900       0.00000
      127.000       0.00000
      127.100       0.00000
      127.200       0.00000
      127.300       0.00000
      127.400       0.00000
      127.500       0.00000
      127.600       0.00000
      127.700       0.00000
      127.800       0.00000
      127.900       0.00000
      128.000       0.00000
      128.100       0.00000
      128.200       0.00000
      128.300       0.00000
      128.400       0.00000
      128.500       0.00000
      128.600       0.00000
      128.700       0.00000
      128.800       0.00000
      128.900       0.00000
      129.000       0.00000
      129.100       0.00000
      129.200       0.00000
      129.300       0.00000
      129.400       0.00000
      129.500       0.00000
      129.600       0.00000
      129.700       0.00000
      129.800       0.00000
      129.900       0.00000
      130.000       0.00000
      130.100       0.00000
      130.200       0.00000
      130.300       0.00000
      130.400       0.00000
      130.500       0.00000
      130.600       0.00000
      130.700       0.00000
      130.800       0.00000
      130.900       0.00000
      131.000       0.00000
      131.100       0.00000
      131.200       0.00000
      131.300       0.00000
      131.400       0.00000
      131.500       0.00000
      131.600       0.00000
      131.700       0.00000
      131.800       0.00000
      131.900       0.00000
      132.000       0.00000
      132.100       0.00000
      132.200       0.00000
      132.300       0.00000
      132.400       0.00000
      132.500       0.00000
      132.600       0.00000
      132.700       0.00000
      132.800       0.00000
      132.900       0.00000
      133.000       0.00000
      133.100       0.00000
      133.200       0.00000
      133.300       0.00000
      133.400       0.00000
      133.500       0.00000
      133.600       0.00000
      133.700       0.00000
      133.800       0.00000
      133.900       0.00000
      134.000       0.00000
      134.100       0.00000
      134.200       0.00000
      134.300       0.00000
      134.400       0.00000
      134.500       0.00000
      134.600       0.00000
      134.700       0.00000
      134.800       0.00000
      134.900       0.00000
      135.000       0.00000
      135.100       0.00000
      135.200       0.00000
      135.300       0.00000
      135.400       0.00000
      135.500       0.00000
      135.600       0.00000
      135.700       0.00000
      135.800       0.00000
      135.900       0.00000
      136.000       0.00000
      136.100       0.00000
      136.200       0.00000
      136.300       0.00000
      136.400       0.00000
      136.500       0.00000
      136.600       0.00000
      136.700       0.00000
      136.800       0.00000
      136.900       0.00000
      137.000       0.00000
      137.100       0.00000
      137.200       0.00000
      137.300       0.00000
      137.400       0.00000
      137.500       0.00000
      137.600       0.00000
      137.700       0.00000
      137.800       0.00000
      137.900       0.00000
      138.000       0.00000
      138.100       0.00000
      138.200       0.00000
      138.300       0.00000
      138.400       0.00000
      138.500       0.00000
      138.600       0.00000
      138.700       0.00000
      138.800       0.00000
      138.900       0.00000
      139.000       0.00000
      139.100       0.00000
      139.200       0.00000
      139.300       0.00000
      139.400       0.00000
      139.500       0.00000
      139.600       0.00000
      139.700       0.00000
      139.800       0.00000
      139.900       0.00000
      140.000       0.00000
      140.100       0.00000
      140.200       0.00000
      140.300       0.00000
      140.400       0.00000
      140.500       0.00000
      140.600       0.00000
      140.700       0.00000
      140.800       0.00000
      140.900       0.00000
      141.000       0.00000
      141.100       0.00000
      141.200       0.00000
      141.300       0.00000
      141.400       0.00000
      141.500       0.00000
      141.600       0.00000
      141.700       0.00000
      141.800       0.00000
      141.900       0.00000
      142.000       0.00000
      142.100       0.00000
      142.200       0.00000
      142.300       0.00000
      142.400       0.00000
      142.500       0.00000
      142.600       0.00000
      142.700       0.00000
      142.800       0.00000
      142.900       0.00000
      143.000       0.00000
      143.100       0.00000
      143.200       0.00000
      143.300       0.00000
      143.400       0.00000
      143.500       0.00000
      143.600       0.00000
      143.700       0.00000
      143.800       0.00000
      143.900       0.00000
      144.000       0.00000
      144.100       0.00000
      144.200       0.00000
      144.300       0.00000
      144.400       0.00000
      144.500       0.00000
      144.600       0.00000
      144.700       0.00000
      144.800       0.00000
      144.900       0.00000
      145.000       0.00000
      145.100       0.00000
      145.200       0.00000
      145.300       0.00000
      145.400       0.00000
      145.500       0.00000
      145.600       0.00000
      145.700       0.00000
      145.800       0.00000
      145.900       0.00000
      146.000       0.00000
      146.100       0.00000
      146.200       0.00000
      146.300       0.00000
      146.400       0.00000
      146.500       0.00000
      146.600       0.00000
      146.700       0.00000
      146.800       0.00000
      146.900       0.00000
      147.000       0.00000
      147.100       0.00000
      147.200       0.00000
      147.300       0.00000
      147.400       0.00000
      147.500       0.00000
      147.600       0.00000
      147.700       0.00000
      147.800       0.00000
      147.900       0.00000
      148.000       0.00000
      148.100       0.00000
      148.200       0.00000
      148.300       0.00000
      148.400       0.00000
      148.500       0.00000
      148.600       0.00000
      148.700       0.00000
      148.800       0.00000
      148.900       0.00000
      149.000       0.00000
      149.100       0.00000
      149.200       0.00000
      149.300       0.00000
      149.400       0.00000
      149.500       0.00000
      149.600       0.00000
      149.700       0.00000
      149.800       0.00000
      149.900       0.00000
      150.000       0.00000
      150.100       0.00000
      150.200       0.00000
      150.300       0.00000
      150.400       0.00000
      150.500       0.00000
      150.600       0.00000
      150.700       0.00000
      150.800       0.00000
      150.900       0.00000
      151.000       0.00000
      151.100       0.00000
      151.200       0.00000
      151.300       0.00000
      151.400       0.00000
      151.500       0.00000
      151.600       0.00000
      151.700       0.00000
      151.800       0.00000
      151.900       0.00000
      152.000       0.00000
      152.100       0.00000
      152.200       0.00000
      152.300       0.00000
      152.400       0.00000
      152.500       0.00000
      152.600       0.00000
      152.700       0.00000
      152.800       0.00000
      152.900       0.00000
      153.000       0.00000
      153.100       0.00000
      153.200       0.00000
      153.300       0.00000
      153.400       0.00000
      153.500       0.00000
      153.600       0.00000
      153.700       0.00000
      153.800       0.00000
      153.900       0.00000
      154.000       0.00000
      154.100       0.00000
      154.200       0.00000
      154.300       0.00000
      154.400       0.00000
      154.500       0.00000
      154.600       0.00000
      154.700       0.00000
      154.800       0.00000
      154.900       0.00000
      155.000       0.00000
      155.100       0.00000
      155.200       0.00000
      155.300       0.00000
      155.400       0.00000
      155.500       0.00000
      155.600       0.00000
      155.700       0.00000
      155.800       0.00000
      155.900       0.00000
      156.000       0.00000
      156.100       0.00000
      156.200       0.00000
      156.300       0.00000
      156.400       0.00000
      156.500       0.00000
      156.600       0.00000
      156.700       0.00000
      156.800       0.00000
      156.900       0.00000
      157.000       0.00000
      157.100       0.00000
      157.200       0.00000
      157.300       0.00000
      157.400       0.00000
      157.500       0.00000
      157.600       0.00000
      157.700       0.00000
      157.800       0.00000
      157.900       0.00000
      158.000       0.00000
      158.100       0.00000
      158.200       0.00000
      158.300       0.00000
      158.400       0.00000
      158.500       0.00000
      158.600       0.00000
      158.700       0.00000
      158.800       0.00000
      158.900       0.00000
      159.000       0.00000
      159.100       0.00000
      159.200       0.00000
      159.300       0.00000
      159.400       0.00000
      159.500       0.00000
      159.600       0.00000
      159.700       0.00000
      159.800       0.00000
      159.900       0.00000
      160.000       0.00000
      160.100       0.00000
      160.200       0.00000
      160.300       0.00000
      160.400       0.00000
      160.500       0.00000
      160.600       0.00000
      160.700       0.00000
      160.800       0.00000
      160.900       0.00000
      161.000       0.00000
      161.100       0.00000
      161.200       0.00000
      161.300       0.00000
      161.400       0.00000
      161.500       0.00000
      161.600       0.00000
      161.700       0.00000
      161.800       0.00000
      161.900       0.00000
      162.000       0.00000
      162.100       0.00000
      162.200       0.00000
      162.300       0.00000
      162.400       0.00000
      162.500       0.00000
      162.600       0.00000
      162.700       0.00000
      162.800       0.00000
      162.900       0.00000
      163.000       0.00000
      163.100       0.00000
      163.200       0.00000
      163.300       0.00000
      163.400       0.00000
      163.500       0.00000
      163.600       0.00000
      163.700       0.00000
      163.800       0.00000
      163.900       0.00000
      164.000       0.00000
      164.100       0.00000
      164.200       0.00000
      164.300       0.00000
      164.400       0.00000
      164.500       0.00000
      164.600       0.00000
      164.700       0.00000
      164.800       0.00000
      164.900       0.00000
      165.000       0.00000
      165.100       0.00000
      165.200       0.00000
      165.300       0.00000
      165.400       0.00000
      165.500       0.00000
      165.600       0.00000
      165.700       0.00000
      165.800       0.00000
      165.900       0.00000
      166.000       0.00000
      166.100       0.00000
      166.200       0.00000
      166.300       0.00000
      166.400       0.00000
      166.500       0.00000
      166.600       0.00000
      166.700       0.00000
      166.800       0.00000
      166.900       0.00000
      167.000       0.00000
      167.100       0.00000
      167.200       0.00000
      167.300       0.00000
      167.400       0.00000
      167.500       0.00000
      167.600       0.00000
      167.700       0.00000
      167.800       0.00000
      167.900       0.00000
      168.000       0.00000
      168.100       0.00000
      168.200       0.00000
      168.300       0.00000
      168.400       0.00000
      168.500       0.00000
      168.600       0.00000
      168.700       0.00000
      168.800       0.00000
      168.900       0.00000
      169.000       0.00000
      169.100       0.00000
      169.200       0.00000
      169.300       0.00000
      169.400       0.00000
      169.500       0.00000
      169.600       0.00000
      169.700       0.00000
      169.800       0.00000
      169.900       0.00000
      170.000       0.00000
      170.100       0.00000
      170.200       0.00000
      170.300       0.00000
      170.400       0.00000
      170.500   3.40084e-31
      170.600   1.57096e-19
      170.700   1.66129e-12
      170.800   1.40896e-10
      170.900   2.30441e-10
      171.000   2.32542e-10
      171.100   2.34645e-10
      171.200   2.36748e-10
      171.300   2.38854e-10
      171.400   2.40958e-10
      171.500   2.43061e-10
      171.600   2.45165e-10
      171.700   2.47274e-10
      171.800   2.49386e-10
      171.900   2.51502e-10
      172.000   2.53628e-10
      172.100   2.55766e-10
      172.200   2.57916e-10
      172.300   2.60071e-10
      172.400   2.62193e-10
      172.500   2.64319e-10
      172.600   2.66464e-10
      172.700   2.68625e-10
      172.800   2.70802e-10
      172.900   2.73000e-10
      173.000   2.75213e-10
      173.100   2.77445e-10
      173.200   2.79695e-10
      173.300   2.81966e-10
      173.400   2.84258e-10
      173.500   2.86568e-10
      173.600   2.88899e-10
      173.700   2.91248e-10
      173.800   2.93621e-10
      173.900   2.96008e-10
      174.000   2.98416e-10
      174.100   3.00848e-10
      174.200   3.03295e-10
      174.300   3.05757e-10
      174.400   3.08240e-10
      174.500   3.10739e-10
      174.600   3.13258e-10
      174.700   3.15793e-10
      174.800   3.18343e-10
      174.900   3.20909e-10
      175.000   3.23492e-10
      175.100   3.26085e-10
      175.200   3.28710e-10
      175.300   3.31344e-10
      175.400   3.33998e-10
      175.500   3.36665e-10
      175.600   3.39343e-10
      175.700   3.42039e-10
      175.800   3.44753e-10
      175.900   3.47479e-10
      176.000   3.50217e-10
      176.100   3.52972e-10
      176.200   3.55743e-10
      176.300   3.58531e-10
      176.400   3.61332e-10
      176.500   3.64147e-10
      176.600   3.66981e-10
      176.700   3.69828e-10
      176.800   3.72689e-10
      176.900   3.75564e-10
      177.000   3.78458e-10
      177.100   3.81367e-10
      177.200   3.84287e-10
      177.300   3.87221e-10
      177.400   3.90173e-10
      177.500   3.93138e-10
      177.600   3.96116e-10
      177.700   3.99106e-10
      177.800   4.02109e-10
      177.900   4.05127e-10
      178.000   4.08185e-10
      178.100   4.11256e-10
      178.200   4.14342e-10
      178.300   4.17444e-10
      178.400   4.20556e-10
      178.500   4.23681e-10
      178.600   4.26820e-10
      178.700   4.29977e-10
      178.800   4.33144e-10
      178.900   4.36322e-10
      179.000   4.39512e-10
      179.100   4.42719e-10
      179.200   4.45944e-10
      179.300   4.49179e-10
      179.400   4.52429e-10
      179.500   4.55696e-10
      179.600   4.58987e-10
      179.700   4.62288e-10
      179.800   4.65605e-10
      179.900   4.68941e-10
      180.000   4.72303e-10
      180.100   4.75676e-10
      180.200   4.79072e-10
      180.300   4.82486e-10
      180.400   4.85928e-10
      180.500   4.89390e-10
      180.600   4.92870e-10
      180.700   4.96373e-10
      180.800   4.99942e-10
      180.900   5.03608e-10
      181.000   5.07332e-10
      181.100   5.11075e-10
      181.200   5.14850e-10
      181.300   5.18656e-10
      181.400   5.22482e-10
      181.500   5.26332e-10
      181.600   5.30213e-10
      181.700   5.34123e-10
      181.800   5.38055e-10
      181.900   5.42013e-10
      182.000   5.46002e-10
      182.100   5.50010e-10
      182.200   5.54056e-10
      182.300   5.58120e-10
      182.400   5.62209e-10
      182.500   5.66323e-10
      182.600   5.70469e-10
      182.700   5.74634e-10
      182.800   5.78820e-10
      182.900   5.83035e-10
      183.000   5.87273e-10
      183.100   5.91534e-10
      183.200   5.95817e-10
      183.300   6.00125e-10
      183.400   6.04459e-10
      183.500   6.08814e-10
      183.600   6.13191e-10
      183.700   6.17766e-10
      183.800   6.23110e-10
      183.900   6.28946e-10
      184.000   6.34816e-10
      184.100   6.40742e-10
      184.200   6.46706e-10
      184.300   6.52724e-10
      184.400   6.58785e-10
      184.500   6.64887e-10
      184.600   6.71035e-10
      184.700   6.77234e-10
      184.800   6.83479e-10
      184.900   6.89766e-10
      185.000   6.96099e-10
      185.100   7.02483e-10
      185.200   7.08917e-10
      185.300   7.15390e-10
      185.400   7.21910e-10
      185.500   7.28473e-10
      185.600   7.35087e-10
      185.700   7.41755e-10
      185.800   7.48467e-10
      185.900   7.55218e-10
      186.000   7.62029e-10
      186.100   7.68876e-10
      186.200   7.75763e-10
      186.300   7.82694e-10
      186.400   7.89674e-10
      186.500   7.96701e-10
      186.600   8.03763e-10
      186.700   8.10860e-10
      186.800   8.17998e-10
      186.900   8.25183e-10
      187.000   8.32410e-10
      187.100   8.39666e-10
      187.200   8.46971e-10
      187.300   8.54324e-10
      187.400   8.61712e-10
      187.500   8.69138e-10
      187.600   8.76603e-10
      187.700   8.84108e-10
      187.800   8.91663e-10
      187.900   8.99259e-10
      188.000   9.06888e-10
      188.100   9.14557e-10
      188.200   9.22273e-10
      188.300   9.30037e-10
      188.400   9.37848e-10
      188.500   9.45699e-10
      188.600   9.53597e-10
      188.700   9.61554e-10
      188.800   9.69552e-10
      188.900   9.77594e-10
      189.000   9.85686e-10
      189.100   9.93841e-10
      189.200   1.00204e-09
      189.300   1.01029e-09
      189.400   1.01860e-09
      189.500   1.02696e-09
      189.600   1.03539e-09
      189.700   1.04386e-09
      189.800   1.05248e-09
      189.900   1.06117e-09
      190.000   1.06994e-09
      190.100   1.07876e-09
      190.200   1.08764e-09
      190.300   1.09658e-09
      190.400   1.10560e-09
      190.500   1.11467e-09
      190.600   1.12380e-09
      190.700   1.13300e-09
      190.800   1.14226e-09
      190.900   1.15159e-09
      191.000   1.16100e-09
      191.100   1.17046e-09
      191.200   1.17999e-09
      191.300   1.18958e-09
      191.400   1.19925e-09
      191.500   1.20898e-09
      191.600   1.21877e-09
      191.700   1.22862e-09
      191.800   1.23855e-09
      191.900   1.24854e-09
      192.000   1.25859e-09
      192.100   1.26871e-09
      192.200   1.27890e-09
      192.300   1.28916e-09
      192.400   1.29950e-09
      192.500   1.30990e-09
      192.600   1.32036e-09
      192.700   1.33089e-09
      192.800   1.34097e-09
      192.900   1.34981e-09
      193.000   1.35856e-09
      193.100   1.36736e-09
      193.200   1.37623e-09
      193.300   1.38513e-09
      193.400   1.39407e-09
      193.500   1.40307e-09
      193.600   1.41212e-09
      193.700   1.42122e-09
      193.800   1.43036e-09
      193.900   1.43955e-09
      194.000   1.44879e-09
      194.100   1.45811e-09
      194.200   1.46746e-09
      194.300   1.47686e-09
      194.400   1.48631e-09
      194.500   1.49582e-09
      194.600   1.50538e-09
      194.700   1.51498e-09
      194.800   1.52463e-09
      194.900   1.53433e-09
      195.000   1.54408e-09
      195.100   1.55390e-09
      195.200   1.56375e-09
      195.300   1.57364e-09
      195.400   1.58358e-09
      195.500   1.59357e-09
      195.600   1.60361e-09
      195.700   1.61367e-09
      195.800   1.62367e-09
      195.900   1.63294e-09
      196.000   1.61550e-09
      196.100   1.59790e-09
      196.200   1.58048e-09
      196.300   1.56324e-09
      196.400   1.54617e-09
      196.500   1.52926e-09
      196.600   1.51253e-09
      196.700   1.49596e-09
      196.800   1.47957e-09
      196.900   1.46334e-09
      197.000   1.44728e-09
      197.100   1.43137e-09
      197.200   1.41562e-09
      197.300   1.40003e-09
      197.400   1.38458e-09
      197.500   1.36928e-09
      197.600   1.35414e-09
      197.700   1.33916e-09
      197.800   1.32434e-09
      197.900   1.30966e-09
      198.000   1.29513e-09
      198.100   1.28074e-09
      198.200   1.26649e-09
      198.300   1.25239e-09
      198.400   1.23843e-09
      198.500   1.22463e-09
      198.600   1.21098e-09
      198.700   1.19746e-09
      198.800   1.18409e-09
      198.900   1.17086e-09
      199.000   1.15776e-09
      199.100   1.14480e-09
      199.200   1.13198e-09
      199.300   1.11932e-09
      199.400   1.10679e-09
      199.500   1.09440e-09
      199.600   1.08214e-09
      199.700   1.07001e-09
      199.800   1.05802e-09
      199.900   1.04615e-09
      200.000   1.03441e-09
      200.100   1.02287e-09
      200.200   1.01140e-09
      200.300   1.00007e-09
      200.400   9.88860e-10
      200.500   9.77771e-10
      200.600   9.66811e-10
      200.700   9.55970e-10
      200.800   9.45244e-10
      200.900   9.34647e-10
      201.000   9.24168e-10
      201.100   9.13809e-10
      201.200   9.03567e-10
      201.300   8.93438e-10
      201.400   8.83426e-10
      201.500   8.73521e-10
      201.600   8.63728e-10
      201.700   8.54047e-10
      201.800   8.44473e-10
      201.900   8.35005e-10
      202.000   8.25655e-10
      202.100   8.16406e-10
      202.200   8.07264e-10
      202.300   7.98282e-10
      202.400   7.89515e-10
      202.500   7.80877e-10
      202.600   7.72329e-10
      202.700   7.63885e-10
      202.800   7.55535e-10
      202.900   7.47279e-10
      203.000   7.39118e-10
      203.100   7.31054e-10
      203.200   7.23076e-10
      203.300   7.15188e-10
      203.400   7.07389e-10
      203.500   6.99678e-10
      203.600   6.92056e-10
      203.700   6.84522e-10
      203.800   6.77076e-10
      203.900   6.69722e-10
      204.000   6.62449e-10
      204.100   6.55260e-10
      204.200   6.48156e-10
      204.300   6.41133e-10
      204.400   6.34191e-10
      204.500   6.27329e-10
      204.600   6.20545e-10
      204.700   6.13839e-10
      204.800   6.07216e-10
      204.900   6.00671e-10
      205.000   5.94200e-10
      205.100   5.87804e-10
      205.200   5.81480e-10
      205.300   5.75229e-10
      205.400   5.69050e-10
      205.500   5.62940e-10
      205.600   5.56463e-10
      205.700   5.49664e-10
      205.800   5.42892e-10
      205.900   5.36209e-10
      206.000   5.29614e-10
      206.100   5.23099e-10
      206.200   5.16663e-10
      206.300   5.10311e-10
      206.400   5.04036e-10
      206.500   4.97836e-10
      206.600   4.91713e-10
      206.700   4.85666e-10
      206.800   4.79688e-10
      206.900   4.73784e-10
      207.000   4.67952e-10
      207.100   4.62192e-10
      207.200   4.56503e-10
      207.300   4.50879e-10
      207.400   4.45322e-10
      207.500   4.39830e-10
      207.600   4.34403e-10
      207.700   4.29039e-10
      207.800   4.23737e-10
      207.900   4.18496e-10
      208.000   4.13318e-10
      208.100   4.08200e-10
      208.200   4.03140e-10
      208.300   3.98141e-10
      208.400   3.93201e-10
      208.500   3.88319e-10
      208.600   3.83492e-10
      208.700   3.78721e-10
      208.800   3.74007e-10
      208.900   3.68847e-10
      209.000   3.62855e-10
      209.100   3.56742e-10
      209.200   3.50726e-10
      209.300   3.44806e-10
      209.400   3.38983e-10
      209.500   3.33253e-10
      209.600   3.27615e-10
      209.700   3.22070e-10
      209.800   3.16620e-10
      209.900   3.11254e-10
      210.000   3.05979e-10
      210.100   3.00788e-10
      210.200   2.95682e-10
      210.300   2.90659e-10
      210.400   2.85718e-10
      210.500   2.80858e-10
      210.600   2.76078e-10
      210.700   2.71375e-10
      210.800   2.66751e-10
      210.900   2.62201e-10
      211.000   2.57727e-10
      211.100   2.53328e-10
      211.200   2.48999e-10
      211.300   2.44746e-10
      211.400   2.40566e-10
      211.500   2.36452e-10
      211.600   2.32408e-10
      211.700   2.28431e-10
      211.800   2.24518e-10
      211.900   2.20670e-10
      212.000   2.16888e-10
      212.100   2.13168e-10
      212.200   2.09509e-10
      212.300   2.05912e-10
      212.400   2.02374e-10
      212.500   1.98896e-10
      212.600   1.95476e-10
      212.700   1.92113e-10
      212.800   1.88806e-10
      212.900   1.85555e-10
      213.000   1.82358e-10
      213.100   1.79218e-10
      213.200   1.76130e-10
      213.300   1.73093e-10
      213.400   1.70108e-10
      213.500   1.67173e-10
      213.600   1.64287e-10
      213.700   1.61451e-10
      213.800   1.58662e-10
      213.900   1.55921e-10
      214.000   1.53226e-10
      214.100   1.50577e-10
      214.200   1.47975e-10
      214.300   1.45415e-10
      214.400   1.42899e-10
      214.500   1.40427e-10
      214.600   1.37998e-10
      214.700   1.35610e-10
      214.800   1.33263e-10
      214.900   1.30957e-10
      215.000   1.28690e-10
      215.100   1.26463e-10
      215.200   1.24275e-10
      215.300   1.22126e-10
      215.400   1.20014e-10
      215.500   1.17939e-10
      215.600   1.15901e-10
      215.700   1.13897e-10
      215.800   1.11928e-10
      215.900   1.09995e-10
      216.000   1.08095e-10
      216.100   1.06227e-10
      216.200   1.04393e-10
      216.300   1.02591e-10
      216.400   1.00821e-10
      216.500   9.90813e-11
      216.600   9.73725e-11
      216.700   9.56939e-11
      216.800   9.40444e-11
      216.900   9.24240e-11
      217.000   9.08318e-11
      217.100   8.92673e-11
      217.200   8.77306e-11
      217.300   8.62205e-11
      217.400   8.47365e-11
      217.500   8.32793e-11
      217.600   8.18469e-11
      217.700   8.04388e-11
      217.800   7.90558e-11
      217.900   7.76973e-11
      218.000   7.63625e-11
      218.100   7.50504e-11
      218.200   7.37614e-11
      218.300   7.24947e-11
      218.400   7.12501e-11
      218.500   7.00261e-11
      218.600   6.88236e-11
      218.700   6.76415e-11
      218.800   6.64797e-11
      218.900   6.53381e-11
      219.000   6.42156e-11
      219.100   6.31120e-11
      219.200   6.20274e-11
      219.300   6.09611e-11
      219.400   5.99125e-11
      219.500   5.88819e-11
      219.600   5.78687e-11
      219.700   5.68728e-11
      219.800   5.58939e-11
      219.900   5.49312e-11
      220.000   5.39847e-11
      220.100   5.30542e-11
      220.200   5.21393e-11
      220.300   5.12399e-11
      220.400   5.03557e-11
      220.500   4.94865e-11
      220.600   4.86320e-11
      220.700   4.77915e-11
      220.800   4.69650e-11
      220.900   4.61530e-11
      221.000   4.53543e-11
      221.100   4.45689e-11
      221.200   4.37970e-11
      221.300   4.30381e-11
      221.400   4.22919e-11
      221.500   4.15583e-11
      221.600   4.08371e-11
      221.700   4.01280e-11
      221.800   3.94305e-11
      221.900   3.87451e-11
      222.000   3.80714e-11
      222.100   3.74087e-11
      222.200   3.67576e-11
      222.300   3.61172e-11
      222.400   3.54878e-11
      222.500   3.48688e-11
      222.600   3.42606e-11
      222.700   3.36625e-11
      222.800   3.30743e-11
      222.900   3.24962e-11
      223.000   3.19278e-11
      223.100   3.13691e-11
      223.200   3.08199e-11
      223.300   3.02799e-11
      223.400   2.97492e-11
      223.500   2.92272e-11
      223.600   2.87144e-11
      223.700   2.82102e-11
      223.800   2.77144e-11
      223.900   2.72275e-11
      224.000   2.67485e-11
      224.100   2.62777e-11
      224.200   2.58149e-11
      224.300   2.53600e-11
      224.400   2.49128e-11
      224.500   2.44733e-11
      224.600   2.40411e-11
      224.700   2.36165e-11
      224.800   2.31991e-11
      224.900   2.27887e-11
      225.000   2.23855e-11
      225.100   2.19890e-11
      225.200   2.15992e-11
      225.300   2.12164e-11
      225.400   2.08399e-11
      225.500   2.04698e-11
      225.600   2.01061e-11
      225.700   1.97487e-11
      225.800   1.93974e-11
      225.900   1.90521e-11
      226.000   1.87128e-11
      226.100   1.83794e-11
      226.200   1.80517e-11
      226.300   1.77310e-11
      226.400   1.74165e-11
      226.500   1.71069e-11
      226.600   1.68024e-11
      226.700   1.65030e-11
      226.800   1.62085e-11
      226.900   1.59191e-11
      227.000   1.56346e-11
      227.100   1.53551e-11
      227.200   1.50805e-11
      227.300   1.48107e-11
      227.400   1.45456e-11
      227.500   1.42852e-11
      227.600   1.40293e-11
      227.700   1.37780e-11
      227.800   1.35311e-11
      227.900   1.32886e-11
      228.000   1.30504e-11
      228.100   1.28163e-11
      228.200   1.25864e-11
      228.300   1.23606e-11
      228.400   1.21389e-11
      228.500   1.19211e-11
      228.600   1.17072e-11
      228.700   1.14971e-11
      228.800   1.12908e-11
      228.900   1.10882e-11
      229.000   1.08892e-11
      229.100   1.06938e-11
      229.200   1.05019e-11
      229.300   1.03135e-11
      229.400   1.01284e-11
      229.500   9.94676e-12
      229.600   9.76831e-12
      229.700   9.59312e-12
      229.800   9.42107e-12
      229.900   9.25215e-12
      230.000   9.08460e-12
      230.100   8.90842e-12
      230.200   8.73525e-12
      230.300   8.56556e-12
      230.400   8.39914e-12
      230.500   8.23596e-12
      230.600   8.07604e-12
      230.700   7.91919e-12
      230.800   7.76543e-12
      230.900   7.61469e-12
      231.000   7.46685e-12
      231.100   7.32189e-12
      231.200   7.17976e-12
      231.300   7.04042e-12
      231.400   6.90385e-12
      231.500   6.76984e-12
      231.600   6.63842e-12
      231.700   6.50961e-12
      231.800   6.38330e-12
      231.900   6.25943e-12
      232.000   6.13796e-12
      232.100   6.01883e-12
      232.200   5.90204e-12
      232.300   5.78752e-12
      232.400   5.67519e-12
      232.500   5.56502e-12
      232.600   5.45700e-12
      232.700   5.35107e-12
      232.800   5.24719e-12
      232.900   5.14531e-12
      233.000   5.04539e-12
      233.100   4.94743e-12
      233.200   4.85132e-12
      233.300   4.75710e-12
      233.400   4.66469e-12
      233.500   4.57409e-12
      233.600   4.48526e-12
      233.700   4.39810e-12
      233.800   4.30202e-12
      233.900   4.20663e-12
      234.000   4.11328e-12
      234.100   4.02199e-12
      234.200   3.93271e-12
      234.300   3.84538e-12
      234.400   3.75996e-12
      234.500   3.67640e-12
      234.600   3.59466e-12
      234.700   3.51472e-12
      234.800   3.43655e-12
      234.900   3.36007e-12
      235.000   3.28525e-12
      235.100   3.21207e-12
      235.200   3.14051e-12
      235.300   3.07050e-12
      235.400   3.00203e-12
      235.500   2.93505e-12
      235.600   2.86957e-12
      235.700   2.80550e-12
      235.800   2.74291e-12
      235.900   2.68168e-12
      236.000   2.62180e-12
      236.100   2.56321e-12
      236.200   2.50592e-12
      236.300   2.44987e-12
      236.400   2.39507e-12
      236.500   2.34146e-12
      236.600   2.28902e-12
      236.700   2.23773e-12
      236.800   2.18756e-12
      236.900   2.13849e-12
      237.000   2.09049e-12
      237.100   2.04354e-12
      237.200   1.99763e-12
      237.300   1.95272e-12
      237.400   1.90880e-12
      237.500   1.86582e-12
      237.600   1.82379e-12
      237.700   1.78271e-12
      237.800   1.74254e-12
      237.900   1.70325e-12
      238.000   1.66483e-12
      238.100   1.62723e-12
      238.200   1.59047e-12
      238.300   1.55451e-12
      238.400   1.51933e-12
      238.500   1.48492e-12
      238.600   1.45127e-12
      238.700   1.41837e-12
      238.800   1.38618e-12
      238.900   1.35470e-12
      239.000   1.32390e-12
      239.100   1.29379e-12
      239.200   1.26434e-12
      239.300   1.23556e-12
      239.400   1.20743e-12
      239.500   1.17991e-12
      239.600   1.15300e-12
      239.700   1.12670e-12
      239.800   1.10096e-12
      239.900   1.07579e-12
      240.000   1.05118e-12
      240.100   1.02710e-12
      240.200   1.00356e-12
      240.300   9.80535e-13
      240.400   9.58015e-13
      240.500   9.36006e-13
      240.600   9.14483e-13
      240.700   8.93434e-13
      240.800   8.72867e-13
      240.900   8.52770e-13
      241.000   8.33125e-13
      241.100   8.13913e-13
      241.200   7.95132e-13
      241.300   7.76765e-13
      241.400   7.58811e-13
      241.500   7.41258e-13
      241.600   7.24098e-13
      241.700   7.07320e-13
      241.800   6.90916e-13
      241.900   6.74879e-13
      242.000   6.59204e-13
      242.100   6.43885e-13
      242.200   6.28926e-13
      242.300   6.14315e-13
      242.400   6.00030e-13
      242.500   5.86067e-13
      242.600   5.72420e-13
      242.700   5.59080e-13
      242.800   5.46046e-13
      242.900   5.33306e-13
      243.000   5.20855e-13
      243.100   5.08687e-13
      243.200   4.96792e-13
      243.300   4.85170e-13
      243.400   4.73817e-13
      243.500   4.62730e-13
      243.600   4.51911e-13
      243.700   4.41334e-13
      243.800   4.30999e-13
      243.900   4.20904e-13
      244.000   4.11037e-13
      244.100   4.01398e-13
      244.200   3.91980e-13
      244.300   3.82776e-13
      244.400   3.73785e-13
      244.500   3.65002e-13
      244.600   3.56419e-13
      244.700   3.48042e-13
      244.800   3.39869e-13
      244.900   3.31884e-13
      245.000   3.24080e-13
      245.100   3.16458e-13
      245.200   3.09014e-13
      245.300   3.01742e-13
      245.400   2.94636e-13
      245.500   2.87697e-13
      245.600   2.80917e-13
      245.700   2.74293e-13
      245.800   2.67822e-13
      245.900   2.61513e-13
      246.000   2.55355e-13
      246.100   2.49337e-13
      246.200   2.43460e-13
      246.300   2.37719e-13
      246.400   2.32112e-13
      246.500   2.26634e-13
      246.600   2.21284e-13
      246.700   2.16058e-13
      246.800   2.10952e-13
      246.900   2.05965e-13
      247.000   2.01103e-13
      247.100   1.96356e-13
      247.200   1.91720e-13
      247.300   1.87193e-13
      247.400   1.82770e-13
      247.500   1.78450e-13
      247.600   1.74230e-13
      247.700   1.70109e-13
      247.800   1.66083e-13
      247.900   1.62150e-13
      248.000   1.58310e-13
      248.100   1.54570e-13
      248.200   1.50916e-13
      248.300   1.47347e-13
      248.400   1.43861e-13
      248.500   1.40455e-13
      248.600   1.37129e-13
      248.700   1.33881e-13
      248.800   1.30708e-13
      248.900   1.27609e-13
      249.000   1.24583e-13
      249.100   1.21633e-13
      249.200   1.18754e-13
      249.300   1.15941e-13
      249.400   1.13193e-13
      249.500   1.10510e-13
      249.600   1.07889e-13
      249.700   1.05329e-13
      249.800   1.02829e-13
      249.900   1.00386e-13
      250.000   9.80016e-14
      250.100   9.56764e-14
      250.200   9.34062e-14
      250.300   9.11911e-14
      250.400   8.90270e-14
      250.500   8.69139e-14
      250.600   8.48504e-14
      250.700   8.28349e-14
      250.800   8.08667e-14
      250.900   7.89446e-14
      251.000   7.70675e-14
      251.100   7.52343e-14
      251.200   7.34457e-14
      251.300   7.17011e-14
      251.400   6.99975e-14
      251.500   6.83329e-14
      251.600   6.67076e-14
      251.700   6.51213e-14
      251.800   6.35716e-14
      251.900   6.20582e-14
      252.000   6.05800e-14
      252.100   5.91371e-14
      252.200   5.77275e-14
      252.300   5.63526e-14
      252.400   5.50103e-14
      252.500   5.37003e-14
      252.600   5.24205e-14
      252.700   5.11708e-14
      252.800   4.99506e-14
      252.900   4.87589e-14
      253.000   4.75951e-14
      253.100   4.64586e-14
      253.200   4.53489e-14
      253.300   4.42745e-14
      253.400   4.32291e-14
      253.500   4.22087e-14
      253.600   4.12130e-14
      253.700   4.02401e-14
      253.800   3.92899e-14
      253.900   3.83618e-14
      254.000   3.74551e-14
      254.100   3.65691e-14
      254.200   3.57037e-14
      254.300   3.48585e-14
      254.400   3.40326e-14
      254.500   3.32259e-14
      254.600   3.24379e-14
      254.700   3.16683e-14
      254.800   3.09175e-14
      254.900   3.01840e-14
      255.000   2.94676e-14
      255.100   2.87675e-14
      255.200   2.80836e-14
      255.300   2.74157e-14
      255.400   2.67632e-14
      255.500   2.61259e-14
      255.600   2.55034e-14
      255.700   2.48953e-14
      255.800   2.43013e-14
      255.900   2.37209e-14
      256.000   2.31540e-14
      256.100   2.26007e-14
      256.200   2.20605e-14
      256.300   2.15329e-14
      256.400   2.10179e-14
      256.500   2.05143e-14
      256.600   2.00228e-14
      256.700   1.95427e-14
      256.800   1.90736e-14
      256.900   1.86155e-14
      257.000   1.81681e-14
      257.100   1.77311e-14
      257.200   1.73044e-14
      257.300   1.68876e-14
      257.400   1.65347e-14
      257.500   1.62084e-14
      257.600   1.58897e-14
      257.700   1.55771e-14
      257.800   1.52704e-14
      257.900   1.49696e-14
      258.000   1.46746e-14
      258.100   1.43851e-14
      258.200   1.41012e-14
      258.300   1.38229e-14
      258.400   1.35497e-14
      258.500   1.32817e-14
      258.600   1.30189e-14
      258.700   1.27612e-14
      258.800   1.25084e-14
      258.900   1.22605e-14
      259.000   1.20173e-14
      259.100   1.17788e-14
      259.200   1.15450e-14
      259.300   1.13158e-14
      259.400   1.10911e-14
      259.500   1.08706e-14
      259.600   1.06545e-14
      259.700   1.04425e-14
      259.800   1.02346e-14
      259.900   1.00307e-14
      260.000   9.83081e-15
      260.100   9.63479e-15
      260.200   9.44255e-15
      260.300   9.25406e-15
      260.400   9.06926e-15
      260.500   8.88809e-15
      260.600   8.71039e-15
      260.700   8.53615e-15
      260.800   8.36544e-15
      260.900   8.19793e-15
      261.000   8.03382e-15
      261.100   7.87298e-15
      261.200   7.71528e-15
      261.300   7.56064e-15
      261.400   7.40911e-15
      261.500   7.27536e-15
      261.600   7.19201e-15
      261.700   7.11795e-15
      261.800   7.04468e-15
      261.900   6.97210e-15
      262.000   6.90026e-15
      262.100   6.82913e-15
      262.200   6.75876e-15
      262.300   6.68907e-15
      262.400   6.62009e-15
      262.500   6.55182e-15
      262.600   6.48423e-15
      262.700   6.41734e-15
      262.800   6.35112e-15
      262.900   6.28552e-15
      263.000   6.22072e-15
      263.100   6.15651e-15
      263.200   6.09297e-15
      263.300   6.03010e-15
      263.400   5.96785e-15
      263.500   5.90626e-15
      263.600   5.84533e-15
      263.700   5.78500e-15
      263.800   5.72528e-15
      263.900   5.66623e-15
      264.000   5.60777e-15
      264.100   5.54989e-15
      264.200   5.49262e-15
      264.300   5.43597e-15
      264.400   5.37991e-15
      264.500   5.32442e-15
      264.600   5.26950e-15
      264.700   5.21516e-15
      264.800   5.16139e-15
      264.900   5.10821e-15
      265.000   5.05557e-15
      265.100   5.00347e-15
      265.200   4.95192e-15
      265.300   4.90092e-15
      265.400   4.85047e-15
      265.500   4.80054e-15
      265.600   4.75115e-15
      265.700   4.70226e-15
      265.800   4.65397e-15
      265.900   4.60617e-15
      266.000   4.55892e-15
      266.100   4.51217e-15
      266.200   4.46590e-15
      266.300   4.42012e-15
      266.400   4.37483e-15
      266.500   4.33001e-15
      266.600   4.28570e-15
      266.700   4.24182e-15
      266.800   4.19846e-15
      266.900   4.15553e-15
      267.000   4.11307e-15
      267.100   4.07106e-15
      267.200   4.02954e-15
      267.300   3.98843e-15
      267.400   3.94774e-15
      267.500   3.90751e-15
      267.600   3.86770e-15
      267.700   3.82832e-15
      267.800   3.78936e-15
      267.900   3.75082e-15
      268.000   3.71271e-15
      268.100   3.67500e-15
      268.200   3.63770e-15
      268.300   3.60081e-15
      268.400   3.56429e-15
      268.500   3.52817e-15
      268.600   3.49243e-15
      268.700   3.45711e-15
      268.800   3.42214e-15
      268.900   3.38755e-15
      269.000   3.35334e-15
      269.100   3.31949e-15
      269.200   3.28602e-15
      269.300   3.25290e-15
      269.400   3.22012e-15
      269.500   3.18768e-15
      269.600   3.15563e-15
      269.700   3.12389e-15
      269.800   3.09251e-15
      269.900   3.06144e-15
      270.000   3.03075e-15
      270.100   3.00038e-15
      270.200   2.97038e-15
      270.300   2.94067e-15
      270.400   2.91128e-15
      270.500   2.88221e-15
      270.600   2.85344e-15
      270.700   2.82498e-15
      270.800   2.79683e-15
      270.900   2.76896e-15
      271.000   2.74139e-15
      271.100   2.71410e-15
      271.200   2.68709e-15
      271.300   2.66038e-15
      271.400   2.63394e-15
      271.500   2.60779e-15
      271.600   2.58189e-15
      271.700   2.55627e-15
      271.800   2.53091e-15
      271.900   2.50582e-15
      272.000   2.48099e-15
      272.100   2.45641e-15
      272.200   2.43207e-15
      272.300   2.40799e-15
      272.400   2.38415e-15
      272.500   2.36056e-15
      272.600   2.33720e-15
      272.700   2.31409e-15
      272.800   2.29120e-15
      272.900   2.26855e-15
      273.000   2.24614e-15
      273.100   2.22394e-15
      273.200   2.20197e-15
      273.300   2.18022e-15
      273.400   2.15868e-15
      273.500   2.13736e-15
      273.600   2.11626e-15
      273.700   2.09535e-15
      273.800   2.07465e-15
      273.900   2.05418e-15
      274.000   2.03389e-15
      274.100   2.01381e-15
      274.200   1.99392e-15
      274.300   1.97423e-15
      274.400   1.95453e-15
      274.500   1.93457e-15
      274.600   1.91471e-15
      274.700   1.89506e-15
      274.800   1.87561e-15
      274.900   1.85634e-15
      275.000   1.83727e-15
      275.100   1.81840e-15
      275.200   1.79970e-15
      275.300   1.78119e-15
      275.400   1.76288e-15
      275.500   1.74476e-15
      275.600   1.72680e-15
      275.700   1.70902e-15
      275.800   1.69142e-15
      275.900   1.67401e-15
      276.000   1.65676e-15
      276.100   1.63968e-15
      276.200   1.62276e-15
      276.300   1.60602e-15
      276.400   1.58944e-15
      276.500   1.57303e-15
      276.600   1.55678e-15
      276.700   1.54069e-15
      276.800   1.52476e-15
      276.900   1.50898e-15
      277.000   1.49336e-15
      277.100   1.47789e-15
      277.200   1.46258e-15
      277.300   1.44741e-15
      277.400   1.43240e-15
      277.500   1.41753e-15
      277.600   1.40281e-15
      277.700   1.38823e-15
      277.800   1.37379e-15
      277.900   1.35950e-15
      278.000   1.34536e-15
      278.100   1.33135e-15
      278.200   1.31748e-15
      278.300   1.30374e-15
      278.400   1.29014e-15
      278.500   1.27667e-15
      278.600   1.26333e-15
      278.700   1.25013e-15
      278.800   1.23706e-15
      278.900   1.22407e-15
      279.000   1.21121e-15
      279.100   1.19848e-15
      279.200   1.18586e-15
      279.300   1.17338e-15
      279.400   1.16101e-15
      279.500   1.14877e-15
      279.600   1.13665e-15
      279.700   1.12466e-15
      279.800   1.11278e-15
      279.900   1.10102e-15
      280.000   1.08938e-15
      280.100   1.07785e-15
      280.200   1.06644e-15
      280.300   1.05513e-15
      280.400   1.04395e-15
      280.500   1.03288e-15
      280.600   1.02192e-15
      280.700   1.01106e-15
      280.800   1.00032e-15
      280.900   9.89683e-16
      281.000   9.79152e-16
      281.100   9.68725e-16
      281.200   9.58405e-16
      281.300   9.48191e-16
      281.400   9.38083e-16
      281.500   9.28070e-16
      281.600   9.18154e-16
      281.700   9.08344e-16
      281.800   8.98637e-16
      281.900   8.89025e-16
      282.000   8.79512e-16
      282.100   8.70092e-16
      282.200   8.60776e-16
      282.300   8.51548e-16
      282.400   8.42417e-16
      282.500   8.33374e-16
      282.600   8.24428e-16
      282.700   8.15569e-16
      282.800   8.06804e-16
      282.900   7.98135e-16
      283.000   7.89549e-16
      283.100   7.81053e-16
      283.200   7.72649e-16
      283.300   7.64327e-16
      283.400   7.56094e-16
      283.500   7.47950e-16
      283.600   7.39886e-16
      283.700   7.31904e-16
      283.800   7.24007e-16
      283.900   7.16196e-16
      284.000   7.08462e-16
      284.100   7.00806e-16
      284.200   6.93232e-16
      284.300   6.85741e-16
      284.400   6.78327e-16
      284.500   6.70992e-16
      284.600   6.63734e-16
      284.700   6.56554e-16
      284.800   6.49450e-16
      284.900   6.42419e-16
      285.000   6.35459e-16
      285.100   6.28576e-16
      285.200   6.21769e-16
      285.300   6.15031e-16
      285.400   6.08365e-16
      285.500   6.01768e-16
      285.600   5.95250e-16
      285.700   5.88795e-16
      285.800   5.82413e-16
      285.900   5.76097e-16
      286.000   5.69849e-16
      286.100   5.63675e-16
      286.200   5.57562e-16
      286.300   5.51519e-16
      286.400   5.45541e-16
      286.500   5.39625e-16
      286.600   5.33774e-16
      286.700   5.27985e-16
      286.800   5.22262e-16
      286.900   5.16601e-16
      287.000   5.11000e-16
      287.100   5.05460e-16
      287.200   4.99983e-16
      287.300   4.94564e-16
      287.400   4.89204e-16
      287.500   4.83905e-16
      287.600   4.78664e-16
      287.700   4.73479e-16
      287.800   4.68352e-16
      287.900   4.63282e-16
      288.000   4.58269e-16
      288.100   4.53309e-16
      288.200   4.48408e-16
      288.300   4.43561e-16
      288.400   4.38767e-16
      288.500   4.34027e-16
      288.600   4.29337e-16
      288.700   4.24701e-16
      288.800   4.20115e-16
      288.900   4.15584e-16
      289.000   4.11101e-16
      289.100   4.06666e-16
      289.200   4.02282e-16
      289.300   3.97947e-16
      289.400   3.93660e-16
      289.500   3.89421e-16
      289.600   3.85228e-16
      289.700   3.81086e-16
      289.800   3.76986e-16
      289.900   3.72930e-16
      290.000   3.68925e-16
      290.100   3.64959e-16
      290.200   3.61044e-16
      290.300   3.57170e-16
      290.400   3.53339e-16
      290.500   3.49555e-16
      290.600   3.45809e-16
      290.700   3.42105e-16
      290.800   3.38446e-16
      290.900   3.34826e-16
      291.000   3.31243e-16
      291.100   3.27702e-16
      291.200   3.24201e-16
      291.300   3.20738e-16
      291.400   3.17316e-16
      291.500   3.13930e-16
      291.600   3.10581e-16
      291.700   3.07272e-16
      291.800   3.03997e-16
      291.900   3.00762e-16
      292.000   2.97565e-16
      292.100   2.94401e-16
      292.200   2.91273e-16
      292.300   2.88178e-16
      292.400   2.85118e-16
      292.500   2.82092e-16
      292.600   2.79099e-16
      292.700   2.76139e-16
      292.800   2.73212e-16
      292.900   2.70317e-16
      293.000   2.67454e-16
      293.100   2.64623e-16
      293.200   2.61823e-16
      293.300   2.59052e-16
      293.400   2.56315e-16
      293.500   2.53607e-16
      293.600   2.50930e-16
      293.700   2.48280e-16
      293.800   2.45661e-16
      293.900   2.43071e-16
      294.000   2.40507e-16
      294.100   2.37973e-16
      294.200   2.35467e-16
      294.300   2.32989e-16
      294.400   2.30535e-16
      294.500   2.28109e-16
      294.600   2.25708e-16
      294.700   2.23335e-16
      294.800   2.20987e-16
      294.900   2.18664e-16
      295.000   2.16368e-16
      295.100   2.14097e-16
      295.200   2.11851e-16
      295.300   2.09627e-16
      295.400   2.07428e-16
      295.500   2.05253e-16
      295.600   2.03101e-16
      295.700   2.00972e-16
      295.800   1.98865e-16
      295.900   1.96780e-16
      296.000   1.94719e-16
      296.100   1.92678e-16
      296.200   1.90660e-16
      296.300   1.88664e-16
      296.400   1.86691e-16
      296.500   1.84736e-16
      296.600   1.82804e-16
      296.700   1.80891e-16
      296.800   1.78999e-16
      296.900   1.77127e-16
      297.000   1.75274e-16
      297.100   1.73440e-16
      297.200   1.71626e-16
      297.300   1.69831e-16
      297.400   1.68055e-16
      297.500   1.66296e-16
      297.600   1.64558e-16
      297.700   1.62837e-16
      297.800   1.61134e-16
      297.900   1.59450e-16
      298.000   1.57784e-16
      298.100   1.56134e-16
      298.200   1.54501e-16
      298.300   1.52886e-16
      298.400   1.51286e-16
      298.500   1.49703e-16
      298.600   1.48137e-16
      298.700   1.46586e-16
      298.800   1.45051e-16
      298.900   1.43533e-16
      299.000   1.42032e-16
      299.100   1.40546e-16
      299.200   1.39074e-16
      299.300   1.37617e-16
      299.400   1.36176e-16
      299.500   1.34749e-16
      299.600   1.33337e-16
      299.700   1.31939e-16
      299.800   1.30555e-16
      299.900   1.29185e-16
      300.000   1.27830e-16
      300.100   1.26488e-16
      300.192   1.25266e-16
      300.285   1.24041e-16
      300.377   1.22842e-16
      300.470   1.21642e-16
      300.562   1.20466e-16
      300.654   1.19300e-16
      300.747   1.18132e-16
      300.839   1.16989e-16
      300.932   1.15842e-16
      301.025   1.14708e-16
      301.117   1.13596e-16
      301.210   1.12482e-16
      301.303   1.11379e-16
      301.395   1.10299e-16
      301.488   1.09215e-16
      301.581   1.08143e-16
      301.674   1.07081e-16
      301.766   1.06039e-16
      301.859   1.04997e-16
      301.952   1.03964e-16
      302.045   1.02941e-16
      302.138   1.01998e-16
      302.231   1.01223e-16
      302.324   1.00460e-16
      302.417   9.97033e-17
      302.510   9.89506e-17
      302.603   9.82046e-17
      302.696   9.74624e-17
      302.789   9.67254e-17
      302.882   9.59935e-17
      302.976   9.52600e-17
      303.069   9.45385e-17
      303.162   9.38219e-17
      303.255   9.31098e-17
      303.349   9.23956e-17
      303.442   9.16933e-17
      303.535   9.09964e-17
      303.629   9.02967e-17
      303.722   8.96094e-17
      303.816   8.89198e-17
      303.909   8.82415e-17
      304.003   8.75610e-17
      304.096   8.68924e-17
      304.190   8.62213e-17
      304.283   8.55616e-17
      304.377   8.49000e-17
      304.471   8.42423e-17
      304.564   8.35964e-17
      304.658   8.29489e-17
      304.752   8.23047e-17
      304.846   8.16657e-17
      304.939   8.10376e-17
      305.033   8.04072e-17
      305.127   7.97811e-17
      305.221   7.91595e-17
      305.315   7.85428e-17
      305.409   7.79294e-17
      305.503   7.73210e-17
      305.597   7.67171e-17
      305.691   7.61169e-17
      305.785   7.55213e-17
      305.879   7.49293e-17
      305.973   7.43420e-17
      306.067   7.37585e-17
      306.161   7.31795e-17
      306.255   7.26045e-17
      306.350   7.20275e-17
      306.444   7.14604e-17
      306.538   7.08977e-17
      306.633   7.03333e-17
      306.727   6.97786e-17
      306.821   6.92279e-17
      306.916   6.86753e-17
      307.010   6.81404e-17
      307.105   6.76292e-17
      307.199   6.71308e-17
      307.294   6.66303e-17
      307.388   6.61386e-17
      307.483   6.56452e-17
      307.577   6.51602e-17
      307.672   6.46731e-17
      307.767   6.41895e-17
      307.861   6.37142e-17
      307.956   6.32366e-17
      308.051   6.27625e-17
      308.146   6.22921e-17
      308.240   6.18294e-17
      308.335   6.13649e-17
      308.430   6.09033e-17
      308.525   6.04454e-17
      308.620   5.99907e-17
      308.715   5.95389e-17
      308.810   5.90905e-17
      308.905   5.86450e-17
      309.000   5.82023e-17
      309.095   5.77630e-17
      309.190   5.73271e-17
      309.285   5.68940e-17
      309.380   5.64640e-17
      309.476   5.60328e-17
      309.571   5.56087e-17
      309.666   5.51877e-17
      309.761   5.47698e-17
      309.857   5.43505e-17
      309.952   5.39382e-17
      310.047   5.35293e-17
      310.143   5.31189e-17
      310.238   5.27158e-17
      310.334   5.23113e-17
      310.429   5.19139e-17
      310.525   5.15152e-17
      310.620   5.11237e-17
      310.716   5.07309e-17
      310.811   5.03453e-17
      310.907   4.99584e-17
      311.003   4.95742e-17
      311.098   4.91967e-17
      311.194   4.88182e-17
      311.290   4.84429e-17
      311.386   4.80702e-17
      311.481   4.77040e-17
      311.577   4.73367e-17
      311.673   4.69722e-17
      311.769   4.66105e-17
      311.865   4.62515e-17
      311.961   4.58964e-17
      312.057   4.55492e-17
      312.153   4.52065e-17
      312.249   4.48661e-17
      312.345   4.45285e-17
      312.441   4.41932e-17
      312.537   4.38606e-17
      312.633   4.35305e-17
      312.730   4.31993e-17
      312.826   4.28742e-17
      312.922   4.25514e-17
      313.018   4.22312e-17
      313.115   4.19101e-17
      313.211   4.15946e-17
      313.307   4.12817e-17
      313.404   4.09680e-17
      313.500   4.06598e-17
      313.597   4.03510e-17
      313.693   4.00476e-17
      313.790   3.97435e-17
      313.886   3.94448e-17
      313.983   3.91452e-17
      314.079   3.88511e-17
      314.176   3.85563e-17
      314.273   3.82637e-17
      314.369   3.79768e-17
      314.466   3.76890e-17
      314.563   3.74033e-17
      314.660   3.71199e-17
      314.756   3.68416e-17
      314.853   3.65625e-17
      314.950   3.62858e-17
      315.047   3.60114e-17
      315.144   3.57391e-17
      315.241   3.54689e-17
      315.338   3.52009e-17
      315.435   3.49349e-17
      315.532   3.46711e-17
      315.629   3.44094e-17
      315.726   3.41499e-17
      315.823   3.38922e-17
      315.921   3.36342e-17
      316.018   3.33809e-17
      316.115   3.31296e-17
      316.212   3.28802e-17
      316.310   3.26303e-17
      316.407   3.23849e-17
      316.504   3.21415e-17
      316.602   3.18977e-17
      316.699   3.16583e-17
      316.796   3.14207e-17
      316.894   3.11827e-17
      316.991   3.09496e-17
      317.089   3.07196e-17
      317.187   3.04933e-17
      317.284   3.02710e-17
      317.382   3.00482e-17
      317.479   2.98293e-17
      317.577   2.96100e-17
      317.675   2.93925e-17
      317.773   2.91766e-17
      317.870   2.89648e-17
      317.968   2.87523e-17
      318.066   2.85415e-17
      318.164   2.83325e-17
      318.262   2.81251e-17
      318.360   2.79193e-17
      318.458   2.77153e-17
      318.556   2.75130e-17
      318.654   2.73122e-17
      318.752   2.71129e-17
      318.850   2.69153e-17
      318.948   2.67192e-17
      319.046   2.65247e-17
      319.144   2.63317e-17
      319.242   2.61402e-17
      319.341   2.59484e-17
      319.439   2.57600e-17
      319.537   2.55732e-17
      319.635   2.53878e-17
      319.734   2.52020e-17
      319.832   2.50196e-17
      319.930   2.48384e-17
      320.029   2.46570e-17
      320.127   2.44788e-17
      320.226   2.43003e-17
      320.324   2.41249e-17
      320.423   2.39490e-17
      320.522   2.37748e-17
      320.620   2.36036e-17
      320.719   2.34319e-17
      320.818   2.32617e-17
      320.916   2.30944e-17
      321.015   2.29268e-17
      321.114   2.27605e-17
      321.213   2.25955e-17
      321.311   2.24335e-17
      321.410   2.22712e-17
      321.509   2.21099e-17
      321.608   2.19501e-17
      321.707   2.17915e-17
      321.806   2.16341e-17
      321.905   2.14779e-17
      322.004   2.13230e-17
      322.103   2.11693e-17
      322.202   2.10166e-17
      322.301   2.08653e-17
      322.401   2.07136e-17
      322.500   2.05646e-17
      322.599   2.04168e-17
      322.698   2.02700e-17
      322.798   2.01229e-17
      322.897   1.99784e-17
      322.996   1.98351e-17
      323.096   1.96913e-17
      323.195   1.95501e-17
      323.294   1.94099e-17
      323.394   1.92694e-17
      323.493   1.91314e-17
      323.593   1.89931e-17
      323.692   1.88572e-17
      323.792   1.87209e-17
      323.892   1.85857e-17
      323.991   1.84527e-17
      324.091   1.83196e-17
      324.191   1.81874e-17
      324.291   1.80562e-17
      324.390   1.79273e-17
      324.490   1.77981e-17
      324.590   1.76698e-17
      324.690   1.75424e-17
      324.790   1.74161e-17
      324.890   1.72907e-17
      324.990   1.71662e-17
      325.090   1.70426e-17
      325.190   1.69199e-17
      325.290   1.67981e-17
      325.390   1.66772e-17
      325.490   1.65572e-17
      325.590   1.64382e-17
      325.690   1.63198e-17
      325.790   1.62024e-17
      325.891   1.60847e-17
      325.991   1.59690e-17
      326.091   1.58541e-17
      326.192   1.57389e-17
      326.292   1.56257e-17
      326.392   1.55134e-17
      326.493   1.54007e-17
      326.593   1.52899e-17
      326.694   1.51788e-17
      326.794   1.50696e-17
      326.895   1.49601e-17
      326.995   1.48524e-17
      327.096   1.47445e-17
      327.197   1.46373e-17
      327.297   1.45319e-17
      327.398   1.44262e-17
      327.499   1.43213e-17
      327.599   1.42181e-17
      327.700   1.41146e-17
      327.801   1.40119e-17
      327.902   1.39099e-17
      328.003   1.38086e-17
      328.104   1.37080e-17
      328.205   1.36081e-17
      328.306   1.35089e-17
      328.407   1.34104e-17
      328.508   1.33125e-17
      328.609   1.32154e-17
      328.710   1.31188e-17
      328.811   1.30230e-17
      328.912   1.29279e-17
      329.013   1.28333e-17
      329.115   1.27386e-17
      329.216   1.26454e-17
      329.317   1.25527e-17
      329.419   1.24600e-17
      329.520   1.23686e-17
      329.621   1.22778e-17
      329.723   1.21869e-17
      329.824   1.20974e-17
      329.926   1.20077e-17
      330.027   1.19195e-17
      330.129   1.18309e-17
      330.230   1.17439e-17
      330.332   1.16566e-17
      330.434   1.15698e-17
      330.535   1.14845e-17
      330.637   1.13989e-17
      330.739   1.13139e-17
      330.840   1.12303e-17
      330.942   1.11465e-17
      331.044   1.10632e-17
      331.146   1.09804e-17
      331.248   1.08983e-17
      331.350   1.08167e-17
      331.452   1.07358e-17
      331.554   1.06579e-17
      331.656   1.05844e-17
      331.758   1.05114e-17
      331.860   1.04388e-17
      331.962   1.03667e-17
      332.064   1.02951e-17
      332.166   1.02239e-17
      332.268   1.01531e-17
      332.371   1.00820e-17
      332.473   1.00120e-17
      332.575   9.94244e-18
      332.677   9.87333e-18
      332.780   9.80396e-18
      332.882   9.73568e-18
      332.985   9.66715e-18
      333.087   9.59965e-18
      333.190   9.53197e-18
      333.292   9.46407e-18
      333.395   9.39260e-18
      333.497   9.32106e-18
      333.600   9.24934e-18
      333.702   9.17877e-18
      333.805   9.10801e-18
      333.908   9.03770e-18
      334.011   8.96791e-18
      334.113   8.89922e-18
      334.216   8.83034e-18
      334.319   8.76196e-18
      334.422   8.69399e-18
      334.525   8.62652e-18
      334.628   8.55949e-18
      334.731   8.49297e-18
      334.834   8.42690e-18
      334.937   8.36127e-18
      335.040   8.29607e-18
      335.143   8.23136e-18
      335.246   8.16707e-18
      335.349   8.10320e-18
      335.452   8.03981e-18
      335.555   7.97685e-18
      335.659   7.91374e-18
      335.762   7.85168e-18
      335.865   7.79008e-18
      335.969   7.72826e-18
      336.072   7.66742e-18
      336.175   7.60708e-18
      336.279   7.54658e-18
      336.382   7.48710e-18
      336.486   7.42742e-18
      336.589   7.36872e-18
      336.693   7.30996e-18
      336.796   7.25213e-18
      336.900   7.19418e-18
      337.004   7.13659e-18
      337.107   7.08000e-18
      337.211   7.02328e-18
      337.315   6.96702e-18
      337.419   6.91109e-18
      337.523   6.85553e-18
      337.626   6.80096e-18
      337.730   6.74632e-18
      337.834   6.69198e-18
      337.938   6.63811e-18
      338.042   6.58480e-18
      338.146   6.53261e-18
      338.250   6.48089e-18
      338.354   6.42954e-18
      338.458   6.37853e-18
      338.562   6.32791e-18
      338.667   6.27719e-18
      338.771   6.22728e-18
      338.875   6.17777e-18
      338.979   6.12860e-18
      339.084   6.07939e-18
      339.188   6.03094e-18
      339.292   5.98291e-18
      339.397   5.93471e-18
      339.501   5.88739e-18
      339.606   5.83993e-18
      339.710   5.79328e-18
      339.815   5.74657e-18
      339.919   5.70064e-18
      340.024   5.65459e-18
      340.128   5.60937e-18
      340.233   5.56403e-18
      340.338   5.51908e-18
      340.442   5.47484e-18
      340.547   5.43055e-18
      340.652   5.38660e-18
      340.757   5.34297e-18
      340.862   5.29969e-18
      340.966   5.25716e-18
      341.071   5.21451e-18
      341.176   5.17223e-18
      341.281   5.13027e-18
      341.386   5.08869e-18
      341.491   5.04736e-18
      341.596   5.00644e-18
      341.702   4.96542e-18
      341.807   4.92506e-18
      341.912   4.88507e-18
      342.017   4.84542e-18
      342.122   4.80603e-18
      342.228   4.76660e-18
      342.333   4.72787e-18
      342.438   4.68944e-18
      342.544   4.65098e-18
      342.649   4.61314e-18
      342.754   4.57568e-18
      342.860   4.53810e-18
      342.965   4.50118e-18
      343.071   4.46427e-18
      343.176   4.42798e-18
      343.282   4.39162e-18
      343.388   4.35559e-18
      343.493   4.32044e-18
      343.599   4.28738e-18
      343.705   4.25485e-18
      343.810   4.22280e-18
      343.916   4.19072e-18
      344.022   4.15893e-18
      344.128   4.12734e-18
      344.234   4.09599e-18
      344.340   4.06492e-18
      344.446   4.03404e-18
      344.552   4.00342e-18
      344.658   3.97309e-18
      344.764   3.94296e-18
      344.870   3.91306e-18
      344.976   3.88340e-18
      345.082   3.85397e-18
      345.188   3.82480e-18
      345.294   3.79582e-18
      345.401   3.76682e-18
      345.507   3.73831e-18
      345.613   3.71004e-18
      345.719   3.68198e-18
      345.826   3.65389e-18
      345.932   3.62628e-18
      346.039   3.59864e-18
      346.145   3.57145e-18
      346.252   3.54426e-18
      346.358   3.51753e-18
      346.465   3.49076e-18
      346.571   3.46445e-18
      346.678   3.43810e-18
      346.785   3.41197e-18
      346.891   3.38629e-18
      346.998   3.36059e-18
      347.105   3.33511e-18
      347.212   3.30981e-18
      347.319   3.28473e-18
      347.425   3.26005e-18
      347.532   3.23537e-18
      347.639   3.21090e-18
      347.746   3.18661e-18
      347.853   3.16254e-18
      347.960   3.13864e-18
      348.067   3.11497e-18
      348.174   3.09149e-18
      348.281   3.06816e-18
      348.389   3.04485e-18
      348.496   3.02189e-18
      348.603   2.99919e-18
      348.710   2.97662e-18
      348.818   2.95407e-18
      348.925   2.93187e-18
      349.032   2.90988e-18
      349.140   2.88781e-18
      349.247   2.86612e-18
      349.355   2.84444e-18
      349.462   2.82311e-18
      349.570   2.80174e-18
      349.677   2.78077e-18
      349.785   2.75976e-18
      349.892   2.73913e-18
      350.000   2.71849e-18
      350.100   2.69952e-18
      350.193   2.68202e-18
      350.287   2.66444e-18
      350.380   2.64716e-18
      350.473   2.63003e-18
      350.567   2.61281e-18
      350.660   2.59592e-18
      350.754   2.57895e-18
      350.847   2.56232e-18
      350.941   2.54560e-18
      351.034   2.52917e-18
      351.128   2.51270e-18
      351.221   2.49651e-18
      351.315   2.48028e-18
      351.409   2.46413e-18
      351.502   2.44830e-18
      351.596   2.43239e-18
      351.690   2.41660e-18
      351.783   2.40110e-18
      351.877   2.38555e-18
      351.971   2.37009e-18
      352.065   2.35475e-18
      352.159   2.33952e-18
      352.252   2.32456e-18
      352.346   2.30953e-18
      352.440   2.29462e-18
      352.534   2.27983e-18
      352.628   2.26514e-18
      352.722   2.25053e-18
      352.816   2.23604e-18
      352.910   2.22165e-18
      353.004   2.20737e-18
      353.098   2.19317e-18
      353.192   2.17908e-18
      353.287   2.16495e-18
      353.381   2.15106e-18
      353.475   2.13728e-18
      353.569   2.12357e-18
      353.663   2.10996e-18
      353.758   2.09633e-18
      353.852   2.08293e-18
      353.946   2.06962e-18
      354.041   2.05625e-18
      354.135   2.04312e-18
      354.229   2.03008e-18
      354.324   2.01701e-18
      354.418   2.00414e-18
      354.513   1.99123e-18
      354.607   1.97858e-18
      354.702   1.96580e-18
      354.796   1.95311e-18
      354.891   1.94035e-18
      354.985   1.92783e-18
      355.080   1.91525e-18
      355.175   1.90277e-18
      355.269   1.89049e-18
      355.364   1.87818e-18
      355.459   1.86595e-18
      355.553   1.85394e-18
      355.648   1.84188e-18
      355.743   1.82991e-18
      355.838   1.81800e-18
      355.933   1.80620e-18
      356.027   1.79460e-18
      356.122   1.78295e-18
      356.217   1.77138e-18
      356.312   1.75989e-18
      356.407   1.74848e-18
      356.502   1.73715e-18
      356.597   1.72589e-18
      356.692   1.71472e-18
      356.787   1.70362e-18
      356.882   1.69259e-18
      356.977   1.68164e-18
      357.073   1.67065e-18
      357.168   1.65984e-18
      357.263   1.64911e-18
      357.358   1.63845e-18
      357.453   1.62787e-18
      357.549   1.61725e-18
      357.644   1.60680e-18
      357.739   1.59643e-18
      357.835   1.58603e-18
      357.930   1.57579e-18
      358.025   1.56562e-18
      358.121   1.55542e-18
      358.216   1.54538e-18
      358.312   1.53531e-18
      358.407   1.52542e-18
      358.503   1.51548e-18
      358.598   1.50572e-18
      358.694   1.49592e-18
      358.790   1.48618e-18
      358.885   1.47659e-18
      358.981   1.46699e-18
      359.076   1.45753e-18
      359.172   1.44805e-18
      359.268   1.43862e-18
      359.364   1.42925e-18
      359.459   1.42005e-18
      359.555   1.41082e-18
      359.651   1.40163e-18
      359.747   1.39251e-18
      359.843   1.38345e-18
      359.939   1.37444e-18
      360.035   1.36550e-18
      360.131   1.35661e-18
      360.227   1.34778e-18
      360.323   1.33901e-18
      360.419   1.33029e-18
      360.515   1.32164e-18
      360.611   1.31303e-18
      360.707   1.30447e-18
      360.803   1.29598e-18
      360.899   1.28753e-18
      360.995   1.27916e-18
      361.092   1.27074e-18
      361.188   1.26245e-18
      361.284   1.25423e-18
      361.380   1.24605e-18
      361.477   1.23784e-18
      361.573   1.22977e-18
      361.669   1.22175e-18
      361.766   1.21368e-18
      361.862   1.20577e-18
      361.959   1.19782e-18
      362.055   1.18998e-18
      362.152   1.18213e-18
      362.248   1.17440e-18
      362.345   1.16663e-18
      362.441   1.15901e-18
      362.538   1.15135e-18
      362.635   1.14374e-18
      362.731   1.13624e-18
      362.828   1.12872e-18
      362.925   1.12124e-18
      363.021   1.11389e-18
      363.118   1.10651e-18
      363.215   1.09917e-18
      363.312   1.09187e-18
      363.409   1.08463e-18
      363.505   1.07750e-18
      363.602   1.07034e-18
      363.699   1.06323e-18
      363.796   1.05616e-18
      363.893   1.04912e-18
      363.990   1.04214e-18
      364.087   1.03519e-18
      364.184   1.02829e-18
      364.281   1.02143e-18
      364.378   1.01462e-18
      364.475   1.00785e-18
      364.573   1.00104e-18
      364.670   9.94341e-19
      364.767   9.87693e-19
      364.864   9.81082e-19
      364.961   9.74506e-19
      365.059   9.67909e-19
      365.156   9.61418e-19
      365.253   9.54965e-19
      365.351   9.48483e-19
      365.448   9.42106e-19
      365.545   9.35773e-19
      365.643   9.29408e-19
      365.740   9.23145e-19
      365.838   9.16860e-19
      365.935   9.10676e-19
      366.033   9.04470e-19
      366.130   8.98357e-19
      366.228   8.92222e-19
      366.326   8.86127e-19
      366.423   8.80126e-19
      366.521   8.74101e-19
      366.618   8.68170e-19
      366.716   8.62216e-19
      366.814   8.56301e-19
      366.912   8.50423e-19
      367.010   8.44581e-19
      367.107   8.38831e-19
      367.205   8.33056e-19
      367.303   8.27315e-19
      367.401   8.21611e-19
      367.499   8.15940e-19
      367.597   8.10304e-19
      367.695   8.04701e-19
      367.793   7.99135e-19
      367.891   7.93606e-19
      367.989   7.88106e-19
      368.087   7.82640e-19
      368.185   7.77206e-19
      368.283   7.71806e-19
      368.381   7.66438e-19
      368.480   7.61049e-19
      368.578   7.55748e-19
      368.676   7.50481e-19
      368.774   7.45246e-19
      368.873   7.39991e-19
      368.971   7.34820e-19
      369.069   7.29682e-19
      369.168   7.24518e-19
      369.266   7.19439e-19
      369.364   7.14393e-19
      369.463   7.09331e-19
      369.561   7.04348e-19
      369.660   6.99346e-19
      369.758   6.94423e-19
      369.857   6.89485e-19
      369.955   6.84625e-19
      370.054   6.79743e-19
      370.153   6.74892e-19
      370.251   6.70123e-19
      370.350   6.65337e-19
      370.449   6.60582e-19
      370.547   6.55901e-19
      370.646   6.51199e-19
      370.745   6.46532e-19
      370.844   6.41893e-19
      370.943   6.37284e-19
      371.041   6.32751e-19
      371.140   6.28197e-19
      371.239   6.23673e-19
      371.338   6.19182e-19
      371.437   6.14718e-19
      371.536   6.10281e-19
      371.635   6.05871e-19
      371.734   6.01494e-19
      371.833   5.97144e-19
      371.932   5.92821e-19
      372.032   5.88483e-19
      372.131   5.84212e-19
      372.230   5.79976e-19
      372.329   5.75768e-19
      372.428   5.71585e-19
      372.528   5.67389e-19
      372.627   5.63263e-19
      372.726   5.59164e-19
      372.826   5.55052e-19
      372.925   5.51006e-19
      373.024   5.46986e-19
      373.124   5.42951e-19
      373.223   5.38985e-19
      373.323   5.35008e-19
      373.422   5.31094e-19
      373.522   5.27165e-19
      373.621   5.23306e-19
      373.721   5.19432e-19
      373.820   5.15621e-19
      373.920   5.11798e-19
      374.020   5.08000e-19
      374.119   5.04266e-19
      374.219   5.00518e-19
      374.319   4.96800e-19
      374.419   4.93106e-19
      374.518   4.89472e-19
      374.618   4.85827e-19
      374.718   4.82203e-19
      374.818   4.78608e-19
      374.918   4.75039e-19
      375.018   4.71492e-19
      375.118   4.67972e-19
      375.218   4.64473e-19
      375.318   4.61001e-19
      375.418   4.57550e-19
      375.518   4.54127e-19
      375.618   4.50728e-19
      375.718   4.47348e-19
      375.818   4.43994e-19
      375.918   4.40663e-19
      376.019   4.37326e-19
      376.119   4.34043e-19
      376.219   4.30783e-19
      376.319   4.27545e-19
      376.420   4.24300e-19
      376.520   4.21108e-19
      376.620   4.17941e-19
      376.721   4.14763e-19
      376.821   4.11640e-19
      376.922   4.08509e-19
      377.022   4.05429e-19
      377.122   4.02375e-19
      377.223   3.99311e-19
      377.323   3.96300e-19
      377.424   3.93280e-19
      377.525   3.90283e-19
      377.625   3.87336e-19
      377.726   3.84381e-19
      377.827   3.81450e-19
      377.927   3.78567e-19
      378.028   3.75679e-19
      378.129   3.72810e-19
      378.230   3.70379e-19
      378.330   3.68622e-19
      378.431   3.66962e-19
      378.532   3.65311e-19
      378.633   3.63664e-19
      378.734   3.62025e-19
      378.835   3.60393e-19
      378.936   3.58767e-19
      379.037   3.57148e-19
      379.138   3.55533e-19
      379.239   3.53926e-19
      379.340   3.52329e-19
      379.441   3.50738e-19
      379.542   3.49151e-19
      379.643   3.47572e-19
      379.745   3.45985e-19
      379.846   3.44419e-19
      379.947   3.42858e-19
      380.048   3.41306e-19
      380.150   3.39746e-19
      380.251   3.38207e-19
      380.352   3.36675e-19
      380.454   3.35136e-19
      380.555   3.33617e-19
      380.656   3.32103e-19
      380.758   3.30584e-19
      380.859   3.29084e-19
      380.961   3.27578e-19
      381.062   3.26093e-19
      381.164   3.24601e-19
      381.266   3.23114e-19
      381.367   3.21649e-19
      381.469   3.20178e-19
      381.570   3.18727e-19
      381.672   3.17267e-19
      381.774   3.15815e-19
      381.876   3.14370e-19
      381.977   3.12946e-19
      382.079   3.11514e-19
      382.181   3.10089e-19
      382.283   3.08672e-19
      382.385   3.07260e-19
      382.487   3.05856e-19
      382.589   3.04457e-19
      382.691   3.03066e-19
      382.793   3.01681e-19
      382.895   3.00305e-19
      382.997   2.98934e-19
      383.099   2.97569e-19
      383.201   2.96211e-19
      383.303   2.94862e-19
      383.405   2.93516e-19
      383.507   2.92176e-19
      383.610   2.90833e-19
      383.712   2.89508e-19
      383.814   2.88191e-19
      383.916   2.86881e-19
      384.019   2.85563e-19
      384.121   2.84265e-19
      384.223   2.82971e-19
      384.326   2.81723e-19
      384.428   2.80616e-19
      384.531   2.79538e-19
      384.633   2.78477e-19
      384.736   2.77409e-19
      384.838   2.76355e-19
      384.941   2.75296e-19
      385.043   2.74252e-19
      385.146   2.73205e-19
      385.249   2.72159e-19
      385.351   2.71129e-19
      385.454   2.70095e-19
      385.557   2.69064e-19
      385.660   2.68039e-19
      385.762   2.67029e-19
      385.865   2.66013e-19
      385.968   2.65000e-19
      386.071   2.63993e-19
      386.174   2.62991e-19
      386.277   2.61993e-19
      386.380   2.60999e-19
      386.483   2.60009e-19
      386.586   2.59028e-19
      386.689   2.58048e-19
      386.792   2.57073e-19
      386.895   2.56102e-19
      386.998   2.55137e-19
      387.101   2.54174e-19
      387.204   2.53216e-19
      387.308   2.52255e-19
      387.411   2.51307e-19
      387.514   2.50363e-19
      387.617   2.49423e-19
      387.721   2.48480e-19
      387.824   2.47550e-19
      387.927   2.46623e-19
      388.031   2.45692e-19
      388.134   2.44774e-19
      388.238   2.43853e-19
      388.341   2.42944e-19
      388.445   2.42031e-19
      388.548   2.41130e-19
      388.652   2.40227e-19
      388.755   2.39335e-19
      388.859   2.38438e-19
      388.962   2.37555e-19
      389.066   2.36667e-19
      389.170   2.35784e-19
      389.274   2.34905e-19
      389.377   2.34040e-19
      389.481   2.33168e-19
      389.585   2.32301e-19
      389.689   2.31438e-19
      389.793   2.30579e-19
      389.897   2.29725e-19
      390.000   2.28883e-19
      390.104   2.28037e-19
      390.208   2.27194e-19
      390.312   2.26355e-19
      390.416   2.25518e-19
      390.520   2.24683e-19
      390.625   2.23845e-19
      390.729   2.23018e-19
      390.833   2.22196e-19
      390.937   2.21377e-19
      391.041   2.20562e-19
      391.145   2.19750e-19
      391.250   2.18935e-19
      391.354   2.18131e-19
      391.458   2.17331e-19
      391.563   2.16527e-19
      391.667   2.15734e-19
      391.771   2.14946e-19
      391.876   2.14154e-19
      391.980   2.13371e-19
      392.085   2.12586e-19
      392.189   2.11812e-19
      392.294   2.11034e-19
      392.398   2.10268e-19
      392.503   2.09497e-19
      392.607   2.08736e-19
      392.712   2.07974e-19
      392.817   2.07212e-19
      392.921   2.06464e-19
      393.026   2.05710e-19
      393.131   2.04961e-19
      393.236   2.04213e-19
      393.340   2.03478e-19
      393.445   2.02740e-19
      393.550   2.02003e-19
      393.655   2.01270e-19
      393.760   2.00540e-19
      393.865   1.99815e-19
      393.970   1.99092e-19
      394.075   1.98371e-19
      394.180   1.97656e-19
      394.285   1.96943e-19
      394.390   1.96232e-19
      394.495   1.95525e-19
      394.600   1.94822e-19
      394.706   1.94114e-19
      394.811   1.93418e-19
      394.916   1.92721e-19
      395.021   1.92030e-19
      395.126   1.91341e-19
      395.232   1.90649e-19
      395.337   1.89965e-19
      395.443   1.89279e-19
      395.548   1.88602e-19
      395.653   1.87927e-19
      395.759   1.87250e-19
      395.864   1.86582e-19
      395.970   1.85910e-19
      396.075   1.85247e-19
      396.181   1.84581e-19
      396.286   1.83922e-19
      396.392   1.83262e-19
      396.498   1.82605e-19
      396.603   1.81954e-19
      396.709   1.81300e-19
      396.815   1.80648e-19
      396.921   1.79999e-19
      397.026   1.79360e-19
      397.132   1.78717e-19
      397.238   1.78077e-19
      397.344   1.77438e-19
      397.450   1.76804e-19
      397.556   1.76170e-19
      397.662   1.75539e-19
      397.768   1.74911e-19
      397.874   1.74287e-19
      397.980   1.73662e-19
      398.086   1.73041e-19
      398.192   1.72422e-19
      398.298   1.71805e-19
      398.404   1.71192e-19
      398.510   1.70580e-19
      398.617   1.69964e-19
      398.723   1.69356e-19
      398.829   1.68751e-19
      398.935   1.68147e-19
      399.042   1.67542e-19
      399.148   1.66942e-19
      399.255   1.66340e-19
      399.361   1.65745e-19
      399.467   1.65152e-19
      399.574   1.64557e-19
      399.680   1.63968e-19
      399.787   1.63374e-19
      399.893       0.00000
      400.000       0.00000
