Filter: C-poly/Ti-poly
observation_date 22-Sept-2013 22:40:45
wavelength effective area 
      1.00000   2.76717e-10
      1.10000   7.88415e-10
      1.20000   2.04493e-09
      1.30000   4.87704e-09
      1.40000   1.10334e-08
      1.50000   2.34600e-08
      1.60000   4.73163e-08
      1.70000   9.14826e-08
      1.80000   1.69557e-07
      1.90000   3.03276e-07
      2.00000   5.24508e-07
      2.10000   8.81010e-07
      2.20000   1.44412e-06
      2.30000   2.30696e-06
      2.40000   3.59810e-06
      2.50000   5.76456e-06
      2.60000   8.92032e-06
      2.70000   1.32923e-05
      2.80000   1.94276e-05
      2.90000   2.81019e-05
      3.00000   4.00137e-05
      3.10000   5.62405e-05
      3.20000   7.81821e-05
      3.30000   0.000107575
      3.40000   0.000146470
      3.50000   0.000197491
      3.60000   0.000265049
      3.70000   0.000351927
      3.80000   0.000465327
      3.90000   0.000611829
      4.00000   0.000799417
      4.10000    0.00103964
      4.20000    0.00134715
      4.30000    0.00174059
      4.40000    0.00224283
      4.50000    0.00288192
      4.60000    0.00369054
      4.70000    0.00472562
      4.80000    0.00604448
      4.90000    0.00763174
      5.00000    0.00988878
      5.10000     0.0126323
      5.20000     0.0161836
      5.30000     0.0205572
      5.40000     0.0260687
      5.50000     0.0331139
      5.60000     0.0407709
      5.70000     0.0528824
      5.80000     0.0618546
      5.90000     0.0942213
      6.00000      0.126352
      6.10000      0.161088
      6.20000      0.197313
      6.30000      0.231643
      6.40000      0.260835
      6.50000      0.281999
      6.60000      0.291064
      6.70000      0.299236
      6.80000      0.298730
      6.90000      0.390688
      7.00000      0.423500
      7.10000      0.446405
      7.20000      0.464133
      7.30000      0.478162
      7.40000      0.488348
      7.50000      0.495990
      7.60000      0.501210
      7.70000      0.502709
      7.80000      0.499561
      7.90000      0.496968
      8.00000      0.715499
      8.10000      0.779733
      8.20000      0.788695
      8.30000      0.793902
      8.40000      0.795937
      8.50000      0.796605
      8.60000      0.795671
      8.70000      0.793678
      8.80000      0.790378
      8.90000      0.786188
      9.00000      0.781066
      9.10000      0.775067
      9.20000      0.768357
      9.30000      0.760885
      9.40000      0.752782
      9.50000      0.744107
      9.60000      0.734836
      9.70000      0.725063
      9.80000      0.714937
      9.90000      0.704496
      10.0000      0.693798
      10.1000      0.682849
      10.2000      0.671676
      10.3000      0.660239
      10.4000      0.648565
      10.5000      0.636677
      10.6000      0.624611
      10.7000      0.612394
      10.8000      0.600044
      10.9000      0.587596
      11.0000      0.575059
      11.1000      0.562463
      11.2000      0.549817
      11.3000      0.537155
      11.4000      0.524478
      11.5000      0.511792
      11.6000      0.499117
      11.7000      0.486424
      11.8000      0.473773
      11.9000      0.461135
      12.0000      0.448039
      12.1000      0.436691
      12.2000      0.433063
      12.3000      0.424866
      12.4000      0.413605
      12.5000      0.402201
      12.6000      0.390828
      12.7000      0.379554
      12.8000      0.368407
      12.9000      0.357396
      13.0000      0.346550
      13.1000      0.335890
      13.2000      0.325426
      13.3000      0.315167
      13.4000      0.305121
      13.5000      0.295379
      13.6000      0.285929
      13.7000      0.276678
      13.8000      0.267623
      13.9000      0.258773
      14.0000      0.250125
      14.1000      0.241670
      14.2000      0.233406
      14.3000      0.225330
      14.4000      0.217434
      14.5000      0.209732
      14.6000      0.202228
      14.7000      0.194902
      14.8000      0.187756
      14.9000      0.180788
      15.0000      0.173998
      15.1000      0.167384
      15.2000      0.160980
      15.3000      0.154757
      15.4000      0.148704
      15.5000      0.142822
      15.6000      0.137116
      15.7000      0.131593
      15.8000      0.126273
      15.9000      0.121123
      16.0000      0.116138
      16.1000      0.111316
      16.2000      0.106693
      16.3000      0.102227
      16.4000     0.0979024
      16.5000     0.0937132
      16.6000     0.0896763
      16.7000     0.0857937
      16.8000     0.0820331
      16.9000     0.0783914
      17.0000     0.0748910
      17.1000     0.0715289
      17.2000     0.0682740
      17.3000     0.0651284
      17.4000     0.0621767
      17.5000     0.0593830
      17.6000     0.0567218
      17.7000     0.0542093
      17.8000     0.0518977
      17.9000     0.0496636
      18.0000     0.0474903
      18.1000     0.0454130
      18.2000     0.0433850
      18.3000     0.0413994
      18.4000     0.0394675
      18.5000     0.0375866
      18.6000     0.0357427
      18.7000     0.0339439
      18.8000     0.0322249
      18.9000     0.0305632
      19.0000     0.0289837
      19.1000     0.0274810
      19.2000     0.0260322
      19.3000     0.0246686
      19.4000     0.0233705
      19.5000     0.0221203
      19.6000     0.0209580
      19.7000     0.0198429
      19.8000     0.0187704
      19.9000     0.0177750
      20.0000     0.0168122
      20.1000     0.0158953
      20.2000     0.0150291
      20.3000     0.0141904
      20.4000     0.0134046
      20.5000     0.0126507
      20.6000     0.0119257
      20.7000     0.0112495
      20.8000     0.0105938
      20.9000    0.00997689
      21.0000    0.00940794
      21.1000    0.00887585
      21.2000    0.00843432
      21.3000    0.00801961
      21.4000    0.00766182
      21.5000    0.00735711
      21.6000    0.00710580
      21.7000    0.00685727
      21.8000    0.00661035
      21.9000    0.00635957
      22.0000    0.00610486
      22.1000    0.00583874
      22.2000    0.00554664
      22.3000    0.00523239
      22.4000    0.00483003
      22.5000    0.00440182
      22.6000    0.00364059
      22.7000    0.00323552
      22.8000    0.00462908
      22.9000    0.00614162
      23.0000    0.00755360
      23.1000    0.00833408
      23.2000    0.00851385
      23.3000    0.00832531
      23.4000    0.00795122
      23.5000    0.00758775
      23.6000    0.00722840
      23.7000    0.00687433
      23.8000    0.00652334
      23.9000    0.00619598
      24.0000    0.00587297
      24.1000    0.00556860
      24.2000    0.00527065
      24.3000    0.00499234
      24.4000    0.00472114
      24.5000    0.00446655
      24.6000    0.00421995
      24.7000    0.00398897
      24.8000    0.00376589
      24.9000    0.00355652
      25.0000    0.00335489
      25.1000    0.00316605
      25.2000    0.00298426
      25.3000    0.00281414
      25.4000    0.00265042
      25.5000    0.00249804
      25.6000    0.00235123
      25.7000    0.00221567
      25.8000    0.00208426
      25.9000    0.00196316
      26.0000    0.00184505
      26.1000    0.00173705
      26.2000    0.00163090
      26.3000    0.00153488
      26.4000    0.00143957
      26.5000    0.00135431
      26.6000    0.00126959
      26.7000    0.00119323
      26.8000    0.00111834
      26.9000    0.00104982
      27.0000   0.000983576
      27.1000   0.000921902
      27.2000   0.000863259
      27.3000    0.00350971
      27.4000    0.00951953
      27.5000     0.0138025
      27.6000     0.0132439
      27.7000     0.0126903
      27.8000     0.0121662
      27.9000     0.0116454
      28.0000     0.0111575
      28.1000     0.0106784
      28.2000     0.0102224
      28.3000    0.00978265
      28.4000    0.00935656
      28.5000    0.00895385
      28.6000    0.00855586
      28.7000    0.00818890
      28.8000    0.00782429
      28.9000    0.00748308
      29.0000    0.00715006
      29.1000    0.00683094
      29.2000    0.00652723
      29.3000    0.00622877
      29.4000    0.00595243
      29.5000    0.00567792
      29.6000    0.00542241
      29.7000    0.00517311
      29.8000    0.00493404
      29.9000    0.00470811
      30.0000    0.00448442
      30.1000    0.00428002
      30.2000    0.00407699
      30.3000    0.00415685
      30.4000    0.00439709
      30.5000    0.00454168
      30.6000    0.00433683
      30.7000    0.00413337
      30.8000    0.00394444
      30.9000    0.00376074
      31.0000    0.00358316
      31.1000    0.00341776
      31.2000    0.00325350
      31.3000    0.00310225
      31.4000    0.00295457
      31.5000    0.00281225
      31.6000    0.00268003
      31.7000    0.00254872
      31.8000    0.00242781
      31.9000    0.00231013
      32.0000    0.00219578
      32.1000    0.00208949
      32.2000    0.00198394
      32.3000    0.00188627
      32.4000    0.00179241
      32.5000    0.00170048
      32.6000    0.00161927
      32.7000    0.00153868
      32.8000    0.00146268
      32.9000    0.00139113
      33.0000    0.00132007
      33.1000    0.00125845
      33.2000    0.00119850
      33.3000    0.00114034
      33.4000    0.00108695
      33.5000    0.00103395
      33.6000   0.000984292
      33.7000   0.000937223
      33.8000   0.000890472
      33.9000   0.000848174
      34.0000   0.000806732
      34.1000   0.000766397
      34.2000   0.000729790
      34.3000   0.000693420
      34.4000   0.000658951
      34.5000   0.000626847
      34.6000   0.000594955
      34.7000   0.000565532
      34.8000   0.000537354
      34.9000   0.000509362
      35.0000   0.000484326
      35.1000   0.000459743
      35.2000   0.000435641
      35.3000   0.000414330
      35.4000   0.000393160
      35.5000   0.000372811
      35.6000   0.000354277
      35.7000   0.000335867
      35.8000   0.000318511
      35.9000   0.000302433
      36.0000   0.000286463
      36.1000   0.000271671
      36.2000   0.000257758
      36.3000   0.000243938
      36.4000   0.000231336
      36.5000   0.000219323
      36.6000   0.000207393
      36.7000   0.000196659
      36.8000   0.000186318
      36.9000   0.000176048
      37.0000   0.000166907
      37.1000   0.000158029
      37.2000   0.000149211
      37.3000   0.000141426
      37.4000   0.000133824
      37.5000   0.000126274
      37.6000   0.000119640
      37.7000   0.000113148
      37.8000   0.000106701
      37.9000   0.000101045
      38.0000   9.55171e-05
      38.1000   9.00279e-05
      38.2000   8.51998e-05
      38.3000   8.05051e-05
      38.4000   7.58432e-05
      38.5000   7.17187e-05
      38.6000   6.77436e-05
      38.7000   6.37965e-05
      38.8000   6.02692e-05
      38.9000   5.69134e-05
      39.0000   5.35811e-05
      39.1000   5.05611e-05
      39.2000   4.77364e-05
      39.3000   4.49317e-05
      39.4000   4.23432e-05
      39.5000   3.99731e-05
      39.6000   3.76200e-05
      39.7000   3.53988e-05
      39.8000   3.34165e-05
      39.9000   3.14483e-05
      40.0000   2.95406e-05
      40.1000   2.78887e-05
      40.2000   2.62487e-05
      40.3000   2.46206e-05
      40.4000   2.32364e-05
      40.5000   2.18731e-05
      40.6000   2.05196e-05
      40.7000   1.93246e-05
      40.8000   1.81946e-05
      40.9000   1.70729e-05
      41.0000   1.60402e-05
      41.1000   1.51068e-05
      41.2000   1.41802e-05
      41.3000   1.32876e-05
      41.4000   1.25199e-05
      41.5000   1.17577e-05
      41.6000   1.10010e-05
      41.7000   1.03560e-05
      41.8000   9.73072e-06
      41.9000   9.10998e-06
      42.0000   8.54865e-06
      42.1000   8.03762e-06
      42.2000   7.53031e-06
      42.3000   7.04167e-06
      42.4000   6.62536e-06
      42.5000   6.21208e-06
      42.6000   5.80183e-06
      42.7000   5.44917e-06
      42.8000   5.11364e-06
      42.9000   4.78054e-06
      43.0000   4.47122e-06
      43.1000   4.19986e-06
      43.2000   3.93051e-06
      43.3000   3.66314e-06
      43.4000     0.0123022
      43.5000     0.0276381
      43.6000     0.0480241
      43.7000     0.0667855
      43.8000     0.0753575
      43.9000     0.0764444
      44.0000     0.0747425
      44.1000     0.0704513
      44.2000     0.0690656
      44.3000     0.0679335
      44.4000     0.0668225
      44.5000     0.0657383
      44.6000     0.0646571
      44.7000     0.0635788
      44.8000     0.0625418
      44.9000     0.0615131
      45.0000     0.0604871
      45.1000     0.0594755
      45.2000     0.0584950
      45.3000     0.0575171
      45.4000     0.0565417
      45.5000     0.0555958
      45.6000     0.0546650
      45.7000     0.0537367
      45.8000     0.0528122
      45.9000     0.0519268
      46.0000     0.0510437
      46.1000     0.0501629
      46.2000     0.0493198
      46.3000     0.0485399
      46.4000     0.0477621
      46.5000     0.0469862
      46.6000     0.0462410
      46.7000     0.0455121
      46.8000     0.0447851
      46.9000     0.0440600
      47.0000     0.0433761
      47.1000     0.0426967
      47.2000     0.0420190
      47.3000     0.0413484
      47.4000     0.0407041
      47.5000     0.0400615
      47.6000     0.0394206
      47.7000     0.0387937
      47.8000     0.0381881
      47.9000     0.0375840
      48.0000     0.0369815
      48.1000     0.0363956
      48.2000     0.0358226
      48.3000     0.0352512
      48.4000     0.0346812
      48.5000     0.0341344
      48.6000     0.0335977
      48.7000     0.0330623
      48.8000     0.0325282
      48.9000     0.0320159
      49.0000     0.0315090
      49.1000     0.0310033
      49.2000     0.0304990
      49.3000     0.0300164
      49.4000     0.0295368
      49.5000     0.0290584
      49.6000     0.0285812
      49.7000     0.0281258
      49.8000     0.0276721
      49.9000     0.0272196
      50.0000     0.0267686
      50.1000     0.0263357
      50.2000     0.0259247
      50.3000     0.0255194
      50.4000     0.0251198
      50.5000     0.0247254
      50.6000     0.0243366
      50.7000     0.0239536
      50.8000     0.0235758
      50.9000     0.0232042
      51.0000     0.0228400
      51.1000     0.0224820
      51.2000     0.0221287
      51.3000     0.0217807
      51.4000     0.0214383
      51.5000     0.0210998
      51.6000     0.0207660
      51.7000     0.0204365
      51.8000     0.0201078
      51.9000     0.0197837
      52.0000     0.0194637
      52.1000     0.0191483
      52.2000     0.0188373
      52.3000     0.0185305
      52.4000     0.0182288
      52.5000     0.0179314
      52.6000     0.0176325
      52.7000     0.0173323
      52.8000     0.0170361
      52.9000     0.0167448
      53.0000     0.0164582
      53.1000     0.0161755
      53.2000     0.0158975
      53.3000     0.0156237
      53.4000     0.0153536
      53.5000     0.0150881
      53.6000     0.0148265
      53.7000     0.0145686
      53.8000     0.0143150
      53.9000     0.0140651
      54.0000     0.0138191
      54.1000     0.0135778
      54.2000     0.0133398
      54.3000     0.0131051
      54.4000     0.0128742
      54.5000     0.0126466
      54.6000     0.0124228
      54.7000     0.0122030
      54.8000     0.0119868
      54.9000     0.0117736
      55.0000     0.0115639
      55.1000     0.0113572
      55.2000     0.0111485
      55.3000     0.0109391
      55.4000     0.0107331
      55.5000     0.0105303
      55.6000     0.0103309
      55.7000     0.0101349
      55.8000    0.00994207
      55.9000    0.00975254
      56.0000    0.00956794
      56.1000    0.00938393
      56.2000    0.00920087
      56.3000    0.00902107
      56.4000    0.00884433
      56.5000    0.00867054
      56.6000    0.00849994
      56.7000    0.00833249
      56.8000    0.00816772
      56.9000    0.00800619
      57.0000    0.00785042
      57.1000    0.00769922
      57.2000    0.00755052
      57.3000    0.00740440
      57.4000    0.00726068
      57.5000    0.00711949
      57.6000    0.00698068
      57.7000    0.00684417
      57.8000    0.00671036
      57.9000    0.00657914
      58.0000    0.00645010
      58.1000    0.00632296
      58.2000    0.00619826
      58.3000    0.00607577
      58.4000    0.00595535
      58.5000    0.00583706
      58.6000    0.00572116
      58.7000    0.00560725
      58.8000    0.00549532
      58.9000    0.00538533
      59.0000    0.00527732
      59.1000    0.00517123
      59.2000    0.00506715
      59.3000    0.00496498
      59.4000    0.00486469
      59.5000    0.00476618
      59.6000    0.00466955
      59.7000    0.00457458
      59.8000    0.00448131
      59.9000    0.00438970
      60.0000    0.00429998
      60.1000    0.00421183
      60.2000    0.00412531
      60.3000    0.00404041
      60.4000    0.00395712
      60.5000    0.00387548
      60.6000    0.00379524
      60.7000    0.00371641
      60.8000    0.00363900
      60.9000    0.00356301
      61.0000    0.00348848
      61.1000    0.00341549
      61.2000    0.00334383
      61.3000    0.00327358
      61.4000    0.00320462
      61.5000    0.00313701
      61.6000    0.00307062
      61.7000    0.00300569
      61.8000    0.00294286
      61.9000    0.00288155
      62.0000    0.00282140
      62.1000    0.00276236
      62.2000    0.00270455
      62.3000    0.00264781
      62.4000    0.00259215
      62.5000    0.00253750
      62.6000    0.00248390
      62.7000    0.00243144
      62.8000    0.00238194
      62.9000    0.00233340
      63.0000    0.00228578
      63.1000    0.00223907
      63.2000    0.00219317
      63.3000    0.00214811
      63.4000    0.00210385
      63.5000    0.00206057
      63.6000    0.00201803
      63.7000    0.00197628
      63.8000    0.00193535
      63.9000    0.00189520
      64.0000    0.00185583
      64.1000    0.00181716
      64.2000    0.00177933
      64.3000    0.00174223
      64.4000    0.00170580
      64.5000    0.00167002
      64.6000    0.00163491
      64.7000    0.00160048
      64.8000    0.00156669
      64.9000    0.00153355
      65.0000    0.00150106
      65.1000    0.00146928
      65.2000    0.00143815
      65.3000    0.00140757
      65.4000    0.00137759
      65.5000    0.00134817
      65.6000    0.00131930
      65.7000    0.00129099
      65.8000    0.00126325
      65.9000    0.00123614
      66.0000    0.00120956
      66.1000    0.00118354
      66.2000    0.00115803
      66.3000    0.00113301
      66.4000    0.00110848
      66.5000    0.00108441
      66.6000    0.00106081
      66.7000    0.00103770
      66.8000    0.00101507
      66.9000   0.000993326
      67.0000   0.000972390
      67.1000   0.000951933
      67.2000   0.000931895
      67.3000   0.000912238
      67.4000   0.000892971
      67.5000   0.000874062
      67.6000   0.000855520
      67.7000   0.000837359
      67.8000   0.000819521
      67.9000   0.000801996
      68.0000   0.000784883
      68.1000   0.000768178
      68.2000   0.000751803
      68.3000   0.000735741
      68.4000   0.000720009
      68.5000   0.000704605
      68.6000   0.000689496
      68.7000   0.000674701
      68.8000   0.000660196
      68.9000   0.000646138
      69.0000   0.000633276
      69.1000   0.000621496
      69.2000   0.000610089
      69.3000   0.000599008
      69.4000   0.000588329
      69.5000   0.000577572
      69.6000   0.000566647
      69.7000   0.000556136
      69.8000   0.000546105
      69.9000   0.000536251
      70.0000   0.000526540
      70.1000   0.000516852
      70.2000   0.000507594
      70.3000   0.000498765
      70.4000   0.000490029
      70.5000   0.000481517
      70.6000   0.000473226
      70.7000   0.000465088
      70.8000   0.000457066
      70.9000   0.000448962
      71.0000   0.000440797
      71.1000   0.000432970
      71.2000   0.000425492
      71.3000   0.000417738
      71.4000   0.000409627
      71.5000   0.000402072
      71.6000   0.000395282
      71.7000   0.000388504
      71.8000   0.000381618
      71.9000   0.000374957
      72.0000   0.000368711
      72.1000   0.000362424
      72.2000   0.000355504
      72.3000   0.000348722
      72.4000   0.000342631
      72.5000   0.000336646
      72.6000   0.000330763
      72.7000   0.000324993
      72.8000   0.000319316
      72.9000   0.000313732
      73.0000   0.000308343
      73.1000   0.000303088
      73.2000   0.000297919
      73.3000   0.000292842
      73.4000   0.000287881
      73.5000   0.000283059
      73.6000   0.000278324
      73.7000   0.000273671
      73.8000   0.000269089
      73.9000   0.000264578
      74.0000   0.000260157
      74.1000   0.000256058
      74.2000   0.000252102
      74.3000   0.000247954
      74.4000   0.000243676
      74.5000   0.000239520
      74.6000   0.000235546
      74.7000   0.000231634
      74.8000   0.000227801
      74.9000   0.000224057
      75.0000   0.000220351
      75.1000   0.000216691
      75.2000   0.000213091
      75.3000   0.000209546
      75.4000   0.000206077
      75.5000   0.000202718
      75.6000   0.000199412
      75.7000   0.000196154
      75.8000   0.000192958
      75.9000   0.000189846
      76.0000   0.000186803
      76.1000   0.000183946
      76.2000   0.000181153
      76.3000   0.000178401
      76.4000   0.000175723
      76.5000   0.000173090
      76.6000   0.000170491
      76.7000   0.000167926
      76.8000   0.000165399
      76.9000   0.000162912
      77.0000   0.000160461
      77.1000   0.000158046
      77.2000   0.000155668
      77.3000   0.000153322
      77.4000   0.000151008
      77.5000   0.000148727
      77.6000   0.000146447
      77.7000   0.000144195
      77.8000   0.000141975
      77.9000   0.000139786
      78.0000   0.000137606
      78.1000   0.000135399
      78.2000   0.000133231
      78.3000   0.000131225
      78.4000   0.000129292
      78.5000   0.000127374
      78.6000   0.000125447
      78.7000   0.000123545
      78.8000   0.000121620
      78.9000   0.000119714
      79.0000   0.000117834
      79.1000   0.000115980
      79.2000   0.000114158
      79.3000   0.000112404
      79.4000   0.000110689
      79.5000   0.000108986
      79.6000   0.000107269
      79.7000   0.000105577
      79.8000   0.000103888
      79.9000   0.000102215
      80.0000   0.000100565
      80.1000   9.88948e-05
      80.2000   9.72458e-05
      80.3000   9.55767e-05
      80.4000   9.38908e-05
      80.5000   9.22295e-05
      80.6000   9.05951e-05
      80.7000   8.89881e-05
      80.8000   8.74145e-05
      80.9000   8.58816e-05
      81.0000   8.43754e-05
      81.1000   8.28969e-05
      81.2000   8.14424e-05
      81.3000   8.00123e-05
      81.4000   7.86857e-05
      81.5000   7.73853e-05
      81.6000   7.61274e-05
      81.7000   7.49352e-05
      81.8000   7.37648e-05
      81.9000   7.26444e-05
      82.0000   7.15552e-05
      82.1000   7.04839e-05
      82.2000   6.94045e-05
      82.3000   6.83420e-05
      82.4000   6.73105e-05
      82.5000   6.63181e-05
      82.6000   6.53388e-05
      82.7000   6.43536e-05
      82.8000   6.33579e-05
      82.9000   6.23759e-05
      83.0000   6.14166e-05
      83.1000   6.04743e-05
      83.2000   5.95449e-05
      83.3000   5.86287e-05
      83.4000   5.77283e-05
      83.5000   5.68441e-05
      83.6000   5.59872e-05
      83.7000   5.51430e-05
      83.8000   5.43073e-05
      83.9000   5.34733e-05
      84.0000   5.26497e-05
      84.1000   5.18467e-05
      84.2000   5.10705e-05
      84.3000   5.03046e-05
      84.4000   4.95423e-05
      84.5000   4.87857e-05
      84.6000   4.80402e-05
      84.7000   4.73143e-05
      84.8000   4.66035e-05
      84.9000   4.59049e-05
      85.0000   4.52046e-05
      85.1000   4.45106e-05
      85.2000   4.38265e-05
      85.3000   4.31713e-05
      85.4000   4.25289e-05
      85.5000   4.18966e-05
      85.6000   4.12631e-05
      85.7000   4.06381e-05
      85.8000   4.00220e-05
      85.9000   3.94144e-05
      86.0000   3.88145e-05
      86.1000   3.82230e-05
      86.2000   3.76533e-05
      86.3000   3.70925e-05
      86.4000   3.65391e-05
      86.5000   3.59929e-05
      86.6000   3.54541e-05
      86.7000   3.49232e-05
      86.8000   3.43729e-05
      86.9000   3.38294e-05
      87.0000   3.32948e-05
      87.1000   3.27745e-05
      87.2000   3.22630e-05
      87.3000   3.17590e-05
      87.4000   3.12536e-05
      87.5000   3.07540e-05
      87.6000   3.02613e-05
      87.7000   2.97809e-05
      87.8000   2.93083e-05
      87.9000   2.88431e-05
      88.0000   2.83853e-05
      88.1000   2.79337e-05
      88.2000   2.74886e-05
      88.3000   2.70565e-05
      88.4000   2.66374e-05
      88.5000   2.62263e-05
      88.6000   2.58186e-05
      88.7000   2.54133e-05
      88.8000   2.50142e-05
      88.9000   2.46206e-05
      89.0000   2.42320e-05
      89.1000   2.38491e-05
      89.2000   2.34732e-05
      89.3000   2.31065e-05
      89.4000   2.27498e-05
      89.5000   2.23982e-05
      89.6000   2.20517e-05
      89.7000   2.17100e-05
      89.8000   2.13729e-05
      89.9000   2.10401e-05
      90.0000   2.07119e-05
      90.1000   2.03892e-05
      90.2000   2.00665e-05
      90.3000   1.97374e-05
      90.4000   1.94129e-05
      90.5000   1.90937e-05
      90.6000   1.87840e-05
      90.7000   1.84785e-05
      90.8000   1.81755e-05
      90.9000   1.78727e-05
      91.0000   1.75735e-05
      91.1000   1.72793e-05
      91.2000   1.69869e-05
      91.3000   1.66945e-05
      91.4000   1.64059e-05
      91.5000   1.61225e-05
      91.6000   1.58442e-05
      91.7000   1.55869e-05
      91.8000   1.53587e-05
      91.9000   1.51636e-05
      92.0000   1.49528e-05
      92.1000   1.47410e-05
      92.2000   1.45217e-05
      92.3000   1.42962e-05
      92.4000   1.40688e-05
      92.5000   1.38455e-05
      92.6000   1.36256e-05
      92.7000   1.34089e-05
      92.8000   1.31952e-05
      92.9000   1.29867e-05
      93.0000   1.27855e-05
      93.1000   1.25872e-05
      93.2000   1.23918e-05
      93.3000   1.22040e-05
      93.4000   1.20208e-05
      93.5000   1.18401e-05
      93.6000   1.16619e-05
      93.7000   1.14865e-05
      93.8000   1.13149e-05
      93.9000   1.11458e-05
      94.0000   1.09789e-05
      94.1000   1.08144e-05
      94.2000   1.06524e-05
      94.3000   1.04937e-05
      94.4000   1.03401e-05
      94.5000   1.01888e-05
      94.6000   1.00399e-05
      94.7000   9.89333e-06
      94.8000   9.74859e-06
      94.9000   9.60567e-06
      95.0000   9.46469e-06
      95.1000   9.32625e-06
      95.2000   9.18932e-06
      95.3000   9.05395e-06
      95.4000   8.92056e-06
      95.5000   8.79096e-06
      95.6000   8.66309e-06
      95.7000   8.53690e-06
      95.8000   8.41122e-06
      95.9000   8.28696e-06
      96.0000   8.16425e-06
      96.1000   8.04304e-06
      96.2000   7.92329e-06
      96.3000   7.80556e-06
      96.4000   7.68937e-06
      96.5000   7.57478e-06
      96.6000   7.46212e-06
      96.7000   7.35162e-06
      96.8000   7.24231e-06
      96.9000   7.13427e-06
      97.0000   7.02759e-06
      97.1000   6.92302e-06
      97.2000   6.81979e-06
      97.3000   6.71693e-06
      97.4000   6.61461e-06
      97.5000   6.51418e-06
      97.6000   6.41518e-06
      97.7000   6.31797e-06
      97.8000   6.22243e-06
      97.9000   6.12840e-06
      98.0000   6.03550e-06
      98.1000   5.94373e-06
      98.2000   5.85341e-06
      98.3000   5.76896e-06
      98.4000   5.68767e-06
      98.5000   5.60875e-06
      98.6000   5.53094e-06
      98.7000   5.45416e-06
      98.8000   5.37826e-06
      98.9000   5.30323e-06
      99.0000   5.22949e-06
      99.1000   5.15666e-06
      99.2000   5.08443e-06
      99.3000   5.01171e-06
      99.4000   4.94024e-06
      99.5000   4.86965e-06
      99.6000   4.80025e-06
      99.7000   4.73406e-06
      99.8000   4.66978e-06
      99.9000   4.61501e-06
      100.000   4.57437e-06
      100.100   4.53249e-06
      100.200   4.49087e-06
      100.300   4.44956e-06
      100.400   4.40858e-06
      100.500   4.36854e-06
      100.600   4.32875e-06
      100.700   4.28920e-06
      100.800   4.24987e-06
      100.900   4.21085e-06
      101.000   4.17220e-06
      101.100   4.13395e-06
      101.200   4.09605e-06
      101.300   4.05844e-06
      101.400   4.02113e-06
      101.500   3.98279e-06
      101.600   3.94305e-06
      101.700   3.90405e-06
      101.800   3.86548e-06
      101.900   3.82718e-06
      102.000   3.78930e-06
      102.100   3.75237e-06
      102.200   3.71607e-06
      102.300   3.68010e-06
      102.400   3.64440e-06
      102.500   3.60897e-06
      102.600   3.57377e-06
      102.700   3.53883e-06
      102.800   3.50416e-06
      102.900   3.46977e-06
      103.000   3.43566e-06
      103.100   3.40181e-06
      103.200   3.36825e-06
      103.300   3.33500e-06
      103.400   3.30207e-06
      103.500   3.26945e-06
      103.600   3.23708e-06
      103.700   3.20491e-06
      103.800   3.17223e-06
      103.900   3.13896e-06
      104.000   3.10600e-06
      104.100   3.07339e-06
      104.200   3.04143e-06
      104.300   3.01195e-06
      104.400   2.98277e-06
      104.500   2.95384e-06
      104.600   2.92514e-06
      104.700   2.89598e-06
      104.800   2.86676e-06
      104.900   2.83775e-06
      105.000   2.80897e-06
      105.100   2.78096e-06
      105.200   2.75439e-06
      105.300   2.72809e-06
      105.400   2.70199e-06
      105.500   2.67609e-06
      105.600   2.65065e-06
      105.700   2.62547e-06
      105.800   2.60048e-06
      105.900   2.57570e-06
      106.000   2.55149e-06
      106.100   2.52824e-06
      106.200   2.50519e-06
      106.300   2.48232e-06
      106.400   2.45963e-06
      106.500   2.43711e-06
      106.600   2.41478e-06
      106.700   2.39260e-06
      106.800   2.37057e-06
      106.900   2.34873e-06
      107.000   2.32707e-06
      107.100   2.30560e-06
      107.200   2.28433e-06
      107.300   2.26325e-06
      107.400   2.24228e-06
      107.500   2.22144e-06
      107.600   2.20080e-06
      107.700   2.18033e-06
      107.800   2.16005e-06
      107.900   2.13979e-06
      108.000   2.11968e-06
      108.100   2.09970e-06
      108.200   2.07986e-06
      108.300   2.06016e-06
      108.400   2.04045e-06
      108.500   2.02090e-06
      108.600   2.00149e-06
      108.700   1.98220e-06
      108.800   1.96255e-06
      108.900   1.94234e-06
      109.000   1.92231e-06
      109.100   1.90245e-06
      109.200   1.88277e-06
      109.300   1.86326e-06
      109.400   1.84392e-06
      109.500   1.82475e-06
      109.600   1.80577e-06
      109.700   1.78697e-06
      109.800   1.76839e-06
      109.900   1.75000e-06
      110.000   1.73178e-06
      110.100   1.71373e-06
      110.200   1.69585e-06
      110.300   1.67841e-06
      110.400   1.66116e-06
      110.500   1.64408e-06
      110.600   1.62715e-06
      110.700   1.61036e-06
      110.800   1.59369e-06
      110.900   1.57716e-06
      111.000   1.56074e-06
      111.100   1.54446e-06
      111.200   1.52833e-06
      111.300   1.51286e-06
      111.400   1.49751e-06
      111.500   1.48228e-06
      111.600   1.46718e-06
      111.700   1.45223e-06
      111.800   1.43774e-06
      111.900   1.42340e-06
      112.000   1.40919e-06
      112.100   1.39510e-06
      112.200   1.38113e-06
      112.300   1.36698e-06
      112.400   1.35294e-06
      112.500   1.33906e-06
      112.600   1.32531e-06
      112.700   1.31176e-06
      112.800   1.29861e-06
      112.900   1.28487e-06
      113.000   1.27149e-06
      113.100   1.25834e-06
      113.200   1.24517e-06
      113.300   1.23226e-06
      113.400   1.21792e-06
      113.500   1.20332e-06
      113.600   1.19020e-06
      113.700   1.17679e-06
      113.800   1.16262e-06
      113.900   1.14988e-06
      114.000   1.13726e-06
      114.100   1.12386e-06
      114.200   1.11104e-06
      114.300   1.09906e-06
      114.400   1.08699e-06
      114.500   1.07485e-06
      114.600   1.06373e-06
      114.700   1.05203e-06
      114.800   1.04090e-06
      114.900   1.03093e-06
      115.000   1.02028e-06
      115.100   1.00929e-06
      115.200   9.98348e-07
      115.300   9.88441e-07
      115.400   9.77749e-07
      115.500   9.67590e-07
      115.600   9.57164e-07
      115.700   9.46293e-07
      115.800   9.36241e-07
      115.900   9.25895e-07
      116.000   9.16256e-07
      116.100   9.07639e-07
      116.200   8.99014e-07
      116.300   8.90295e-07
      116.400   8.81347e-07
      116.500   8.73123e-07
      116.600   8.64756e-07
      116.700   8.56612e-07
      116.800   8.48341e-07
      116.900   8.39359e-07
      117.000   8.31330e-07
      117.100   8.25851e-07
      117.200   8.22138e-07
      117.300   8.16732e-07
      117.400   8.11238e-07
      117.500   8.05798e-07
      117.600   7.99414e-07
      117.700   7.92699e-07
      117.800   7.85532e-07
      117.900   7.78169e-07
      118.000   7.70389e-07
      118.100   7.62219e-07
      118.200   7.54479e-07
      118.300   7.46954e-07
      118.400   7.37737e-07
      118.500   7.28753e-07
      118.600   7.20649e-07
      118.700   7.12340e-07
      118.800   7.03729e-07
      118.900   6.95461e-07
      119.000   6.86360e-07
      119.100   6.76338e-07
      119.200   6.67328e-07
      119.300   6.59163e-07
      119.400   6.51495e-07
      119.500   6.44088e-07
      119.600   6.36176e-07
      119.700   6.27675e-07
      119.800   6.17948e-07
      119.900   6.06602e-07
      120.000   5.95952e-07
      120.100   5.85875e-07
      120.200   5.78020e-07
      120.300   5.71451e-07
      120.400   5.64930e-07
      120.500   5.56804e-07
      120.600   5.47509e-07
      120.700   5.37926e-07
      120.800   5.28727e-07
      120.900   5.21761e-07
      121.000   5.18157e-07
      121.100   5.13989e-07
      121.200   5.08222e-07
      121.300   5.01359e-07
      121.400   4.93700e-07
      121.500   4.85478e-07
      121.600   4.74845e-07
      121.700   4.65354e-07
      121.800   4.55118e-07
      121.900   4.44911e-07
      122.000   4.34264e-07
      122.100   4.24204e-07
      122.200   4.14364e-07
      122.300   4.06681e-07
      122.400   4.01273e-07
      122.500   3.96381e-07
      122.600   3.91265e-07
      122.700   3.86183e-07
      122.800   3.80676e-07
      122.900   3.75504e-07
      123.000   3.72825e-07
      123.100   3.74372e-07
      123.200   3.76162e-07
      123.300   3.80050e-07
      123.400   3.85630e-07
      123.500   3.93622e-07
      123.600   4.00076e-07
      123.700   4.02265e-07
      123.800   4.03227e-07
      123.900   4.05335e-07
      124.000   4.09291e-07
      124.100   4.19314e-07
      124.200   4.42188e-07
      124.300   4.77345e-07
      124.400   5.10730e-07
      124.500   5.18143e-07
      124.600   5.13682e-07
      124.700   5.07910e-07
      124.800   5.02330e-07
      124.900   4.96793e-07
      125.000   4.91297e-07
      125.100   4.85813e-07
      125.200   4.80376e-07
      125.300   4.74990e-07
      125.400   4.69658e-07
      125.500   4.64378e-07
      125.600   4.59147e-07
      125.700   4.53972e-07
      125.800   4.48847e-07
      125.900   4.43777e-07
      126.000   4.38762e-07
      126.100   4.33802e-07
      126.200   4.28896e-07
      126.300   4.24043e-07
      126.400   4.19242e-07
      126.500   4.14491e-07
      126.600   4.09789e-07
      126.700   4.05135e-07
      126.800   4.00529e-07
      126.900   3.95969e-07
      127.000   3.91446e-07
      127.100   3.86947e-07
      127.200   3.82484e-07
      127.300   3.78060e-07
      127.400   3.73679e-07
      127.500   3.69341e-07
      127.600   3.65048e-07
      127.700   3.60799e-07
      127.800   3.56594e-07
      127.900   3.52432e-07
      128.000   3.48315e-07
      128.100   3.44238e-07
      128.200   3.40204e-07
      128.300   3.36210e-07
      128.400   3.32258e-07
      128.500   3.28345e-07
      128.600   3.24472e-07
      128.700   3.20640e-07
      128.800   3.16848e-07
      128.900   3.13097e-07
      129.000   3.09388e-07
      129.100   3.05713e-07
      129.200   3.02060e-07
      129.300   2.98446e-07
      129.400   2.94872e-07
      129.500   2.91340e-07
      129.600   2.87848e-07
      129.700   2.84395e-07
      129.800   2.80982e-07
      129.900   2.77608e-07
      130.000   2.74273e-07
      130.100   2.70975e-07
      130.200   2.67713e-07
      130.300   2.64488e-07
      130.400   2.61300e-07
      130.500   2.58147e-07
      130.600   2.55029e-07
      130.700   2.51948e-07
      130.800   2.48900e-07
      130.900   2.45888e-07
      131.000   2.42909e-07
      131.100   2.39963e-07
      131.200   2.37047e-07
      131.300   2.34158e-07
      131.400   2.31299e-07
      131.500   2.28473e-07
      131.600   2.25676e-07
      131.700   2.22910e-07
      131.800   2.20174e-07
      131.900   2.17467e-07
      132.000   2.14791e-07
      132.100   2.12143e-07
      132.200   2.09525e-07
      132.300   2.06936e-07
      132.400   2.04376e-07
      132.500   2.01846e-07
      132.600   1.99347e-07
      132.700   1.96877e-07
      132.800   1.94436e-07
      132.900   1.92022e-07
      133.000   1.89636e-07
      133.100   1.87278e-07
      133.200   1.84946e-07
      133.300   1.82639e-07
      133.400   1.80358e-07
      133.500   1.78102e-07
      133.600   1.75872e-07
      133.700   1.73668e-07
      133.800   1.71488e-07
      133.900   1.69336e-07
      134.000   1.67208e-07
      134.100   1.65104e-07
      134.200   1.63025e-07
      134.300   1.60968e-07
      134.400   1.58936e-07
      134.500   1.56928e-07
      134.600   1.54942e-07
      134.700   1.52980e-07
      134.800   1.51041e-07
      134.900   1.49124e-07
      135.000   1.47229e-07
      135.100   1.45358e-07
      135.200   1.43509e-07
      135.300   1.41682e-07
      135.400   1.39876e-07
      135.500   1.38090e-07
      135.600   1.36324e-07
      135.700   1.34579e-07
      135.800   1.32855e-07
      135.900   1.31151e-07
      136.000   1.29467e-07
      136.100   1.27802e-07
      136.200   1.26159e-07
      136.300   1.24535e-07
      136.400   1.22930e-07
      136.500   1.21344e-07
      136.600   1.19775e-07
      136.700   1.18226e-07
      136.800   1.16694e-07
      136.900   1.15181e-07
      137.000   1.13685e-07
      137.100   1.12206e-07
      137.200   1.10745e-07
      137.300   1.09302e-07
      137.400   1.07877e-07
      137.500   1.06468e-07
      137.600   1.05095e-07
      137.700   1.03786e-07
      137.800   1.02527e-07
      137.900   1.01282e-07
      138.000   1.00051e-07
      138.100   9.88334e-08
      138.200   9.76306e-08
      138.300   9.64408e-08
      138.400   9.52648e-08
      138.500   9.41016e-08
      138.600   9.29514e-08
      138.700   9.18145e-08
      138.800   9.06906e-08
      138.900   8.95790e-08
      139.000   8.84804e-08
      139.100   8.73950e-08
      139.200   8.63226e-08
      139.300   8.52623e-08
      139.400   8.42143e-08
      139.500   8.31783e-08
      139.600   8.21538e-08
      139.700   8.11411e-08
      139.800   8.01401e-08
      139.900   7.91503e-08
      140.000   7.81725e-08
      140.100   7.72058e-08
      140.200   7.62503e-08
      140.300   7.53057e-08
      140.400   7.43717e-08
      140.500   7.34480e-08
      140.600   7.25348e-08
      140.700   7.16320e-08
      140.800   7.07406e-08
      140.900   6.98594e-08
      141.000   6.89880e-08
      141.100   6.81263e-08
      141.200   6.72744e-08
      141.300   6.64317e-08
      141.400   6.55982e-08
      141.500   6.47741e-08
      141.600   6.39598e-08
      141.700   6.31548e-08
      141.800   6.23588e-08
      141.900   6.15716e-08
      142.000   6.07933e-08
      142.100   6.00474e-08
      142.200   5.93783e-08
      142.300   5.87744e-08
      142.400   5.81762e-08
      142.500   5.75828e-08
      142.600   5.69944e-08
      142.700   5.64110e-08
      142.800   5.58327e-08
      142.900   5.52594e-08
      143.000   5.46911e-08
      143.100   5.41282e-08
      143.200   5.35708e-08
      143.300   5.30182e-08
      143.400   5.24708e-08
      143.500   5.19283e-08
      143.600   5.13906e-08
      143.700   5.08576e-08
      143.800   5.03299e-08
      143.900   4.98073e-08
      144.000   4.92894e-08
      144.100   4.87761e-08
      144.200   4.82675e-08
      144.300   4.77633e-08
      144.400   4.72687e-08
      144.500   4.68492e-08
      144.600   4.64546e-08
      144.700   4.60648e-08
      144.800   4.56769e-08
      144.900   4.52911e-08
      145.000   4.49072e-08
      145.100   4.45254e-08
      145.200   4.41456e-08
      145.300   4.37679e-08
      145.400   4.33922e-08
      145.500   4.30183e-08
      145.600   4.26463e-08
      145.700   4.22761e-08
      145.800   4.19081e-08
      145.900   4.15423e-08
      146.000   4.11783e-08
      146.100   4.08163e-08
      146.200   4.04563e-08
      146.300   4.00984e-08
      146.400   3.97423e-08
      146.500   3.93888e-08
      146.600   3.90374e-08
      146.700   3.86882e-08
      146.800   3.83387e-08
      146.900   3.79881e-08
      147.000   3.76397e-08
      147.100   3.72937e-08
      147.200   3.69503e-08
      147.300   3.66091e-08
      147.400   3.62702e-08
      147.500   3.59335e-08
      147.600   3.55991e-08
      147.700   3.52673e-08
      147.800   3.49380e-08
      147.900   3.46109e-08
      148.000   3.42862e-08
      148.100   3.39638e-08
      148.200   3.36439e-08
      148.300   3.33264e-08
      148.400   3.30115e-08
      148.500   3.26988e-08
      148.600   3.23885e-08
      148.700   3.20804e-08
      148.800   3.17746e-08
      148.900   3.14712e-08
      149.000   3.11704e-08
      149.100   3.08716e-08
      149.200   3.05749e-08
      149.300   3.02801e-08
      149.400   2.99875e-08
      149.500   2.96973e-08
      149.600   2.94092e-08
      149.700   2.91232e-08
      149.800   2.88392e-08
      149.900   2.85573e-08
      150.000   2.82773e-08
      150.100   2.79996e-08
      150.200   2.77238e-08
      150.300   2.74502e-08
      150.400   2.71786e-08
      150.500   2.69090e-08
      150.600   2.66414e-08
      150.700   2.63756e-08
      150.800   2.61121e-08
      150.900   2.58506e-08
      151.000   2.55910e-08
      151.100   2.53333e-08
      151.200   2.50777e-08
      151.300   2.48239e-08
      151.400   2.45721e-08
      151.500   2.43225e-08
      151.600   2.40752e-08
      151.700   2.38303e-08
      151.800   2.35873e-08
      151.900   2.33462e-08
      152.000   2.31071e-08
      152.100   2.28700e-08
      152.200   2.26350e-08
      152.300   2.24019e-08
      152.400   2.21708e-08
      152.500   2.19416e-08
      152.600   2.17144e-08
      152.700   2.14892e-08
      152.800   2.12659e-08
      152.900   2.10448e-08
      153.000   2.08254e-08
      153.100   2.06080e-08
      153.200   2.03924e-08
      153.300   2.01787e-08
      153.400   1.99669e-08
      153.500   1.97568e-08
      153.600   1.95486e-08
      153.700   1.93423e-08
      153.800   1.91376e-08
      153.900   1.89347e-08
      154.000   1.87267e-08
      154.100   1.85124e-08
      154.200   1.82991e-08
      154.300   1.80878e-08
      154.400   1.78787e-08
      154.500   1.76715e-08
      154.600   1.74664e-08
      154.700   1.72632e-08
      154.800   1.70620e-08
      154.900   1.68627e-08
      155.000   1.66653e-08
      155.100   1.64699e-08
      155.200   1.62763e-08
      155.300   1.60848e-08
      155.400   1.58952e-08
      155.500   1.57074e-08
      155.600   1.55215e-08
      155.700   1.53373e-08
      155.800   1.51551e-08
      155.900   1.49746e-08
      156.000   1.47959e-08
      156.100   1.46192e-08
      156.200   1.44442e-08
      156.300   1.42708e-08
      156.400   1.40993e-08
      156.500   1.39277e-08
      156.600   1.37531e-08
      156.700   1.35801e-08
      156.800   1.34089e-08
      156.900   1.32397e-08
      157.000   1.30724e-08
      157.100   1.29068e-08
      157.200   1.27431e-08
      157.300   1.25811e-08
      157.400   1.24210e-08
      157.500   1.22625e-08
      157.600   1.21057e-08
      157.700   1.19507e-08
      157.800   1.17974e-08
      157.900   1.16458e-08
      158.000   1.14958e-08
      158.100   1.13476e-08
      158.200   1.12009e-08
      158.300   1.10559e-08
      158.400   1.09125e-08
      158.500   1.07707e-08
      158.600   1.06305e-08
      158.700   1.04918e-08
      158.800   1.03546e-08
      158.900   1.02191e-08
      159.000   1.00852e-08
      159.100   9.95266e-09
      159.200   9.82170e-09
      159.300   9.69222e-09
      159.400   9.56422e-09
      159.500   9.43776e-09
      159.600   9.31269e-09
      159.700   9.18914e-09
      159.800   9.06698e-09
      159.900   8.94627e-09
      160.000   8.82701e-09
      160.100   8.70918e-09
      160.200   8.59276e-09
      160.300   8.47767e-09
      160.400   8.36397e-09
      160.500   8.25159e-09
      160.600   8.14058e-09
      160.700   8.03087e-09
      160.800   7.92247e-09
      160.900   7.81535e-09
      161.000   7.70953e-09
      161.100   7.60495e-09
      161.200   7.50169e-09
      161.300   7.39972e-09
      161.400   7.29898e-09
      161.500   7.19947e-09
      161.600   7.10112e-09
      161.700   7.00393e-09
      161.800   6.90790e-09
      161.900   6.81307e-09
      162.000   6.71938e-09
      162.100   6.62685e-09
      162.200   6.53543e-09
      162.300   6.44517e-09
      162.400   6.35600e-09
      162.500   6.26792e-09
      162.600   6.18098e-09
      162.700   6.09509e-09
      162.800   6.01027e-09
      162.900   5.92650e-09
      163.000   5.84374e-09
      163.100   5.76202e-09
      163.200   5.68129e-09
      163.300   5.60156e-09
      163.400   5.52281e-09
      163.500   5.44504e-09
      163.600   5.36824e-09
      163.700   5.29238e-09
      163.800   5.21749e-09
      163.900   5.14356e-09
      164.000   5.07052e-09
      164.100   4.99845e-09
      164.200   4.92733e-09
      164.300   4.85737e-09
      164.400   4.78832e-09
      164.500   4.72017e-09
      164.600   4.65288e-09
      164.700   4.58645e-09
      164.800   4.52088e-09
      164.900   4.45615e-09
      165.000   4.39226e-09
      165.100   4.32921e-09
      165.200   4.26699e-09
      165.300   4.20559e-09
      165.400   4.14500e-09
      165.500   4.08520e-09
      165.600   4.02622e-09
      165.700   3.96799e-09
      165.800   3.91057e-09
      165.900   3.85390e-09
      166.000   3.79804e-09
      166.100   3.74292e-09
      166.200   3.68853e-09
      166.300   3.63491e-09
      166.400   3.58200e-09
      166.500   3.52981e-09
      166.600   3.47832e-09
      166.700   3.42755e-09
      166.800   3.37717e-09
      166.900   3.32616e-09
      167.000   3.27468e-09
      167.100   3.22388e-09
      167.200   3.17383e-09
      167.300   3.12448e-09
      167.400   3.07586e-09
      167.500   3.02793e-09
      167.600   2.98070e-09
      167.700   2.93413e-09
      167.800   2.88825e-09
      167.900   2.84303e-09
      168.000   2.79845e-09
      168.100   2.75450e-09
      168.200   2.71119e-09
      168.300   2.66849e-09
      168.400   2.62643e-09
      168.500   2.58497e-09
      168.600   2.54409e-09
      168.700   2.50381e-09
      168.800   2.46411e-09
      168.900   2.42499e-09
      169.000   2.38642e-09
      169.100   2.34841e-09
      169.200   2.31097e-09
      169.300   2.27405e-09
      169.400   2.23767e-09
      169.500   2.20122e-09
      169.600   2.16269e-09
      169.700   2.12217e-09
      169.800   2.08217e-09
      169.900   2.04284e-09
      170.000   2.00419e-09
      170.100   1.96620e-09
      170.200   1.92887e-09
      170.300   2.50728e-09
      170.400   5.37231e-09
      170.500   1.01568e-08
      170.600   1.49133e-08
      170.700   1.86795e-08
      170.800   2.03792e-08
      170.900   2.03628e-08
      171.000   1.99298e-08
      171.100   1.95045e-08
      171.200   1.90869e-08
      171.300   1.86766e-08
      171.400   1.82740e-08
      171.500   1.78787e-08
      171.600   1.74907e-08
      171.700   1.71100e-08
      171.800   1.67368e-08
      171.900   1.63710e-08
      172.000   1.60128e-08
      172.100   1.56618e-08
      172.200   1.53184e-08
      172.300   1.49819e-08
      172.400   1.46497e-08
      172.500   1.43241e-08
      172.600   1.40057e-08
      172.700   1.36944e-08
      172.800   1.33900e-08
      172.900   1.30923e-08
      173.000   1.28013e-08
      173.100   1.25169e-08
      173.200   1.22388e-08
      173.300   1.19669e-08
      173.400   1.17010e-08
      173.500   1.14411e-08
      173.600   1.11871e-08
      173.700   1.09386e-08
      173.800   1.06957e-08
      173.900   1.04582e-08
      174.000   1.02259e-08
      174.100   9.99869e-09
      174.200   9.77656e-09
      174.300   9.55931e-09
      174.400   9.34683e-09
      174.500   9.13897e-09
      174.600   8.93550e-09
      174.700   8.73658e-09
      174.800   8.54198e-09
      174.900   8.35153e-09
      175.000   8.16506e-09
      175.100   7.98266e-09
      175.200   7.80451e-09
      175.300   7.63014e-09
      175.400   7.45946e-09
      175.500   7.29251e-09
      175.600   7.12913e-09
      175.700   6.96928e-09
      175.800   6.81282e-09
      175.900   6.65977e-09
      176.000   6.51002e-09
      176.100   6.36356e-09
      176.200   6.22023e-09
      176.300   6.07997e-09
      176.400   5.94285e-09
      176.500   5.80866e-09
      176.600   5.67737e-09
      176.700   5.54895e-09
      176.800   5.42334e-09
      176.900   5.30049e-09
      177.000   5.18031e-09
      177.100   5.06273e-09
      177.200   4.94778e-09
      177.300   4.83534e-09
      177.400   4.72531e-09
      177.500   4.61768e-09
      177.600   4.51243e-09
      177.700   4.40949e-09
      177.800   4.30882e-09
      177.900   4.21028e-09
      178.000   4.11416e-09
      178.100   4.02017e-09
      178.200   3.92820e-09
      178.300   3.83824e-09
      178.400   3.75030e-09
      178.500   3.66427e-09
      178.600   3.58012e-09
      178.700   3.49779e-09
      178.800   3.41731e-09
      178.900   3.33861e-09
      179.000   3.26164e-09
      179.100   3.18634e-09
      179.200   3.11272e-09
      179.300   3.04075e-09
      179.400   2.97038e-09
      179.500   2.90163e-09
      179.600   2.83440e-09
      179.700   2.76872e-09
      179.800   2.70450e-09
      179.900   2.64174e-09
      180.000   2.58037e-09
      180.100   2.52042e-09
      180.200   2.46184e-09
      180.300   2.40460e-09
      180.400   2.34865e-09
      180.500   2.29401e-09
      180.600   2.24061e-09
      180.700   2.18845e-09
      180.800   2.13693e-09
      180.900   2.08596e-09
      181.000   2.03602e-09
      181.100   1.98728e-09
      181.200   1.93968e-09
      181.300   1.89320e-09
      181.400   1.84785e-09
      181.500   1.80356e-09
      181.600   1.76031e-09
      181.700   1.71809e-09
      181.800   1.67686e-09
      181.900   1.63661e-09
      182.000   1.59733e-09
      182.100   1.55896e-09
      182.200   1.52154e-09
      182.300   1.48499e-09
      182.400   1.44931e-09
      182.500   1.41447e-09
      182.600   1.38044e-09
      182.700   1.34721e-09
      182.800   1.31477e-09
      182.900   1.28308e-09
      183.000   1.25215e-09
      183.100   1.22195e-09
      183.200   1.19246e-09
      183.300   1.16365e-09
      183.400   1.13552e-09
      183.500   1.10806e-09
      183.600   1.08124e-09
      183.700   1.05433e-09
      183.800   1.02522e-09
      183.900   9.96363e-10
      184.000   9.68301e-10
      184.100   9.41009e-10
      184.200   9.14484e-10
      184.300   8.88671e-10
      184.400   8.63568e-10
      184.500   8.39154e-10
      184.600   8.15400e-10
      184.700   7.92293e-10
      184.800   7.69820e-10
      184.900   7.47959e-10
      185.000   7.26696e-10
      185.100   7.06010e-10
      185.200   6.85886e-10
      185.300   6.66328e-10
      185.400   6.47298e-10
      185.500   6.28792e-10
      185.600   6.10793e-10
      185.700   5.93278e-10
      185.800   5.76272e-10
      185.900   5.59748e-10
      186.000   5.43667e-10
      186.100   5.28029e-10
      186.200   5.12825e-10
      186.300   4.98035e-10
      186.400   4.83652e-10
      186.500   4.69664e-10
      186.600   4.56062e-10
      186.700   4.42833e-10
      186.800   4.29966e-10
      186.900   4.17455e-10
      187.000   4.05287e-10
      187.100   3.93455e-10
      187.200   3.81954e-10
      187.300   3.70788e-10
      187.400   3.59935e-10
      187.500   3.49385e-10
      187.600   3.39128e-10
      187.700   3.29158e-10
      187.800   3.19464e-10
      187.900   3.10041e-10
      188.000   3.00887e-10
      188.100   2.91988e-10
      188.200   2.83337e-10
      188.300   2.74929e-10
      188.400   2.66759e-10
      188.500   2.58823e-10
      188.600   2.51120e-10
      188.700   2.43645e-10
      188.800   2.36384e-10
      188.900   2.29334e-10
      189.000   2.22483e-10
      189.100   2.15826e-10
      189.200   2.09362e-10
      189.300   2.03085e-10
      189.400   1.96990e-10
      189.500   1.91071e-10
      189.600   1.85319e-10
      189.700   1.79716e-10
      189.800   1.74154e-10
      189.900   1.68771e-10
      190.000   1.63546e-10
      190.100   1.58480e-10
      190.200   1.53565e-10
      190.300   1.48797e-10
      190.400   1.44170e-10
      190.500   1.39682e-10
      190.600   1.35331e-10
      190.700   1.31109e-10
      190.800   1.27014e-10
      190.900   1.23043e-10
      191.000   1.19196e-10
      191.100   1.15472e-10
      191.200   1.11859e-10
      191.300   1.08354e-10
      191.400   1.04956e-10
      191.500   1.01659e-10
      191.600   9.84627e-11
      191.700   9.53628e-11
      191.800   9.23552e-11
      191.900   8.94399e-11
      192.000   8.66141e-11
      192.100   8.38793e-11
      192.200   8.12308e-11
      192.300   7.86620e-11
      192.400   7.61704e-11
      192.500   7.37547e-11
      192.600   7.14129e-11
      192.700   6.91178e-11
      192.800   6.67634e-11
      192.900   6.42544e-11
      193.000   6.18358e-11
      193.100   5.95071e-11
      193.200   5.72659e-11
      193.300   5.51051e-11
      193.400   5.30227e-11
      193.500   5.10145e-11
      193.600   4.90776e-11
      193.700   4.72103e-11
      193.800   4.54112e-11
      193.900   4.36774e-11
      194.000   4.20058e-11
      194.100   4.03983e-11
      194.200   3.88529e-11
      194.300   3.73635e-11
      194.400   3.59279e-11
      194.500   3.45445e-11
      194.600   3.32113e-11
      194.700   3.19272e-11
      194.800   3.06905e-11
      194.900   2.94986e-11
      195.000   2.83512e-11
      195.100   2.72500e-11
      195.200   2.61897e-11
      195.300   2.51685e-11
      195.400   2.41848e-11
      195.500   2.32371e-11
      195.600   2.23245e-11
      195.700   2.14458e-11
      195.800   2.05997e-11
      195.900   1.97853e-11
      196.000   1.90007e-11
      196.100   1.82455e-11
      196.200   1.75186e-11
      196.300   1.68190e-11
      196.400   1.61456e-11
      196.500   1.54972e-11
      196.600   1.48737e-11
      196.700   1.42736e-11
      196.800   1.36975e-11
      196.900   1.31447e-11
      197.000   1.26131e-11
      197.100   1.21017e-11
      197.200   1.16098e-11
      197.300   1.11365e-11
      197.400   1.06811e-11
      197.500   1.02434e-11
      197.600   9.82264e-12
      197.700   9.42004e-12
      197.800   9.03323e-12
      197.900   8.66110e-12
      198.000   8.30345e-12
      198.100   7.95976e-12
      198.200   7.62931e-12
      198.300   7.31163e-12
      198.400   7.00661e-12
      198.500   6.71474e-12
      198.600   6.43476e-12
      198.700   6.16574e-12
      198.800   5.90724e-12
      198.900   5.65901e-12
      199.000   5.42408e-12
      199.100   5.20895e-12
      199.200   5.01656e-12
      199.300   4.83161e-12
      199.400   4.65341e-12
      199.500   4.48148e-12
      199.600   4.31554e-12
      199.700   4.15542e-12
      199.800   4.00093e-12
      199.900   3.85194e-12
      200.000   3.70819e-12
      200.100   3.57018e-12
      200.200   3.43710e-12
      200.300   3.30882e-12
      200.400   3.18514e-12
      200.500   3.06589e-12
      200.600   2.95094e-12
      200.700   2.84014e-12
      200.800   2.73328e-12
      200.900   2.63030e-12
      201.000   2.53125e-12
      201.100   2.43587e-12
      201.200   2.34393e-12
      201.300   2.25536e-12
      201.400   2.17004e-12
      201.500   2.08776e-12
      201.600   2.00851e-12
      201.700   1.93216e-12
      201.800   1.85857e-12
      201.900   1.78780e-12
      202.000   1.71976e-12
      202.100   1.65416e-12
      202.200   1.59099e-12
      202.300   1.53172e-12
      202.400   1.47712e-12
      202.500   1.42497e-12
      202.600   1.37457e-12
      202.700   1.32590e-12
      202.800   1.27893e-12
      202.900   1.23364e-12
      203.000   1.18992e-12
      203.100   1.14770e-12
      203.200   1.10691e-12
      203.300   1.06752e-12
      203.400   1.02948e-12
      203.500   9.92762e-13
      203.600   9.57304e-13
      203.700   9.23070e-13
      203.800   8.90088e-13
      203.900   8.58273e-13
      204.000   8.27554e-13
      204.100   7.97908e-13
      204.200   7.69300e-13
      204.300   7.41672e-13
      204.400   7.15016e-13
      204.500   6.89287e-13
      204.600   6.64449e-13
      204.700   6.40484e-13
      204.800   6.17395e-13
      204.900   5.95133e-13
      205.000   5.73651e-13
      205.100   5.52930e-13
      205.200   5.32923e-13
      205.300   5.13630e-13
      205.400   4.95013e-13
      205.500   4.77044e-13
      205.600   4.59917e-13
      205.700   4.43576e-13
      205.800   4.27813e-13
      205.900   4.12614e-13
      206.000   3.97964e-13
      206.100   3.83807e-13
      206.200   3.70134e-13
      206.300   3.56939e-13
      206.400   3.44201e-13
      206.500   3.31893e-13
      206.600   3.20017e-13
      206.700   3.08550e-13
      206.800   2.97473e-13
      206.900   2.86781e-13
      207.000   2.76466e-13
      207.100   2.66518e-13
      207.200   2.56923e-13
      207.300   2.47662e-13
      207.400   2.38718e-13
      207.500   2.30085e-13
      207.600   2.21755e-13
      207.700   2.13710e-13
      207.800   2.05946e-13
      207.900   1.98455e-13
      208.000   1.91224e-13
      208.100   1.84247e-13
      208.200   1.77516e-13
      208.300   1.71020e-13
      208.400   1.64763e-13
      208.500   1.58729e-13
      208.600   1.52904e-13
      208.700   1.47283e-13
      208.800   1.41856e-13
      208.900   1.36388e-13
      209.000   1.30815e-13
      209.100   1.25461e-13
      209.200   1.20317e-13
      209.300   1.15373e-13
      209.400   1.10626e-13
      209.500   1.06064e-13
      209.600   1.01682e-13
      209.700   9.74769e-14
      209.800   9.34473e-14
      209.900   8.95737e-14
      210.000   8.58553e-14
      210.100   8.22854e-14
      210.200   7.88571e-14
      210.300   7.55665e-14
      210.400   7.24075e-14
      210.500   6.93745e-14
      210.600   6.64640e-14
      210.700   6.36713e-14
      210.800   6.09907e-14
      210.900   5.84183e-14
      211.000   5.59500e-14
      211.100   5.35830e-14
      211.200   5.13115e-14
      211.300   4.91369e-14
      211.400   4.70527e-14
      211.500   4.50519e-14
      211.600   4.31334e-14
      211.700   4.12943e-14
      211.800   3.95293e-14
      211.900   3.78370e-14
      212.000   3.62155e-14
      212.100   3.46605e-14
      212.200   3.31375e-14
      212.300   3.12028e-14
      212.400   2.90915e-14
      212.500   2.71150e-14
      212.600   2.52665e-14
      212.700   2.35368e-14
      212.800   2.19192e-14
      212.900   2.04077e-14
      213.000   1.89959e-14
      213.100   1.76792e-14
      213.200   1.64488e-14
      213.300   1.53002e-14
      213.400   1.42272e-14
      213.500   1.32257e-14
      213.600   1.22910e-14
      213.700   1.14195e-14
      213.800   1.06061e-14
      213.900   9.84825e-15
      214.000   9.14173e-15
      214.100   8.48319e-15
      214.200   7.87013e-15
      214.300   7.29899e-15
      214.400   6.76714e-15
      214.500   6.27220e-15
      214.600   5.81194e-15
      214.700   5.38371e-15
      214.800   4.98549e-15
      214.900   4.61556e-15
      215.000   4.27151e-15
      215.100   3.95216e-15
      215.200   3.65612e-15
      215.300   3.38147e-15
      215.400   3.12630e-15
      215.500   2.88954e-15
      215.600   2.67008e-15
      215.700   2.46637e-15
      215.800   2.27749e-15
      215.900   2.10254e-15
      216.000   1.94034e-15
      216.100   1.79008e-15
      216.200   1.65099e-15
      216.300   1.52224e-15
      216.400   1.40309e-15
      216.500   1.29281e-15
      216.600   1.19086e-15
      216.700   1.09661e-15
      216.800   1.00947e-15
      216.900   9.28992e-16
      217.000   8.54649e-16
      217.100   7.85961e-16
      217.200   7.22607e-16
      217.300   6.64130e-16
      217.400   6.10163e-16
      217.500   5.60429e-16
      217.600   5.14552e-16
      217.700   4.72271e-16
      217.800   4.33317e-16
      217.900   3.97482e-16
      218.000   3.64515e-16
      218.100   3.34174e-16
      218.200   3.06260e-16
      218.300   2.80593e-16
      218.400   2.56982e-16
      218.500   2.35267e-16
      218.600   2.15328e-16
      218.700   1.96998e-16
      218.800   1.80166e-16
      218.900   1.64724e-16
      219.000   1.50543e-16
      219.100   1.37643e-16
      219.200   1.26712e-16
      219.300   1.17978e-16
      219.400   1.09822e-16
      219.500   1.02212e-16
      219.600   9.51116e-17
      219.700   8.84860e-17
      219.800   8.23087e-17
      219.900   7.65465e-17
      220.000   7.11720e-17
      220.100   6.61619e-17
      220.200   6.14933e-17
      220.300   5.71439e-17
      220.400   5.30900e-17
      220.500   4.93147e-17
      220.600   4.57999e-17
      220.700   4.25259e-17
      220.800   3.94768e-17
      220.900   3.66413e-17
      221.000   3.40016e-17
      221.100   3.15449e-17
      221.200   2.92612e-17
      221.300   2.71369e-17
      221.400   2.51613e-17
      221.500   2.33254e-17
      221.600   2.16188e-17
      221.700   2.00324e-17
      221.800   1.85586e-17
      221.900   1.71903e-17
      222.000   1.59196e-17
      222.100   1.47391e-17
      222.200   1.36441e-17
      222.300   1.26275e-17
      222.400   1.16840e-17
      222.500   1.08086e-17
      222.600   9.99729e-18
      222.700   9.24453e-18
      222.800   8.54666e-18
      222.900   7.90028e-18
      223.000   7.30090e-18
      223.100   6.74550e-18
      223.200   6.23102e-18
      223.300   5.75474e-18
      223.400   5.31366e-18
      223.500   4.90511e-18
      223.600   4.52730e-18
      223.700   4.17752e-18
      223.800   3.85384e-18
      223.900   3.55481e-18
      224.000   3.27798e-18
      224.100   3.02206e-18
      224.200   2.78552e-18
      224.300   2.56702e-18
      224.400   2.36502e-18
      224.500   2.17847e-18
      224.600   2.00612e-18
      224.700   1.84715e-18
      224.800   1.70033e-18
      224.900   1.56477e-18
      225.000   1.43975e-18
      225.100   1.32437e-18
      225.200   1.21796e-18
      225.300   1.11992e-18
      225.400   1.02948e-18
      225.500   9.46109e-19
      225.600   8.69297e-19
      225.700   7.98572e-19
      225.800   7.33398e-19
      225.900   6.73391e-19
      226.000   6.18179e-19
      226.100   5.67332e-19
      226.200   5.20539e-19
      226.300   4.77555e-19
      226.400   4.38047e-19
      226.500   4.01690e-19
      226.600   3.68255e-19
      226.700   3.37545e-19
      226.800   3.09303e-19
      226.900   2.83347e-19
      227.000   2.59525e-19
      227.100   2.37638e-19
      227.200   2.17546e-19
      227.300   1.99107e-19
      227.400   1.82188e-19
      227.500   1.66664e-19
      227.600   1.52426e-19
      227.700   1.39371e-19
      227.800   1.27405e-19
      227.900   1.16440e-19
      228.000   1.06391e-19
      228.100   9.71857e-20
      228.200   8.87540e-20
      228.300   8.10350e-20
      228.400   7.39711e-20
      228.500   6.75041e-20
      228.600   6.15890e-20
      228.700   5.61779e-20
      228.800   5.12287e-20
      228.900   4.67064e-20
      229.000   4.25708e-20
      229.100   3.87923e-20
      229.200   3.53407e-20
      229.300   3.21884e-20
      229.400   2.93100e-20
      229.500   2.66822e-20
      229.600   2.42840e-20
      229.700   2.20960e-20
      229.800   2.00996e-20
      229.900   1.82852e-20
      230.000   1.66772e-20
      230.100   1.52881e-20
      230.200   1.40116e-20
      230.300   1.28399e-20
      230.400   1.17635e-20
      230.500   1.07761e-20
      230.600   9.87100e-21
      230.700   9.03991e-21
      230.800   8.27731e-21
      230.900   7.57772e-21
      231.000   6.93561e-21
      231.100   6.34678e-21
      231.200   5.80670e-21
      231.300   5.31164e-21
      231.400   4.85800e-21
      231.500   4.44194e-21
      231.600   4.06063e-21
      231.700   3.71143e-21
      231.800   3.39159e-21
      231.900   3.09865e-21
      232.000   2.83042e-21
      232.100   2.58483e-21
      232.200   2.36010e-21
      232.300   2.15446e-21
      232.400   1.96629e-21
      232.500   1.79413e-21
      232.600   1.63675e-21
      232.700   1.49286e-21
      232.800   1.36130e-21
      232.900   1.24108e-21
      233.000   1.13121e-21
      233.100   1.03088e-21
      233.200   9.39191e-22
      233.300   8.55493e-22
      233.400   7.79094e-22
      233.500   7.09508e-22
      233.600   6.46084e-22
      233.700   5.88182e-22
      233.800   5.34234e-22
      233.900   4.84989e-22
      234.000   4.40154e-22
      234.100   3.99387e-22
      234.200   3.62314e-22
      234.300   3.28602e-22
      234.400   2.97956e-22
      234.500   2.70106e-22
      234.600   2.44796e-22
      234.700   2.21810e-22
      234.800   2.00939e-22
      234.900   1.81981e-22
      235.000   1.64769e-22
      235.100   1.49153e-22
      235.200   1.34983e-22
      235.300   1.22128e-22
      235.400   1.10471e-22
      235.500   9.98999e-23
      235.600   9.03206e-23
      235.700   8.16459e-23
      235.800   7.38166e-23
      235.900   6.67216e-23
      236.000   6.02937e-23
      236.100   5.44705e-23
      236.200   4.91974e-23
      236.300   4.44226e-23
      236.400   4.01020e-23
      236.500   3.61916e-23
      236.600   3.26543e-23
      236.700   2.94550e-23
      236.800   2.65616e-23
      236.900   2.39465e-23
      237.000   2.15830e-23
      237.100   1.94470e-23
      237.200   1.75184e-23
      237.300   1.57762e-23
      237.400   1.42095e-23
      237.500   1.28515e-23
      237.600   1.17180e-23
      237.700   1.06862e-23
      237.800   9.74323e-24
      237.900   8.88165e-24
      238.000   8.09493e-24
      238.100   7.37611e-24
      238.200   6.71984e-24
      238.300   6.12065e-24
      238.400   5.57375e-24
      238.500   5.07460e-24
      238.600   4.61922e-24
      238.700   4.20393e-24
      238.800   3.82507e-24
      238.900   3.47963e-24
      239.000   3.16467e-24
      239.100   2.87763e-24
      239.200   2.61613e-24
      239.300   2.37863e-24
      239.400   2.16285e-24
      239.500   1.96619e-24
      239.600   1.78700e-24
      239.700   1.62385e-24
      239.800   1.47522e-24
      239.900   1.33990e-24
      240.000   1.21674e-24
      240.100   1.10462e-24
      240.200   1.00260e-24
      240.300   9.09818e-25
      240.400   8.25397e-25
      240.500   7.48681e-25
      240.600   6.78928e-25
      240.700   6.15538e-25
      240.800   5.58128e-25
      240.900   5.06129e-25
      241.000   4.58873e-25
      241.100   4.15933e-25
      241.200   3.76925e-25
      241.300   3.43069e-25
      241.400   3.15054e-25
      241.500   2.90746e-25
      241.600   2.68278e-25
      241.700   2.47508e-25
      241.800   2.28313e-25
      241.900   2.10576e-25
      242.000   1.94191e-25
      242.100   1.79057e-25
      242.200   1.65127e-25
      242.300   1.52295e-25
      242.400   1.40438e-25
      242.500   1.29485e-25
      242.600   1.19370e-25
      242.700   1.10027e-25
      242.800   1.01403e-25
      242.900   9.34409e-26
      243.000   8.60912e-26
      243.100   7.93085e-26
      243.200   7.30471e-26
      243.300   6.72713e-26
      243.400   6.19449e-26
      243.500   5.70475e-26
      243.600   5.25465e-26
      243.700   4.83913e-26
      243.800   4.45578e-26
      243.900   4.10235e-26
      244.000   3.77625e-26
      244.100   3.47557e-26
      244.200   3.19839e-26
      244.300   2.94277e-26
      244.400   2.70725e-26
      244.500   2.49016e-26
      244.600   2.29013e-26
      244.700   2.10632e-26
      244.800   1.93778e-26
      244.900   1.78249e-26
      245.000   1.63932e-26
      245.100   1.50743e-26
      245.200   1.38599e-26
      245.300   1.27412e-26
      245.400   1.17106e-26
      245.500   1.07620e-26
      245.600   9.88866e-27
      245.700   9.08448e-27
      245.800   8.34418e-27
      245.900   7.66710e-27
      246.000   7.04537e-27
      246.100   6.47286e-27
      246.200   5.94596e-27
      246.300   5.46096e-27
      246.400   5.01483e-27
      246.500   4.60430e-27
      246.600   4.22668e-27
      246.700   3.87944e-27
      246.800   3.55998e-27
      246.900   3.26631e-27
      247.000   2.99790e-27
      247.100   2.75179e-27
      247.200   2.52547e-27
      247.300   2.31739e-27
      247.400   2.12604e-27
      247.500   1.95016e-27
      247.600   1.78852e-27
      247.700   1.63998e-27
      247.800   1.50351e-27
      247.900   1.37813e-27
      248.000   1.26301e-27
      248.100   1.15831e-27
      248.200   1.06205e-27
      248.300   9.73618e-28
      248.400   8.92389e-28
      248.500   8.17758e-28
      248.600   7.49234e-28
      248.700   6.86341e-28
      248.800   6.28603e-28
      248.900   5.75621e-28
      249.000   5.27004e-28
      249.100   4.82749e-28
      249.200   4.46183e-28
      249.300   4.16417e-28
      249.400   3.89565e-28
      249.500   3.64414e-28
      249.600   3.40848e-28
      249.700   3.18778e-28
      249.800   2.98110e-28
      249.900   2.78750e-28
      250.000   2.60632e-28
      250.100   2.43739e-28
      250.200   2.27954e-28
      250.300   2.13185e-28
      250.400   1.99356e-28
      250.500   1.86413e-28
      250.600   1.74297e-28
      250.700   1.62955e-28
      250.800   1.52341e-28
      250.900   1.42406e-28
      251.000   1.33111e-28
      251.100   1.24411e-28
      251.200   1.16289e-28
      251.300   1.08712e-28
      251.400   1.01621e-28
      251.500   9.49832e-29
      251.600   8.87739e-29
      251.700   8.29665e-29
      251.800   7.75322e-29
      251.900   7.24481e-29
      252.000   6.76913e-29
      252.100   6.32453e-29
      252.200   5.90845e-29
      252.300   5.52007e-29
      252.400   5.15777e-29
      252.500   4.81910e-29
      252.600   4.50225e-29
      252.700   4.20597e-29
      252.800   3.92893e-29
      252.900   3.66984e-29
      253.000   3.42760e-29
      253.100   3.20116e-29
      253.200   3.00355e-29
      253.300   2.87739e-29
      253.400   2.76999e-29
      253.500   2.66672e-29
      253.600   2.56738e-29
      253.700   2.47168e-29
      253.800   2.37955e-29
      253.900   2.29081e-29
      254.000   2.20534e-29
      254.100   2.12301e-29
      254.200   2.04372e-29
      254.300   1.96736e-29
      254.400   1.89382e-29
      254.500   1.82301e-29
      254.600   1.75479e-29
      254.700   1.68913e-29
      254.800   1.62602e-29
      254.900   1.56524e-29
      255.000   1.50671e-29
      255.100   1.45031e-29
      255.200   1.39602e-29
      255.300   1.34373e-29
      255.400   1.29338e-29
      255.500   1.24490e-29
      255.600   1.19821e-29
      255.700   1.15324e-29
      255.800   1.10994e-29
      255.900   1.06824e-29
      256.000   1.02808e-29
      256.100   9.89465e-30
      256.200   9.52302e-30
      256.300   9.16518e-30
      256.400   8.82088e-30
      256.500   8.48907e-30
      256.600   8.16965e-30
      256.700   7.86213e-30
      256.800   7.56600e-30
      256.900   7.28083e-30
      257.000   7.00628e-30
      257.100   6.74192e-30
      257.200   6.48751e-30
      257.300   6.24249e-30
      257.400   6.00841e-30
      257.500   5.78364e-30
      257.600   5.56756e-30
      257.700   5.35950e-30
      257.800   5.15911e-30
      257.900   4.96616e-30
      258.000   4.78033e-30
      258.100   4.60130e-30
      258.200   4.42895e-30
      258.300   4.26298e-30
      258.400   4.10309e-30
      258.500   3.94909e-30
      258.600   3.80087e-30
      258.700   3.65812e-30
      258.800   3.52062e-30
      258.900   3.38830e-30
      259.000   3.26083e-30
      259.100   3.13812e-30
      259.200   3.02004e-30
      259.300   2.90650e-30
      259.400   2.79715e-30
      259.500   2.69184e-30
      259.600   2.59049e-30
      259.700   2.49290e-30
      259.800   2.39893e-30
      259.900   2.30842e-30
      260.000   2.22133e-30
      260.100   2.13749e-30
      260.200   2.05677e-30
      260.300   1.97907e-30
      260.400   1.90427e-30
      260.500   1.83229e-30
      260.600   1.76296e-30
      260.700   1.69623e-30
      260.800   1.63205e-30
      260.900   1.57022e-30
      261.000   1.51076e-30
      261.100   1.45360e-30
      261.200   1.39855e-30
      261.300   1.34557e-30
      261.400   1.29460e-30
      261.500   1.24557e-30
      261.600   1.19847e-30
      261.700   1.15315e-30
      261.800   1.10954e-30
      261.900   1.06754e-30
      262.000   1.02712e-30
      262.100   9.88218e-31
      262.200   9.50794e-31
      262.300   9.14762e-31
      262.400   8.80092e-31
      262.500   8.46718e-31
      262.600   8.14594e-31
      262.700   7.83687e-31
      262.800   7.53943e-31
      262.900   7.25302e-31
      263.000   6.97774e-31
      263.100   6.71270e-31
      263.200   6.45795e-31
      263.300   6.21276e-31
      263.400   5.97681e-31
      263.500   5.74981e-31
      263.600   5.53141e-31
      263.700   5.32118e-31
      263.800   5.11888e-31
      263.900   4.92438e-31
      264.000   4.73712e-31
      264.100   4.55689e-31
      264.200   4.38344e-31
      264.300   4.21669e-31
      264.400   4.05621e-31
      264.500   3.90175e-31
      264.600   3.75316e-31
      264.700   3.61023e-31
      264.800   3.47263e-31
      264.900   3.34033e-31
      265.000   3.21304e-31
      265.100   3.09051e-31
      265.200   2.97267e-31
      265.300   2.85928e-31
      265.400   2.75025e-31
      265.500   2.64531e-31
      265.600   2.54439e-31
      265.700   2.45420e-31
      265.800   2.39627e-31
      265.900   2.34064e-31
      266.000   2.28631e-31
      266.100   2.23323e-31
      266.200   2.18137e-31
      266.300   2.13069e-31
      266.400   2.08121e-31
      266.500   2.03284e-31
      266.600   1.98560e-31
      266.700   1.93942e-31
      266.800   1.89435e-31
      266.900   1.85031e-31
      267.000   1.80727e-31
      267.100   1.76524e-31
      267.200   1.72420e-31
      267.300   1.68408e-31
      267.400   1.64489e-31
      267.500   1.60661e-31
      267.600   1.56921e-31
      267.700   1.53269e-31
      267.800   1.49699e-31
      267.900   1.46213e-31
      268.000   1.42809e-31
      268.100   1.39483e-31
      268.200   1.36235e-31
      268.300   1.33064e-31
      268.400   1.29963e-31
      268.500   1.26934e-31
      268.600   1.23975e-31
      268.700   1.21087e-31
      268.800   1.18265e-31
      268.900   1.15509e-31
      269.000   1.12818e-31
      269.100   1.10186e-31
      269.200   1.07618e-31
      269.300   1.05110e-31
      269.400   1.02658e-31
      269.500   1.00264e-31
      269.600   9.79267e-32
      269.700   9.56419e-32
      269.800   9.34115e-32
      269.900   9.12322e-32
      270.000   8.91049e-32
      270.100   8.70310e-32
      270.200   8.50074e-32
      270.300   8.30310e-32
      270.400   8.10991e-32
      270.500   7.92126e-32
      270.600   7.73687e-32
      270.700   7.55693e-32
      270.800   7.38109e-32
      270.900   7.20924e-32
      271.000   7.04151e-32
      271.100   6.87755e-32
      271.200   6.71739e-32
      271.300   6.56097e-32
      271.400   6.40816e-32
      271.500   6.25894e-32
      271.600   6.11308e-32
      271.700   5.97059e-32
      271.800   5.83149e-32
      271.900   5.69555e-32
      272.000   5.56279e-32
      272.100   5.43306e-32
      272.200   5.30635e-32
      272.300   5.18251e-32
      272.400   5.06156e-32
      272.500   4.94343e-32
      272.600   4.82803e-32
      272.700   4.71529e-32
      272.800   4.60510e-32
      272.900   4.49754e-32
      273.000   4.39245e-32
      273.100   4.28974e-32
      273.200   4.18945e-32
      273.300   4.09150e-32
      273.400   3.99575e-32
      273.500   3.90222e-32
      273.600   3.81087e-32
      273.700   3.72160e-32
      273.800   3.63439e-32
      273.900   3.54924e-32
      274.000   3.46606e-32
      274.100   3.38477e-32
      274.200   3.30535e-32
      274.300   3.22778e-32
      274.400   3.14900e-32
      274.500   3.06543e-32
      274.600   2.98265e-32
      274.700   2.90211e-32
      274.800   2.82367e-32
      274.900   2.74731e-32
      275.000   2.67297e-32
      275.100   2.60061e-32
      275.200   2.53017e-32
      275.300   2.46158e-32
      275.400   2.39484e-32
      275.500   2.32988e-32
      275.600   2.26662e-32
      275.700   2.20505e-32
      275.800   2.14514e-32
      275.900   2.08682e-32
      276.000   2.03006e-32
      276.100   1.97479e-32
      276.200   1.92099e-32
      276.300   1.86862e-32
      276.400   1.81767e-32
      276.500   1.76806e-32
      276.600   1.71980e-32
      276.700   1.67281e-32
      276.800   1.62709e-32
      276.900   1.58257e-32
      277.000   1.53925e-32
      277.100   1.49708e-32
      277.200   1.45606e-32
      277.300   1.41613e-32
      277.400   1.37727e-32
      277.500   1.33944e-32
      277.600   1.30264e-32
      277.700   1.26681e-32
      277.800   1.23193e-32
      277.900   1.19803e-32
      278.000   1.16503e-32
      278.100   1.13292e-32
      278.200   1.10166e-32
      278.300   1.07126e-32
      278.400   1.04168e-32
      278.500   1.01288e-32
      278.600   9.84854e-33
      278.700   9.57608e-33
      278.800   9.31475e-33
      278.900   9.07577e-33
      279.000   8.84258e-33
      279.100   8.61528e-33
      279.200   8.39346e-33
      279.300   8.17736e-33
      279.400   7.96650e-33
      279.500   7.76097e-33
      279.600   7.56062e-33
      279.700   7.36533e-33
      279.800   7.17490e-33
      279.900   6.98925e-33
      280.000   6.80826e-33
      280.100   6.63173e-33
      280.200   6.45975e-33
      280.300   6.29205e-33
      280.400   6.12858e-33
      280.500   5.96931e-33
      280.600   5.81403e-33
      280.700   5.66268e-33
      280.800   5.51513e-33
      280.900   5.37129e-33
      281.000   5.23112e-33
      281.100   5.09449e-33
      281.200   4.96132e-33
      281.300   4.83154e-33
      281.400   4.70511e-33
      281.500   4.58185e-33
      281.600   4.46168e-33
      281.700   4.34459e-33
      281.800   4.23059e-33
      281.900   4.11943e-33
      282.000   4.01107e-33
      282.100   3.90551e-33
      282.200   3.80274e-33
      282.300   3.70251e-33
      282.400   3.60484e-33
      282.500   3.50965e-33
      282.600   3.41699e-33
      282.700   3.32668e-33
      282.800   3.23863e-33
      282.900   3.15297e-33
      283.000   3.06947e-33
      283.100   2.98814e-33
      283.200   2.90894e-33
      283.300   2.83756e-33
      283.400   2.79864e-33
      283.500   2.76392e-33
      283.600   2.72951e-33
      283.700   2.69546e-33
      283.800   2.66175e-33
      283.900   2.62839e-33
      284.000   2.59535e-33
      284.100   2.56263e-33
      284.200   2.53028e-33
      284.300   2.49829e-33
      284.400   2.46659e-33
      284.500   2.43522e-33
      284.600   2.40421e-33
      284.700   2.37352e-33
      284.800   2.34314e-33
      284.900   2.31310e-33
      285.000   2.28335e-33
      285.100   2.25393e-33
      285.200   2.22482e-33
      285.300   2.19604e-33
      285.400   2.16758e-33
      285.500   2.13940e-33
      285.600   2.11157e-33
      285.700   2.08400e-33
      285.800   2.05678e-33
      285.900   2.02983e-33
      286.000   2.00317e-33
      286.100   1.97686e-33
      286.200   1.95081e-33
      286.300   1.92509e-33
      286.400   1.89962e-33
      286.500   1.87445e-33
      286.600   1.84957e-33
      286.700   1.82496e-33
      286.800   1.80065e-33
      286.900   1.77662e-33
      287.000   1.75285e-33
      287.100   1.72937e-33
      287.200   1.70616e-33
      287.300   1.68321e-33
      287.400   1.66052e-33
      287.500   1.63812e-33
      287.600   1.61598e-33
      287.700   1.59410e-33
      287.800   1.57249e-33
      287.900   1.55114e-33
      288.000   1.53006e-33
      288.100   1.50923e-33
      288.200   1.48866e-33
      288.300   1.46834e-33
      288.400   1.44829e-33
      288.500   1.42846e-33
      288.600   1.40886e-33
      288.700   1.38952e-33
      288.800   1.37040e-33
      288.900   1.35153e-33
      289.000   1.33288e-33
      289.100   1.31446e-33
      289.200   1.29625e-33
      289.300   1.27829e-33
      289.400   1.26055e-33
      289.500   1.24303e-33
      289.600   1.22571e-33
      289.700   1.20863e-33
      289.800   1.19175e-33
      289.900   1.17507e-33
      290.000   1.15863e-33
      290.100   1.14236e-33
      290.200   1.12633e-33
      290.300   1.11050e-33
      290.400   1.09486e-33
      290.500   1.07943e-33
      290.600   1.06419e-33
      290.700   1.04914e-33
      290.800   1.03430e-33
      290.900   1.01964e-33
      291.000   1.00516e-33
      291.100   9.90861e-34
      291.200   9.76751e-34
      291.300   9.62828e-34
      291.400   9.49082e-34
      291.500   9.35509e-34
      291.600   9.22117e-34
      291.700   9.08901e-34
      291.800   8.95851e-34
      291.900   8.82981e-34
      292.000   8.70288e-34
      292.100   8.57757e-34
      292.200   8.45387e-34
      292.300   8.33173e-34
      292.400   8.21121e-34
      292.500   8.09224e-34
      292.600   7.97470e-34
      292.700   7.85863e-34
      292.800   7.74410e-34
      292.900   7.63105e-34
      293.000   7.51953e-34
      293.100   7.40949e-34
      293.200   7.30085e-34
      293.300   7.19366e-34
      293.400   7.08802e-34
      293.500   6.98372e-34
      293.600   6.88086e-34
      293.700   6.77938e-34
      293.800   6.67929e-34
      293.900   6.58051e-34
      294.000   6.48300e-34
      294.100   6.38686e-34
      294.200   6.29204e-34
      294.300   6.19852e-34
      294.400   6.10618e-34
      294.500   6.01509e-34
      294.600   5.92520e-34
      294.700   5.83662e-34
      294.800   5.74920e-34
      294.900   5.66293e-34
      295.000   5.57791e-34
      295.100   5.49414e-34
      295.200   5.41144e-34
      295.300   5.32981e-34
      295.400   5.24936e-34
      295.500   5.17003e-34
      295.600   5.09174e-34
      295.700   5.01452e-34
      295.800   4.93837e-34
      295.900   4.86322e-34
      296.000   4.78918e-34
      296.100   4.71606e-34
      296.200   4.64405e-34
      296.300   4.57299e-34
      296.400   4.50302e-34
      296.500   4.43392e-34
      296.600   4.36582e-34
      296.700   4.29866e-34
      296.800   4.23244e-34
      296.900   4.16713e-34
      297.000   4.10275e-34
      297.100   4.03925e-34
      297.200   3.97899e-34
      297.300   3.93690e-34
      297.400   3.93766e-34
      297.500   3.93824e-34
      297.600   3.93863e-34
      297.700   3.93882e-34
      297.800   3.93880e-34
      297.900   3.93860e-34
      298.000   3.93819e-34
      298.100   3.93757e-34
      298.200   3.93675e-34
      298.300   3.93575e-34
      298.400   3.93457e-34
      298.500   3.93316e-34
      298.600   3.93159e-34
      298.700   3.92979e-34
      298.800   3.92777e-34
      298.900   3.92554e-34
      299.000   3.92315e-34
      299.100   3.92055e-34
      299.200   3.91775e-34
      299.300   3.91472e-34
      299.400   3.91152e-34
      299.500   3.90813e-34
      299.600   3.90452e-34
      299.700   3.90070e-34
      299.800   3.89671e-34
      299.900   3.89258e-34
      300.000   3.88818e-34
      300.100   3.88359e-34
      300.192   3.87920e-34
      300.285   3.87456e-34
      300.377   3.86982e-34
      300.470   3.86492e-34
      300.562   3.85981e-34
      300.654   3.85454e-34
      300.747   3.84913e-34
      300.839   3.84357e-34
      300.932   3.83774e-34
      301.025   3.83184e-34
      301.117   3.82579e-34
      301.210   3.81946e-34
      301.303   3.81307e-34
      301.395   3.80653e-34
      301.488   3.79974e-34
      301.581   3.79279e-34
      301.674   3.78570e-34
      301.766   3.77850e-34
      301.859   3.77113e-34
      301.952   3.76354e-34
      302.045   3.75582e-34
      302.138   3.86135e-34
      302.231   4.01556e-34
      302.324   4.17702e-34
      302.417   4.34442e-34
      302.510   4.51761e-34
      302.603   4.69675e-34
      302.696   4.88218e-34
      302.789   5.07421e-34
      302.882   5.27277e-34
      302.976   5.48045e-34
      303.069   5.69288e-34
      303.162   5.91252e-34
      303.255   6.13957e-34
      303.349   6.37691e-34
      303.442   6.61959e-34
      303.535   6.87009e-34
      303.629   7.13172e-34
      303.722   7.39920e-34
      303.816   7.67842e-34
      303.909   7.96373e-34
      304.003   8.26130e-34
      304.096   8.56535e-34
      304.190   8.88257e-34
      304.283   9.20626e-34
      304.377   9.54349e-34
      304.471   9.89165e-34
      304.564   1.02468e-33
      304.658   1.06170e-33
      304.752   1.09991e-33
      304.846   1.13923e-33
      304.939   1.17934e-33
      305.033   1.22112e-33
      305.127   1.26416e-33
      305.221   1.30847e-33
      305.315   1.35417e-33
      305.409   1.40116e-33
      305.503   1.44955e-33
      305.597   1.49940e-33
      305.691   1.55066e-33
      305.785   1.60346e-33
      305.879   1.65775e-33
      305.973   1.71354e-33
      306.067   1.77098e-33
      306.161   1.83002e-33
      306.255   1.89072e-33
      306.350   1.95380e-33
      306.444   2.01794e-33
      306.538   2.08388e-33
      306.633   2.15231e-33
      306.727   2.22191e-33
      306.821   2.29338e-33
      306.916   2.36754e-33
      307.010   2.44352e-33
      307.105   2.52290e-33
      307.199   2.60362e-33
      307.294   2.68740e-33
      307.388   2.77248e-33
      307.483   2.86076e-33
      307.577   2.95040e-33
      307.672   3.04338e-33
      307.767   3.13874e-33
      307.861   3.23543e-33
      307.956   3.33577e-33
      308.051   3.43865e-33
      308.146   3.54413e-33
      308.240   3.65101e-33
      308.335   3.76172e-33
      308.430   3.87520e-33
      308.525   3.99159e-33
      308.620   4.11068e-33
      308.715   4.23271e-33
      308.810   4.35767e-33
      308.905   4.48559e-33
      309.000   4.61645e-33
      309.095   4.75046e-33
      309.190   4.88760e-33
      309.285   5.02796e-33
      309.380   5.17152e-33
      309.476   5.31989e-33
      309.571   5.47007e-33
      309.666   5.62378e-33
      309.761   5.78080e-33
      309.857   5.94296e-33
      309.952   6.10696e-33
      310.047   6.27446e-33
      310.143   6.44754e-33
      310.238   6.62250e-33
      310.334   6.80301e-33
      310.429   6.98564e-33
      310.525   7.17381e-33
      310.620   7.36408e-33
      310.716   7.56028e-33
      310.811   7.75854e-33
      310.907   7.96275e-33
      311.003   8.17110e-33
      311.098   8.38153e-33
      311.194   8.59846e-33
      311.290   8.81976e-33
      311.386   9.04527e-33
      311.481   9.27273e-33
      311.577   9.50691e-33
      311.673   9.74585e-33
      311.769   9.98927e-33
      311.865   1.02370e-32
      311.961   1.04932e-32
      312.057   1.07661e-32
      312.153   1.10480e-32
      312.249   1.13357e-32
      312.345   1.16293e-32
      312.441   1.19288e-32
      312.537   1.22340e-32
      312.633   1.25453e-32
      312.730   1.28662e-32
      312.826   1.31899e-32
      312.922   1.35198e-32
      313.018   1.38560e-32
      313.115   1.42023e-32
      313.211   1.45516e-32
      313.307   1.49074e-32
      313.404   1.52735e-32
      313.500   1.56426e-32
      313.597   1.60224e-32
      313.693   1.64046e-32
      313.790   1.67982e-32
      313.886   1.71946e-32
      313.983   1.76024e-32
      314.079   1.80131e-32
      314.176   1.84350e-32
      314.273   1.88643e-32
      314.369   1.92967e-32
      314.466   1.97409e-32
      314.563   2.01927e-32
      314.660   2.06513e-32
      314.756   2.11132e-32
      314.853   2.15874e-32
      314.950   2.20693e-32
      315.047   2.25590e-32
      315.144   2.30568e-32
      315.241   2.35621e-32
      315.338   2.40756e-32
      315.435   2.45968e-32
      315.532   2.51260e-32
      315.629   2.56630e-32
      315.726   2.62082e-32
      315.823   2.67620e-32
      315.921   2.73290e-32
      316.018   2.78990e-32
      316.115   2.84773e-32
      316.212   2.90637e-32
      316.310   2.96644e-32
      316.407   3.02671e-32
      316.504   3.08786e-32
      316.602   3.15048e-32
      316.699   3.21331e-32
      316.796   3.27691e-32
      316.894   3.34206e-32
      316.991   3.40797e-32
      317.089   3.47900e-32
      317.187   3.55296e-32
      317.284   3.62722e-32
      317.382   3.70334e-32
      317.479   3.77981e-32
      317.577   3.85813e-32
      317.675   3.93755e-32
      317.773   4.01819e-32
      317.870   4.09913e-32
      317.968   4.18213e-32
      318.066   4.26620e-32
      318.164   4.35143e-32
      318.262   4.43784e-32
      318.360   4.52545e-32
      318.458   4.61423e-32
      318.556   4.70415e-32
      318.654   4.79524e-32
      318.752   4.88746e-32
      318.850   4.98088e-32
      318.948   5.07554e-32
      319.046   5.17140e-32
      319.144   5.26842e-32
      319.242   5.36658e-32
      319.341   5.46700e-32
      319.439   5.56755e-32
      319.537   5.66932e-32
      319.635   5.77228e-32
      319.734   5.87745e-32
      319.832   5.98275e-32
      319.930   6.08923e-32
      320.029   6.19799e-32
      320.127   6.30684e-32
      320.226   6.41805e-32
      320.324   6.52929e-32
      320.423   6.64279e-32
      320.522   6.75753e-32
      320.620   6.87222e-32
      320.719   6.98925e-32
      320.818   7.10750e-32
      320.916   7.22568e-32
      321.015   7.34628e-32
      321.114   7.46792e-32
      321.213   7.59079e-32
      321.311   7.71350e-32
      321.410   7.83852e-32
      321.509   7.96472e-32
      321.608   8.09192e-32
      321.707   8.22032e-32
      321.806   8.34987e-32
      321.905   8.48037e-32
      322.004   8.61212e-32
      322.103   8.78783e-32
      322.202   9.03961e-32
      322.301   9.32887e-32
      322.401   9.62851e-32
      322.500   9.93269e-32
      322.599   1.02444e-31
      322.698   1.05637e-31
      322.798   1.08944e-31
      322.897   1.12299e-31
      322.996   1.15733e-31
      323.096   1.19286e-31
      323.195   1.22887e-31
      323.294   1.26571e-31
      323.394   1.30378e-31
      323.493   1.34237e-31
      323.593   1.38224e-31
      323.692   1.42259e-31
      323.792   1.46426e-31
      323.892   1.50686e-31
      323.991   1.54997e-31
      324.091   1.59447e-31
      324.191   1.63996e-31
      324.291   1.68638e-31
      324.390   1.73330e-31
      324.490   1.78176e-31
      324.590   1.83115e-31
      324.690   1.88155e-31
      324.790   1.93301e-31
      324.890   1.98549e-31
      324.990   2.03905e-31
      325.090   2.09368e-31
      325.190   2.14930e-31
      325.290   2.20600e-31
      325.390   2.26383e-31
      325.490   2.32271e-31
      325.590   2.38268e-31
      325.690   2.44375e-31
      325.790   2.50594e-31
      325.891   2.56989e-31
      325.991   2.63431e-31
      326.091   2.69990e-31
      326.192   2.76728e-31
      326.292   2.83514e-31
      326.392   2.90411e-31
      326.493   2.97496e-31
      326.593   3.04627e-31
      326.694   3.11939e-31
      326.794   3.19300e-31
      326.895   3.26853e-31
      326.995   3.34449e-31
      327.096   3.42231e-31
      327.197   3.50137e-31
      327.297   3.58106e-31
      327.398   3.66322e-31
      327.499   3.74686e-31
      327.599   3.83096e-31
      327.700   3.91709e-31
      327.801   4.00437e-31
      327.902   4.09289e-31
      328.003   4.18268e-31
      328.104   4.27369e-31
      328.205   4.36590e-31
      328.306   4.45929e-31
      328.407   4.55384e-31
      328.508   4.64960e-31
      328.609   4.74654e-31
      328.710   4.84462e-31
      328.811   4.94391e-31
      328.912   5.04442e-31
      329.013   5.14595e-31
      329.115   5.24975e-31
      329.216   5.35367e-31
      329.317   5.45862e-31
      329.419   5.56576e-31
      329.520   5.67299e-31
      329.621   5.78125e-31
      329.723   5.89180e-31
      329.824   6.00208e-31
      329.926   6.11458e-31
      330.027   6.22708e-31
      330.129   6.34169e-31
      330.230   6.45611e-31
      330.332   6.57271e-31
      330.434   6.69021e-31
      330.535   6.80759e-31
      330.637   6.92699e-31
      330.739   7.04712e-31
      330.840   7.16707e-31
      330.942   7.28912e-31
      331.044   7.41200e-31
      331.146   7.53562e-31
      331.248   7.66006e-31
      331.350   7.78526e-31
      331.452   7.91156e-31
      331.554   8.04601e-31
      331.656   8.19362e-31
      331.758   8.34253e-31
      331.860   8.49282e-31
      331.962   8.64436e-31
      332.064   8.79714e-31
      332.166   8.95120e-31
      332.268   9.10647e-31
      332.371   9.26444e-31
      332.473   9.42200e-31
      332.575   9.56619e-31
      332.677   9.66346e-31
      332.780   9.72323e-31
      332.882   9.78187e-31
      332.985   9.84030e-31
      333.087   9.89752e-31
      333.190   9.95457e-31
      333.292   1.00051e-30
      333.395   1.00414e-30
      333.497   1.00710e-30
      333.600   1.00999e-30
      333.702   1.01276e-30
      333.805   1.01544e-30
      333.908   1.01804e-30
      334.011   1.02054e-30
      334.113   1.02290e-30
      334.216   1.02519e-30
      334.319   1.02738e-30
      334.422   1.02946e-30
      334.525   1.03144e-30
      334.628   1.03332e-30
      334.731   1.03510e-30
      334.834   1.03677e-30
      334.937   1.03835e-30
      335.040   1.03982e-30
      335.143   1.04117e-30
      335.246   1.04243e-30
      335.349   1.04358e-30
      335.452   1.04462e-30
      335.555   1.04556e-30
      335.659   1.04640e-30
      335.762   1.04714e-30
      335.865   1.04777e-30
      335.969   1.04830e-30
      336.072   1.04871e-30
      336.175   1.04902e-30
      336.279   1.04923e-30
      336.382   1.04933e-30
      336.486   1.04933e-30
      336.589   1.04921e-30
      336.693   1.04901e-30
      336.796   1.04869e-30
      336.900   1.04828e-30
      337.004   1.04776e-30
      337.107   1.04713e-30
      337.211   1.04641e-30
      337.315   1.04559e-30
      337.419   1.04465e-30
      337.523   1.04360e-30
      337.626   1.04248e-30
      337.730   1.04126e-30
      337.834   1.03992e-30
      337.938   1.03845e-30
      338.042   1.03676e-30
      338.146   1.03509e-30
      338.250   1.03333e-30
      338.354   1.03149e-30
      338.458   1.02955e-30
      338.562   1.02753e-30
      338.667   1.02539e-30
      338.771   1.02318e-30
      338.875   1.02087e-30
      338.979   1.01848e-30
      339.084   1.01599e-30
      339.188   1.01342e-30
      339.292   1.01079e-30
      339.397   1.00803e-30
      339.501   1.00523e-30
      339.606   1.00231e-30
      339.710   9.99328e-31
      339.815   9.96249e-31
      339.919   9.93118e-31
      340.024   9.89878e-31
      340.128   9.86594e-31
      340.233   9.83203e-31
      340.338   9.79739e-31
      340.442   9.76226e-31
      340.547   9.72616e-31
      340.652   9.68930e-31
      340.757   9.65174e-31
      340.862   9.61350e-31
      340.966   9.57500e-31
      341.071   9.53527e-31
      341.176   9.49503e-31
      341.281   9.45412e-31
      341.386   9.41269e-31
      341.491   9.37051e-31
      341.596   9.32789e-31
      341.702   9.28420e-31
      341.807   9.24021e-31
      341.912   9.19578e-31
      342.017   9.15082e-31
      342.122   9.10526e-31
      342.228   9.05875e-31
      342.333   9.01217e-31
      342.438   8.96516e-31
      342.544   8.91714e-31
      342.649   8.86904e-31
      342.754   8.82068e-31
      342.860   8.77118e-31
      342.965   8.72181e-31
      343.071   8.67156e-31
      343.176   8.62142e-31
      343.282   8.57037e-31
      343.388   8.51896e-31
      343.493   8.46901e-31
      343.599   8.42948e-31
      343.705   8.39081e-31
      343.810   8.35178e-31
      343.916   8.31201e-31
      344.022   8.27186e-31
      344.128   8.23117e-31
      344.234   8.19004e-31
      344.340   8.14850e-31
      344.446   8.10648e-31
      344.552   8.06409e-31
      344.658   8.02149e-31
      344.764   7.97831e-31
      344.870   7.93485e-31
      344.976   7.89096e-31
      345.082   7.84674e-31
      345.188   7.80228e-31
      345.294   7.75735e-31
      345.401   7.71175e-31
      345.507   7.66625e-31
      345.613   7.62046e-31
      345.719   7.57440e-31
      345.826   7.52765e-31
      345.932   7.48102e-31
      346.039   7.43371e-31
      346.145   7.38660e-31
      346.252   7.33884e-31
      346.358   7.29127e-31
      346.465   7.24303e-31
      346.571   7.19511e-31
      346.678   7.14643e-31
      346.785   7.09762e-31
      346.891   7.04909e-31
      346.998   6.99992e-31
      347.105   6.95066e-31
      347.212   6.90124e-31
      347.319   6.85167e-31
      347.425   6.80235e-31
      347.532   6.75257e-31
      347.639   6.70266e-31
      347.746   6.65262e-31
      347.853   6.60255e-31
      347.960   6.55234e-31
      348.067   6.50217e-31
      348.174   6.45189e-31
      348.281   6.40148e-31
      348.389   6.35064e-31
      348.496   6.30006e-31
      348.603   6.24978e-31
      348.710   6.19923e-31
      348.818   6.14833e-31
      348.925   6.09718e-31
      349.032   6.01653e-31
      349.140   5.86474e-31
      349.247   5.71787e-31
      349.355   5.57341e-31
      349.462   5.43372e-31
      349.570   5.29610e-31
      349.677   5.16324e-31
      349.785   5.03235e-31
      349.892   4.90597e-31
      350.000   4.78156e-31
      350.100   4.66913e-31
      350.193   4.56690e-31
      350.287   4.46571e-31
      350.380   4.36786e-31
      350.473   4.27210e-31
      350.567   4.17729e-31
      350.660   4.08559e-31
      350.754   3.99494e-31
      350.847   3.90721e-31
      350.941   3.82041e-31
      351.034   3.73641e-31
      351.128   3.65334e-31
      351.221   3.57298e-31
      351.315   3.49345e-31
      351.409   3.41564e-31
      351.502   3.34039e-31
      351.596   3.26596e-31
      351.690   3.19311e-31
      351.783   3.12270e-31
      351.877   3.05305e-31
      351.971   2.98488e-31
      352.065   2.91822e-31
      352.159   2.85303e-31
      352.252   2.78994e-31
      352.346   2.72751e-31
      352.440   2.66651e-31
      352.534   2.60687e-31
      352.628   2.54848e-31
      352.722   2.49137e-31
      352.816   2.43555e-31
      352.910   2.38096e-31
      353.004   2.32757e-31
      353.098   2.27532e-31
      353.192   2.22423e-31
      353.287   2.17374e-31
      353.381   2.12487e-31
      353.475   2.07714e-31
      353.569   2.03039e-31
      353.663   1.98471e-31
      353.758   1.93958e-31
      353.852   1.89591e-31
      353.946   1.85318e-31
      354.041   1.81096e-31
      354.135   1.77013e-31
      354.229   1.73017e-31
      354.324   1.69071e-31
      354.418   1.65252e-31
      354.513   1.61477e-31
      354.607   1.57830e-31
      354.702   1.53965e-31
      354.796   1.50004e-31
      354.891   1.46080e-31
      354.985   1.42300e-31
      355.080   1.38577e-31
      355.175   1.34949e-31
      355.269   1.31453e-31
      355.364   1.28008e-31
      355.459   1.24655e-31
      355.553   1.21421e-31
      355.648   1.18239e-31
      355.743   1.15139e-31
      355.838   1.12115e-31
      355.933   1.09174e-31
      356.027   1.06338e-31
      356.122   1.03544e-31
      356.217   1.00823e-31
      356.312   9.81744e-32
      356.407   9.55922e-32
      356.502   9.30780e-32
      356.597   9.06281e-32
      356.692   8.82431e-32
      356.787   8.59197e-32
      356.882   8.36549e-32
      356.977   8.14517e-32
      357.073   7.92825e-32
      357.168   7.71901e-32
      357.263   7.51539e-32
      357.358   7.31702e-32
      357.453   7.12387e-32
      357.549   6.93376e-32
      357.644   6.75055e-32
      357.739   6.57221e-32
      357.835   6.39652e-32
      357.930   6.22728e-32
      358.025   6.06247e-32
      358.121   5.90030e-32
      358.216   5.74399e-32
      358.312   5.59018e-32
      358.407   5.44202e-32
      358.503   5.29620e-32
      358.598   5.15576e-32
      358.694   5.01748e-32
      358.790   4.88283e-32
      358.885   4.75309e-32
      358.981   4.62545e-32
      359.076   4.50252e-32
      359.172   4.38157e-32
      359.268   4.26366e-32
      359.364   4.14895e-32
      359.459   4.03853e-32
      359.555   3.92980e-32
      359.651   3.82392e-32
      359.747   3.72087e-32
      359.843   3.62055e-32
      359.939   3.52288e-32
      360.035   3.42784e-32
      360.131   3.33534e-32
      360.227   3.24518e-32
      360.323   3.15751e-32
      360.419   3.08987e-32
      360.515   3.03912e-32
      360.611   2.99201e-32
      360.707   2.94549e-32
      360.803   2.89966e-32
      360.899   2.85437e-32
      360.995   2.80974e-32
      361.092   2.76520e-32
      361.188   2.72171e-32
      361.284   2.67880e-32
      361.380   2.63648e-32
      361.477   2.59428e-32
      361.573   2.55307e-32
      361.669   2.51243e-32
      361.766   2.47190e-32
      361.862   2.43236e-32
      361.959   2.39296e-32
      362.055   2.35444e-32
      362.152   2.31613e-32
      362.248   2.27871e-32
      362.345   2.24139e-32
      362.441   2.20504e-32
      362.538   2.16879e-32
      362.635   2.13305e-32
      362.731   2.09816e-32
      362.828   2.06338e-32
      362.925   2.02913e-32
      363.021   1.99572e-32
      363.118   1.96244e-32
      363.215   1.92961e-32
      363.312   1.89725e-32
      363.409   1.86539e-32
      363.505   1.83429e-32
      363.602   1.80332e-32
      363.699   1.77282e-32
      363.796   1.74275e-32
      363.893   1.71311e-32
      363.990   1.68391e-32
      364.087   1.65515e-32
      364.184   1.62681e-32
      364.281   1.59888e-32
      364.378   1.57139e-32
      364.475   1.54429e-32
      364.573   1.51732e-32
      364.670   1.49103e-32
      364.767   1.46513e-32
      364.864   1.43963e-32
      364.961   1.41451e-32
      365.059   1.38952e-32
      365.156   1.36518e-32
      365.253   1.34120e-32
      365.351   1.31734e-32
      365.448   1.29408e-32
      365.545   1.27120e-32
      365.643   1.24843e-32
      365.740   1.22624e-32
      365.838   1.20417e-32
      365.935   1.18268e-32
      366.033   1.16132e-32
      366.130   1.14049e-32
      366.228   1.12184e-32
      366.326   1.10629e-32
      366.423   1.09194e-32
      366.521   1.07758e-32
      366.618   1.06347e-32
      366.716   1.04934e-32
      366.814   1.03534e-32
      366.912   1.02147e-32
      367.010   1.00772e-32
      367.107   9.94229e-33
      367.205   9.80718e-33
      367.303   9.67336e-33
      367.401   9.54081e-33
      367.499   9.40946e-33
      367.597   9.27939e-33
      367.695   9.15053e-33
      367.793   9.02295e-33
      367.891   8.89666e-33
      367.989   8.77153e-33
      368.087   8.64768e-33
      368.185   8.52501e-33
      368.283   8.40359e-33
      368.381   8.28337e-33
      368.480   8.16319e-33
      368.578   8.04545e-33
      368.676   7.92901e-33
      368.774   7.81378e-33
      368.873   7.69860e-33
      368.971   7.58578e-33
      369.069   7.47416e-33
      369.168   7.36256e-33
      369.266   7.25331e-33
      369.364   7.14531e-33
      369.463   7.03745e-33
      369.561   6.93186e-33
      369.660   6.82634e-33
      369.758   6.72307e-33
      369.857   6.62002e-33
      369.955   6.51917e-33
      370.054   6.41838e-33
      370.153   6.31879e-33
      370.251   6.22142e-33
      370.350   6.12423e-33
      370.449   6.02822e-33
      370.547   5.93426e-33
      370.646   5.84043e-33
      370.745   5.74786e-33
      370.844   5.65639e-33
      370.943   5.56604e-33
      371.041   5.47772e-33
      371.140   5.38955e-33
      371.239   5.30251e-33
      371.338   5.21665e-33
      371.437   5.13184e-33
      371.536   5.04811e-33
      371.635   4.96542e-33
      371.734   4.88387e-33
      371.833   4.80337e-33
      371.932   4.72392e-33
      372.032   4.64474e-33
      372.131   4.59869e-33
      372.230   4.61832e-33
      372.329   4.67061e-33
      372.428   4.72219e-33
      372.528   4.77356e-33
      372.627   4.82372e-33
      372.726   4.87310e-33
      372.826   4.92223e-33
      372.925   4.97009e-33
      373.024   5.01705e-33
      373.124   5.06364e-33
      373.223   5.10882e-33
      373.323   5.15363e-33
      373.422   5.19707e-33
      373.522   5.23991e-33
      373.621   5.28135e-33
      373.721   5.32226e-33
      373.820   5.36168e-33
      373.920   5.40044e-33
      374.020   5.43819e-33
      374.119   5.47440e-33
      374.219   5.50996e-33
      374.319   5.54440e-33
      374.419   5.57763e-33
      374.518   5.60940e-33
      374.618   5.64035e-33
      374.718   5.67011e-33
      374.818   5.69861e-33
      374.918   5.72590e-33
      375.018   5.75205e-33
      375.118   5.77692e-33
      375.218   5.80054e-33
      375.318   5.82297e-33
      375.418   5.84411e-33
      375.518   5.86399e-33
      375.618   5.88259e-33
      375.718   5.89986e-33
      375.818   5.91589e-33
      375.918   5.93064e-33
      376.019   5.94429e-33
      376.119   5.95651e-33
      376.219   5.96736e-33
      376.319   5.97699e-33
      376.420   5.98539e-33
      376.520   5.99240e-33
      376.620   5.99816e-33
      376.721   6.00267e-33
      376.821   6.00584e-33
      376.922   6.00893e-33
      377.022   6.02544e-33
      377.122   6.05702e-33
      377.223   6.08746e-33
      377.323   6.11612e-33
      377.424   6.14360e-33
      377.525   6.16948e-33
      377.625   6.19353e-33
      377.726   6.21632e-33
      377.827   6.23761e-33
      377.927   6.25714e-33
      378.028   6.27528e-33
      378.129   6.29186e-33
      378.230   6.30682e-33
      378.330   6.31999e-33
      378.431   6.33172e-33
      378.532   6.34191e-33
      378.633   6.35051e-33
      378.734   6.35758e-33
      378.835   6.36303e-33
      378.936   6.36699e-33
      379.037   6.36938e-33
      379.138   6.37013e-33
      379.239   6.36945e-33
      379.340   6.36731e-33
      379.441   6.36365e-33
      379.542   6.35841e-33
      379.643   6.35176e-33
      379.745   6.34356e-33
      379.846   6.33397e-33
      379.947   6.32285e-33
      380.048   6.31042e-33
      380.150   6.29644e-33
      380.251   6.28119e-33
      380.352   6.26458e-33
      380.454   6.24645e-33
      380.555   6.22715e-33
      380.656   6.20652e-33
      380.758   6.18443e-33
      380.859   6.16127e-33
      380.961   6.13666e-33
      381.062   6.11105e-33
      381.164   6.08402e-33
      381.266   6.05579e-33
      381.367   6.02670e-33
      381.469   5.99623e-33
      381.570   5.96494e-33
      381.672   5.93224e-33
      381.774   5.89856e-33
      381.876   5.86377e-33
      381.977   5.82991e-33
      382.079   5.79960e-33
      382.181   5.77234e-33
      382.283   5.74398e-33
      382.385   5.71443e-33
      382.487   5.68380e-33
      382.589   5.65207e-33
      382.691   5.61927e-33
      382.793   5.58548e-33
      382.895   5.55072e-33
      382.997   5.51496e-33
      383.099   5.47828e-33
      383.201   5.44069e-33
      383.303   5.40229e-33
      383.405   5.36296e-33
      383.507   5.32277e-33
      383.610   5.28150e-33
      383.712   5.23985e-33
      383.814   5.19750e-33
      383.916   5.15446e-33
      384.019   5.11029e-33
      384.121   5.06594e-33
      384.223   5.02095e-33
      384.326   4.97501e-33
      384.428   4.92875e-33
      384.531   4.88147e-33
      384.633   4.83423e-33
      384.736   4.78603e-33
      384.838   4.73786e-33
      384.941   4.68886e-33
      385.043   4.63995e-33
      385.146   4.59028e-33
      385.249   4.54029e-33
      385.351   4.49050e-33
      385.454   4.43998e-33
      385.557   4.38924e-33
      385.660   4.33831e-33
      385.762   4.28772e-33
      385.865   4.23647e-33
      385.968   4.18509e-33
      386.071   4.13361e-33
      386.174   4.08210e-33
      386.277   4.03054e-33
      386.380   3.97894e-33
      386.483   3.92734e-33
      386.586   3.87582e-33
      386.689   3.82430e-33
      386.792   3.77284e-33
      386.895   3.72147e-33
      386.998   3.67022e-33
      387.101   3.60298e-33
      387.204   3.48131e-33
      387.308   3.34443e-33
      387.411   3.21413e-33
      387.514   3.08890e-33
      387.617   2.96855e-33
      387.721   2.85180e-33
      387.824   2.74064e-33
      387.927   2.63372e-33
      388.031   2.53005e-33
      388.134   2.43138e-33
      388.238   2.33569e-33
      388.341   2.24454e-33
      388.445   2.15612e-33
      388.548   2.07194e-33
      388.652   1.99030e-33
      388.755   1.91260e-33
      388.859   1.83720e-33
      388.962   1.76545e-33
      389.066   1.69579e-33
      389.170   1.62894e-33
      389.274   1.56466e-33
      389.377   1.50348e-33
      389.481   1.44410e-33
      389.585   1.38710e-33
      389.689   1.33231e-33
      389.793   1.27966e-33
      389.897   1.22912e-33
      390.000   1.18098e-33
      390.104   1.13431e-33
      390.208   1.08944e-33
      390.312   1.04635e-33
      390.416   1.00496e-33
      390.520   9.65173e-34
      390.625   9.26579e-34
      390.729   8.89901e-34
      390.833   8.54640e-34
      390.937   8.20773e-34
      391.041   7.88252e-34
      391.145   7.57011e-34
      391.250   7.26702e-34
      391.354   6.97880e-34
      391.458   6.70186e-34
      391.563   6.43328e-34
      391.667   6.17789e-34
      391.771   5.93260e-34
      391.876   5.69470e-34
      391.980   5.46840e-34
      392.085   5.24907e-34
      392.189   5.04046e-34
      392.294   4.83816e-34
      392.398   4.64581e-34
      392.503   4.45932e-34
      392.607   4.28194e-34
      392.712   4.11003e-34
      392.817   3.94485e-34
      392.921   3.78790e-34
      393.026   3.63567e-34
      393.131   3.48959e-34
      393.236   3.34922e-34
      393.340   3.21583e-34
      393.445   3.08654e-34
      393.550   2.96240e-34
      393.655   2.84320e-34
      393.760   2.72881e-34
      393.865   2.61897e-34
      393.970   2.51361e-34
      394.075   2.41237e-34
      394.180   2.31526e-34
      394.285   2.22201e-34
      394.390   2.13253e-34
      394.495   2.04658e-34
      394.600   1.96411e-34
      394.706   1.88423e-34
      394.811   1.80829e-34
      394.916   1.73534e-34
      395.021   1.66535e-34
      395.126   1.59823e-34
      395.232   1.53313e-34
      395.337   1.47126e-34
      395.443   1.41134e-34
      395.548   1.35438e-34
      395.653   1.29972e-34
      395.759   1.24673e-34
      395.864   1.19640e-34
      395.970   1.14763e-34
      396.075   1.10127e-34
      396.181   1.05635e-34
      396.286   1.01364e-34
      396.392   9.72313e-35
      396.498   9.32648e-35
      396.603   8.94911e-35
      396.709   8.58397e-35
      396.815   8.23350e-35
      396.921   7.89717e-35
      397.026   7.57765e-35
      397.132   7.26798e-35
      397.238   6.97113e-35
      397.344   6.68601e-35
      397.450   6.41302e-35
      397.556   6.15066e-35
      397.662   5.89907e-35
      397.768   5.65783e-35
      397.874   5.42627e-35
      397.980   5.20419e-35
      398.086   4.99106e-35
      398.192   4.78677e-35
      398.298   4.59068e-35
      398.404   4.40261e-35
      398.510   4.22219e-35
      398.617   4.04766e-35
      398.723   3.88174e-35
      398.829   3.72250e-35
      398.935   3.56980e-35
      399.042   3.42207e-35
      399.148   3.28158e-35
      399.255   3.14573e-35
      399.361   3.01660e-35
      399.467   2.89263e-35
      399.574   2.77279e-35
      399.680   2.65884e-35
      399.787   2.54855e-35
      399.893       0.00000
      400.000       0.00000
