Filter: C-poly/Ti-poly
observation_date 22-Sept-2006 22:40:45
wavelength effective area 
      1.00000   2.76722e-10
      1.10000   7.88435e-10
      1.20000   2.04500e-09
      1.30000   4.87724e-09
      1.40000   1.10340e-08
      1.50000   2.34615e-08
      1.60000   4.73200e-08
      1.70000   9.14912e-08
      1.80000   1.69576e-07
      1.90000   3.03316e-07
      2.00000   5.24590e-07
      2.10000   8.81169e-07
      2.20000   1.44442e-06
      2.30000   2.30751e-06
      2.40000   3.59908e-06
      2.50000   5.76634e-06
      2.60000   8.92342e-06
      2.70000   1.32975e-05
      2.80000   1.94361e-05
      2.90000   2.81156e-05
      3.00000   4.00353e-05
      3.10000   5.62741e-05
      3.20000   7.82334e-05
      3.30000   0.000107652
      3.40000   0.000146585
      3.50000   0.000197661
      3.60000   0.000265297
      3.70000   0.000352285
      3.80000   0.000465840
      3.90000   0.000612557
      4.00000   0.000800443
      4.10000    0.00104108
      4.20000    0.00134915
      4.30000    0.00174336
      4.40000    0.00224665
      4.50000    0.00288716
      4.60000    0.00369771
      4.70000    0.00473540
      4.80000    0.00605778
      4.90000    0.00764960
      5.00000    0.00991333
      5.10000     0.0126656
      5.20000     0.0162286
      5.30000     0.0206177
      5.40000     0.0261498
      5.50000     0.0332226
      5.60000     0.0409120
      5.70000     0.0530750
      5.80000     0.0620917
      5.90000     0.0946009
      6.00000      0.126887
      6.10000      0.161803
      6.20000      0.198230
      6.30000      0.232771
      6.40000      0.262165
      6.50000      0.283503
      6.60000      0.292686
      6.70000      0.300978
      6.80000      0.300545
      6.90000      0.393165
      7.00000      0.426299
      7.10000      0.449479
      7.20000      0.467461
      7.30000      0.481729
      7.40000      0.492135
      7.50000      0.499988
      7.60000      0.505406
      7.70000      0.507078
      7.80000      0.504067
      7.90000      0.501617
      8.00000      0.722439
      8.10000      0.787570
      8.20000      0.796907
      8.30000      0.802460
      8.40000      0.804814
      8.50000      0.805794
      8.60000      0.805159
      8.70000      0.803459
      8.80000      0.800440
      8.90000      0.796523
      9.00000      0.791664
      9.10000      0.785919
      9.20000      0.779455
      9.30000      0.772218
      9.40000      0.764341
      9.50000      0.755882
      9.60000      0.746816
      9.70000      0.737237
      9.80000      0.727296
      9.90000      0.717029
      10.0000      0.706494
      10.1000      0.695699
      10.2000      0.684669
      10.3000      0.673364
      10.4000      0.661812
      10.5000      0.650033
      10.6000      0.638068
      10.7000      0.625939
      10.8000      0.613667
      10.9000      0.601285
      11.0000      0.588803
      11.1000      0.576252
      11.2000      0.563640
      11.3000      0.551000
      11.4000      0.538335
      11.5000      0.525650
      11.6000      0.512964
      11.7000      0.500248
      11.8000      0.487564
      11.9000      0.474878
      12.0000      0.461706
      12.1000      0.450321
      12.2000      0.446891
      12.3000      0.438743
      12.4000      0.427421
      12.5000      0.415940
      12.6000      0.404477
      12.7000      0.393105
      12.8000      0.381849
      12.9000      0.370722
      13.0000      0.359753
      13.1000      0.348963
      13.2000      0.338361
      13.3000      0.327959
      13.4000      0.317765
      13.5000      0.307871
      13.6000      0.298267
      13.7000      0.288857
      13.8000      0.279639
      13.9000      0.270623
      14.0000      0.261806
      14.1000      0.253177
      14.2000      0.244736
      14.3000      0.236479
      14.4000      0.228400
      14.5000      0.220512
      14.6000      0.212821
      14.7000      0.205306
      14.8000      0.197968
      14.9000      0.190806
      15.0000      0.183819
      15.1000      0.177008
      15.2000      0.170407
      15.3000      0.163985
      15.4000      0.157734
      15.5000      0.151653
      15.6000      0.145746
      15.7000      0.140024
      15.8000      0.134508
      15.9000      0.129161
      16.0000      0.123980
      16.1000      0.118963
      16.2000      0.114148
      16.3000      0.109493
      16.4000      0.104979
      16.5000      0.100601
      16.6000     0.0963782
      16.7000     0.0923125
      16.8000     0.0883697
      16.9000     0.0845468
      17.0000     0.0808681
      17.1000     0.0773310
      17.2000     0.0739021
      17.3000     0.0705841
      17.4000     0.0674679
      17.5000     0.0645135
      17.6000     0.0616968
      17.7000     0.0590332
      17.8000     0.0565804
      17.9000     0.0542068
      18.0000     0.0518950
      18.1000     0.0496834
      18.2000     0.0475212
      18.3000     0.0454018
      18.4000     0.0433370
      18.5000     0.0413238
      18.6000     0.0393477
      18.7000     0.0374169
      18.8000     0.0355697
      18.9000     0.0337811
      19.0000     0.0320789
      19.1000     0.0304573
      19.2000     0.0288913
      19.3000     0.0274159
      19.4000     0.0260095
      19.5000     0.0246524
      19.6000     0.0233898
      19.7000     0.0221767
      19.8000     0.0210078
      19.9000     0.0199221
      20.0000     0.0188700
      20.1000     0.0178666
      20.2000     0.0169175
      20.3000     0.0159969
      20.4000     0.0151334
      20.5000     0.0143035
      20.6000     0.0135039
      20.7000     0.0127575
      20.8000     0.0120322
      20.9000     0.0113488
      21.0000     0.0107181
      21.1000     0.0101276
      21.2000    0.00963890
      21.3000    0.00917940
      21.4000    0.00878379
      21.5000    0.00844795
      21.6000    0.00817253
      21.7000    0.00789949
      21.8000    0.00762750
      21.9000    0.00735027
      22.0000    0.00706764
      22.1000    0.00677088
      22.2000    0.00644301
      22.3000    0.00608831
      22.4000    0.00562975
      22.5000    0.00513949
      22.6000    0.00425806
      22.7000    0.00376566
      22.8000    0.00527671
      22.9000    0.00690403
      23.0000    0.00849088
      23.1000    0.00937460
      23.2000    0.00959839
      23.3000    0.00939814
      23.4000    0.00898770
      23.5000    0.00858826
      23.6000    0.00819247
      23.7000    0.00780168
      23.8000    0.00741337
      23.9000    0.00705095
      24.0000    0.00669255
      24.1000    0.00635448
      24.2000    0.00602283
      24.3000    0.00571278
      24.4000    0.00541006
      24.5000    0.00512558
      24.6000    0.00484949
      24.7000    0.00459064
      24.8000    0.00434016
      24.9000    0.00410482
      25.0000    0.00387777
      25.1000    0.00366488
      25.2000    0.00345956
      25.3000    0.00326720
      25.4000    0.00308173
      25.5000    0.00290892
      25.6000    0.00274207
      25.7000    0.00258785
      25.8000    0.00243802
      25.9000    0.00229985
      26.0000    0.00216476
      26.1000    0.00204117
      26.2000    0.00191938
      26.3000    0.00180918
      26.4000    0.00169947
      26.5000    0.00160132
      26.6000    0.00150351
      26.7000    0.00141532
      26.8000    0.00132860
      26.9000    0.00124919
      27.0000    0.00117225
      27.1000    0.00110052
      27.2000    0.00103219
      27.3000    0.00420339
      27.4000     0.0114198
      27.5000     0.0165851
      27.6000     0.0159403
      27.7000     0.0152996
      27.8000     0.0146924
      27.9000     0.0140871
      28.0000     0.0135198
      28.1000     0.0129614
      28.2000     0.0124291
      28.3000     0.0119150
      28.4000     0.0114158
      28.5000     0.0109435
      28.6000     0.0104754
      28.7000     0.0100438
      28.8000    0.00961356
      28.9000    0.00921068
      29.0000    0.00881652
      29.1000    0.00843817
      29.2000    0.00807757
      29.3000    0.00772222
      29.4000    0.00739310
      29.5000    0.00706508
      29.6000    0.00675959
      29.7000    0.00646076
      29.8000    0.00617365
      29.9000    0.00590199
      30.0000    0.00563215
      30.1000    0.00538560
      30.2000    0.00513987
      30.3000    0.00525055
      30.4000    0.00556466
      30.5000    0.00575871
      30.6000    0.00550962
      30.7000    0.00526136
      30.8000    0.00503069
      30.9000    0.00480584
      31.0000    0.00458795
      31.1000    0.00438486
      31.2000    0.00418244
      31.3000    0.00399598
      31.4000    0.00381342
      31.5000    0.00363706
      31.6000    0.00347310
      31.7000    0.00330968
      31.8000    0.00315914
      31.9000    0.00301220
      32.0000    0.00286902
      32.1000    0.00273582
      32.2000    0.00260305
      32.3000    0.00248008
      32.4000    0.00236164
      32.5000    0.00224523
      32.6000    0.00214242
      32.7000    0.00203994
      32.8000    0.00194316
      32.9000    0.00185192
      33.0000    0.00176099
      33.1000    0.00168213
      33.2000    0.00160512
      33.3000    0.00153018
      33.4000    0.00146142
      33.5000    0.00139290
      33.6000    0.00132864
      33.7000    0.00126763
      33.8000    0.00120680
      33.9000    0.00115179
      34.0000    0.00109772
      34.1000    0.00104495
      34.2000   0.000997057
      34.3000   0.000949299
      34.4000   0.000903954
      34.5000   0.000861678
      34.6000   0.000819523
      34.7000   0.000780604
      34.8000   0.000743249
      34.9000   0.000705997
      35.0000   0.000672699
      35.1000   0.000639892
      35.2000   0.000607621
      35.3000   0.000579118
      35.4000   0.000550692
      35.5000   0.000523300
      35.6000   0.000498346
      35.7000   0.000473460
      35.8000   0.000449958
      35.9000   0.000428165
      36.0000   0.000406432
      36.1000   0.000386282
      36.2000   0.000367297
      36.3000   0.000348364
      36.4000   0.000331091
      36.5000   0.000314589
      36.6000   0.000298133
      36.7000   0.000283330
      36.8000   0.000269028
      36.9000   0.000254766
      37.0000   0.000242078
      37.1000   0.000229715
      37.2000   0.000217386
      37.3000   0.000206509
      37.4000   0.000195851
      37.5000   0.000185222
      37.6000   0.000175892
      37.7000   0.000166728
      37.8000   0.000157589
      37.9000   0.000149579
      38.0000   0.000141723
      38.1000   0.000133888
      38.2000   0.000127003
      38.3000   0.000120285
      38.4000   0.000113585
      38.5000   0.000107660
      38.6000   0.000101933
      38.7000   9.62204e-05
      38.8000   9.11158e-05
      38.9000   8.62471e-05
      39.0000   8.13910e-05
      39.1000   7.69874e-05
      39.2000   7.28612e-05
      39.3000   6.87456e-05
      39.4000   6.49417e-05
      39.5000   6.14554e-05
      39.6000   5.79783e-05
      39.7000   5.46881e-05
      39.8000   5.17520e-05
      39.9000   4.88233e-05
      40.0000   4.59746e-05
      40.1000   4.35110e-05
      40.2000   4.10537e-05
      40.3000   3.86030e-05
      40.4000   3.65234e-05
      40.5000   3.44665e-05
      40.6000   3.24147e-05
      40.7000   3.06038e-05
      40.8000   2.88870e-05
      40.9000   2.71746e-05
      41.0000   2.55957e-05
      41.1000   2.41677e-05
      41.2000   2.27434e-05
      41.3000   2.13663e-05
      41.4000   2.01835e-05
      41.5000   1.90035e-05
      41.6000   1.78265e-05
      41.7000   1.68249e-05
      41.8000   1.58500e-05
      41.9000   1.48776e-05
      42.0000   1.39974e-05
      42.1000   1.31951e-05
      42.2000   1.23948e-05
      42.3000   1.16211e-05
      42.4000   1.09630e-05
      42.5000   1.03064e-05
      42.6000   9.65134e-06
      42.7000   9.08888e-06
      42.8000   8.55206e-06
      42.9000   8.01644e-06
      43.0000   7.51794e-06
      43.1000   7.08073e-06
      43.2000   6.64455e-06
      43.3000   6.20937e-06
      43.4000     0.0209101
      43.5000     0.0433587
      43.6000     0.0657556
      43.7000     0.0773206
      43.8000     0.0761070
      43.9000     0.0748963
      44.0000     0.0736884
      44.1000     0.0725269
      44.2000     0.0713700
      44.3000     0.0702158
      44.4000     0.0690830
      44.5000     0.0679775
      44.6000     0.0668746
      44.7000     0.0657742
      44.8000     0.0647162
      44.9000     0.0636664
      45.0000     0.0626189
      45.1000     0.0615860
      45.2000     0.0605848
      45.3000     0.0595859
      45.4000     0.0585892
      45.5000     0.0576227
      45.6000     0.0566713
      45.7000     0.0557222
      45.8000     0.0547766
      45.9000     0.0538711
      46.0000     0.0529676
      46.1000     0.0520662
      46.2000     0.0512035
      46.3000     0.0504061
      46.4000     0.0496105
      46.5000     0.0488167
      46.6000     0.0480544
      46.7000     0.0473086
      46.8000     0.0465645
      46.9000     0.0458220
      47.0000     0.0451221
      47.1000     0.0444266
      47.2000     0.0437325
      47.3000     0.0430455
      47.4000     0.0423857
      47.5000     0.0417273
      47.6000     0.0410704
      47.7000     0.0404278
      47.8000     0.0398070
      47.9000     0.0391876
      48.0000     0.0385696
      48.1000     0.0379684
      48.2000     0.0373806
      48.3000     0.0367940
      48.4000     0.0362087
      48.5000     0.0356474
      48.6000     0.0350963
      48.7000     0.0345464
      48.8000     0.0339976
      48.9000     0.0334713
      49.0000     0.0329504
      49.1000     0.0324306
      49.2000     0.0319119
      49.3000     0.0314156
      49.4000     0.0309222
      49.5000     0.0304299
      49.6000     0.0299386
      49.7000     0.0294699
      49.8000     0.0290028
      49.9000     0.0285366
      50.0000     0.0280719
      50.1000     0.0276258
      50.2000     0.0272016
      50.3000     0.0267831
      50.4000     0.0263705
      50.5000     0.0259631
      50.6000     0.0255614
      50.7000     0.0251655
      50.8000     0.0247750
      50.9000     0.0243907
      51.0000     0.0240139
      51.1000     0.0236434
      51.2000     0.0232777
      51.3000     0.0229174
      51.4000     0.0225630
      51.5000     0.0222124
      51.6000     0.0218665
      51.7000     0.0215251
      51.8000     0.0211846
      51.9000     0.0208487
      52.0000     0.0205170
      52.1000     0.0201901
      52.2000     0.0198676
      52.3000     0.0195493
      52.4000     0.0192363
      52.5000     0.0189277
      52.6000     0.0186173
      52.7000     0.0183054
      52.8000     0.0179977
      52.9000     0.0176949
      53.0000     0.0173970
      53.1000     0.0171031
      53.2000     0.0168139
      53.3000     0.0165290
      53.4000     0.0162480
      53.5000     0.0159716
      53.6000     0.0156992
      53.7000     0.0154305
      53.8000     0.0151662
      53.9000     0.0149058
      54.0000     0.0146494
      54.1000     0.0143977
      54.2000     0.0141494
      54.3000     0.0139046
      54.4000     0.0136636
      54.5000     0.0134261
      54.6000     0.0131924
      54.7000     0.0129629
      54.8000     0.0127370
      54.9000     0.0125143
      55.0000     0.0122951
      55.1000     0.0120790
      55.2000     0.0118606
      55.3000     0.0116414
      55.4000     0.0114256
      55.5000     0.0112132
      55.6000     0.0110042
      55.7000     0.0107988
      55.8000     0.0105966
      55.9000     0.0103978
      56.0000     0.0102041
      56.1000     0.0100110
      56.2000    0.00981886
      56.3000    0.00963009
      56.4000    0.00944446
      56.5000    0.00926188
      56.6000    0.00908258
      56.7000    0.00890655
      56.8000    0.00873328
      56.9000    0.00856335
      57.0000    0.00839949
      57.1000    0.00824045
      57.2000    0.00808397
      57.3000    0.00793016
      57.4000    0.00777882
      57.5000    0.00763011
      57.6000    0.00748385
      57.7000    0.00733998
      57.8000    0.00719892
      57.9000    0.00706056
      58.0000    0.00692445
      58.1000    0.00679030
      58.2000    0.00665870
      58.3000    0.00652938
      58.4000    0.00640220
      58.5000    0.00627723
      58.6000    0.00615475
      58.7000    0.00603433
      58.8000    0.00591595
      58.9000    0.00579957
      59.0000    0.00568526
      59.1000    0.00557294
      59.2000    0.00546269
      59.3000    0.00535445
      59.4000    0.00524815
      59.5000    0.00514371
      59.6000    0.00504123
      59.7000    0.00494047
      59.8000    0.00484149
      59.9000    0.00474422
      60.0000    0.00464895
      60.1000    0.00455531
      60.2000    0.00446337
      60.3000    0.00437312
      60.4000    0.00428454
      60.5000    0.00419770
      60.6000    0.00411231
      60.7000    0.00402839
      60.8000    0.00394594
      60.9000    0.00386498
      61.0000    0.00378554
      61.1000    0.00370772
      61.2000    0.00363129
      61.3000    0.00355634
      61.4000    0.00348273
      61.5000    0.00341054
      61.6000    0.00333964
      61.7000    0.00327027
      61.8000    0.00320313
      61.9000    0.00313762
      62.0000    0.00307331
      62.1000    0.00301017
      62.2000    0.00294833
      62.3000    0.00288761
      62.4000    0.00282802
      62.5000    0.00276949
      62.6000    0.00271206
      62.7000    0.00265583
      62.8000    0.00260280
      62.9000    0.00255076
      63.0000    0.00249970
      63.1000    0.00244959
      63.2000    0.00240033
      63.3000    0.00235194
      63.4000    0.00230440
      63.5000    0.00225790
      63.6000    0.00221217
      63.7000    0.00216727
      63.8000    0.00212324
      63.9000    0.00208004
      64.0000    0.00203765
      64.1000    0.00199601
      64.2000    0.00195526
      64.3000    0.00191528
      64.4000    0.00187601
      64.5000    0.00183742
      64.6000    0.00179954
      64.7000    0.00176238
      64.8000    0.00172589
      64.9000    0.00169010
      65.0000    0.00165498
      65.1000    0.00162063
      65.2000    0.00158696
      65.3000    0.00155387
      65.4000    0.00152142
      65.5000    0.00148956
      65.6000    0.00145828
      65.7000    0.00142760
      65.8000    0.00139752
      65.9000    0.00136811
      66.0000    0.00133927
      66.1000    0.00131103
      66.2000    0.00128333
      66.3000    0.00125614
      66.4000    0.00122948
      66.5000    0.00120331
      66.6000    0.00117765
      66.7000    0.00115250
      66.8000    0.00112786
      66.9000    0.00110418
      67.0000    0.00108134
      67.1000    0.00105902
      67.2000    0.00103714
      67.3000    0.00101567
      67.4000   0.000994624
      67.5000   0.000973955
      67.6000   0.000953678
      67.7000   0.000933810
      67.8000   0.000914286
      67.9000   0.000895096
      68.0000   0.000876336
      68.1000   0.000858001
      68.2000   0.000840024
      68.3000   0.000822383
      68.4000   0.000805099
      68.5000   0.000788171
      68.6000   0.000771560
      68.7000   0.000755289
      68.8000   0.000739331
      68.9000   0.000723863
      69.0000   0.000709725
      69.1000   0.000696785
      69.2000   0.000684249
      69.3000   0.000672070
      69.4000   0.000660335
      69.5000   0.000648504
      69.6000   0.000636475
      69.7000   0.000624904
      69.8000   0.000613862
      69.9000   0.000603013
      70.0000   0.000592316
      70.1000   0.000581637
      70.2000   0.000571433
      70.3000   0.000561706
      70.4000   0.000552075
      70.5000   0.000542690
      70.6000   0.000533548
      70.7000   0.000524571
      70.8000   0.000515718
      70.9000   0.000506766
      71.0000   0.000497739
      71.1000   0.000489088
      71.2000   0.000480824
      71.3000   0.000472243
      71.4000   0.000463251
      71.5000   0.000454883
      71.6000   0.000447374
      71.7000   0.000439874
      71.8000   0.000432246
      71.9000   0.000424867
      72.0000   0.000417954
      72.1000   0.000410988
      72.2000   0.000403299
      72.3000   0.000395762
      72.4000   0.000389001
      72.5000   0.000382358
      72.6000   0.000375823
      72.7000   0.000369413
      72.8000   0.000363104
      72.9000   0.000356894
      73.0000   0.000350902
      73.1000   0.000345058
      73.2000   0.000339307
      73.3000   0.000333655
      73.4000   0.000328131
      73.5000   0.000322762
      73.6000   0.000317489
      73.7000   0.000312304
      73.8000   0.000307196
      73.9000   0.000302166
      74.0000   0.000297235
      74.1000   0.000292668
      74.2000   0.000288261
      74.3000   0.000283632
      74.4000   0.000278850
      74.5000   0.000274205
      74.6000   0.000269765
      74.7000   0.000265393
      74.8000   0.000261107
      74.9000   0.000256921
      75.0000   0.000252776
      75.1000   0.000248680
      75.2000   0.000244649
      75.3000   0.000240678
      75.4000   0.000236792
      75.5000   0.000233029
      75.6000   0.000229324
      75.7000   0.000225671
      75.8000   0.000222087
      75.9000   0.000218597
      76.0000   0.000215183
      76.1000   0.000211980
      76.2000   0.000208848
      76.3000   0.000205761
      76.4000   0.000202758
      76.5000   0.000199803
      76.6000   0.000196885
      76.7000   0.000194004
      76.8000   0.000191165
      76.9000   0.000188370
      77.0000   0.000185613
      77.1000   0.000182896
      77.2000   0.000180221
      77.3000   0.000177580
      77.4000   0.000174973
      77.5000   0.000172404
      77.6000   0.000169833
      77.7000   0.000167293
      77.8000   0.000164788
      77.9000   0.000162318
      78.0000   0.000159855
      78.1000   0.000157360
      78.2000   0.000154907
      78.3000   0.000152640
      78.4000   0.000150457
      78.5000   0.000148290
      78.6000   0.000146109
      78.7000   0.000143958
      78.8000   0.000141777
      78.9000   0.000139615
      79.0000   0.000137483
      79.1000   0.000135379
      79.2000   0.000133310
      79.3000   0.000131319
      79.4000   0.000129372
      79.5000   0.000127437
      79.6000   0.000125484
      79.7000   0.000123558
      79.8000   0.000121635
      79.9000   0.000119728
      80.0000   0.000117847
      80.1000   0.000115940
      80.2000   0.000114057
      80.3000   0.000112148
      80.4000   0.000110218
      80.5000   0.000108316
      80.6000   0.000106443
      80.7000   0.000104602
      80.8000   0.000102798
      80.9000   0.000101040
      81.0000   9.93122e-05
      81.1000   9.76158e-05
      81.2000   9.59463e-05
      81.3000   9.43042e-05
      81.4000   9.27828e-05
      81.5000   9.12910e-05
      81.6000   8.98481e-05
      81.7000   8.84815e-05
      81.8000   8.71397e-05
      81.9000   8.58557e-05
      82.0000   8.46075e-05
      82.1000   8.33794e-05
      82.2000   8.21406e-05
      82.3000   8.09206e-05
      82.4000   7.97364e-05
      82.5000   7.85974e-05
      82.6000   7.74728e-05
      82.7000   7.63401e-05
      82.8000   7.51940e-05
      82.9000   7.40631e-05
      83.0000   7.29580e-05
      83.1000   7.18721e-05
      83.2000   7.08005e-05
      83.3000   6.97436e-05
      83.4000   6.87044e-05
      83.5000   6.76837e-05
      83.6000   6.66944e-05
      83.7000   6.57194e-05
      83.8000   6.47536e-05
      83.9000   6.37889e-05
      84.0000   6.28358e-05
      84.1000   6.19064e-05
      84.2000   6.10081e-05
      84.3000   6.01214e-05
      84.4000   5.92381e-05
      84.5000   5.83610e-05
      84.6000   5.74963e-05
      84.7000   5.66543e-05
      84.8000   5.58297e-05
      84.9000   5.50189e-05
      85.0000   5.42054e-05
      85.1000   5.33988e-05
      85.2000   5.26033e-05
      85.3000   5.18418e-05
      85.4000   5.10950e-05
      85.5000   5.03596e-05
      85.6000   4.96221e-05
      85.7000   4.88942e-05
      85.8000   4.81763e-05
      85.9000   4.74680e-05
      86.0000   4.67682e-05
      86.1000   4.60779e-05
      86.2000   4.54133e-05
      86.3000   4.47587e-05
      86.4000   4.41125e-05
      86.5000   4.34743e-05
      86.6000   4.28444e-05
      86.7000   4.22234e-05
      86.8000   4.15784e-05
      86.9000   4.09409e-05
      87.0000   4.03136e-05
      87.1000   3.97031e-05
      87.2000   3.91025e-05
      87.3000   3.85104e-05
      87.4000   3.79161e-05
      87.5000   3.73282e-05
      87.6000   3.67482e-05
      87.7000   3.61825e-05
      87.8000   3.56258e-05
      87.9000   3.50776e-05
      88.0000   3.45379e-05
      88.1000   3.40051e-05
      88.2000   3.34798e-05
      88.3000   3.29699e-05
      88.4000   3.24754e-05
      88.5000   3.19900e-05
      88.6000   3.15084e-05
      88.7000   3.10294e-05
      88.8000   3.05574e-05
      88.9000   3.00918e-05
      89.0000   2.96318e-05
      89.1000   2.91784e-05
      89.2000   2.87331e-05
      89.3000   2.82987e-05
      89.4000   2.78761e-05
      89.5000   2.74594e-05
      89.6000   2.70485e-05
      89.7000   2.66431e-05
      89.8000   2.62430e-05
      89.9000   2.58478e-05
      90.0000   2.54579e-05
      90.1000   2.50744e-05
      90.2000   2.46903e-05
      90.3000   2.42981e-05
      90.4000   2.39111e-05
      90.5000   2.35302e-05
      90.6000   2.31607e-05
      90.7000   2.27960e-05
      90.8000   2.24340e-05
      90.9000   2.20719e-05
      91.0000   2.17137e-05
      91.1000   2.13615e-05
      91.2000   2.10110e-05
      91.3000   2.06601e-05
      91.4000   2.03137e-05
      91.5000   1.99732e-05
      91.6000   1.96388e-05
      91.7000   1.93299e-05
      91.8000   1.90569e-05
      91.9000   1.88248e-05
      92.0000   1.85728e-05
      92.1000   1.83193e-05
      92.2000   1.80562e-05
      92.3000   1.77852e-05
      92.4000   1.75117e-05
      92.5000   1.72429e-05
      92.6000   1.69780e-05
      92.7000   1.67169e-05
      92.8000   1.64593e-05
      92.9000   1.62079e-05
      93.0000   1.59654e-05
      93.1000   1.57261e-05
      93.2000   1.54903e-05
      93.3000   1.52639e-05
      93.4000   1.50429e-05
      93.5000   1.48247e-05
      93.6000   1.46095e-05
      93.7000   1.43974e-05
      93.8000   1.41898e-05
      93.9000   1.39850e-05
      94.0000   1.37828e-05
      94.1000   1.35834e-05
      94.2000   1.33871e-05
      94.3000   1.31946e-05
      94.4000   1.30083e-05
      94.5000   1.28248e-05
      94.6000   1.26441e-05
      94.7000   1.24661e-05
      94.8000   1.22903e-05
      94.9000   1.21166e-05
      95.0000   1.19452e-05
      95.1000   1.17767e-05
      95.2000   1.16100e-05
      95.3000   1.14451e-05
      95.4000   1.12826e-05
      95.5000   1.11246e-05
      95.6000   1.09687e-05
      95.7000   1.08147e-05
      95.8000   1.06612e-05
      95.9000   1.05094e-05
      96.0000   1.03593e-05
      96.1000   1.02110e-05
      96.2000   1.00644e-05
      96.3000   9.92020e-06
      96.4000   9.77780e-06
      96.5000   9.63728e-06
      96.6000   9.49906e-06
      96.7000   9.36344e-06
      96.8000   9.22920e-06
      96.9000   9.09642e-06
      97.0000   8.96525e-06
      97.1000   8.83662e-06
      97.2000   8.70957e-06
      97.3000   8.58286e-06
      97.4000   8.45671e-06
      97.5000   8.33285e-06
      97.6000   8.21067e-06
      97.7000   8.09067e-06
      97.8000   7.97269e-06
      97.9000   7.85652e-06
      98.0000   7.74168e-06
      98.1000   7.62816e-06
      98.2000   7.51640e-06
      98.3000   7.41206e-06
      98.4000   7.31167e-06
      98.5000   7.21423e-06
      98.6000   7.11813e-06
      98.7000   7.02325e-06
      98.8000   6.92939e-06
      98.9000   6.83658e-06
      99.0000   6.74532e-06
      99.1000   6.65514e-06
      99.2000   6.56564e-06
      99.3000   6.47541e-06
      99.4000   6.38670e-06
      99.5000   6.29904e-06
      99.6000   6.21283e-06
      99.7000   6.13068e-06
      99.8000   6.05090e-06
      99.9000   5.98337e-06
      100.000   5.93409e-06
      100.100   5.88315e-06
      100.200   5.83249e-06
      100.300   5.78217e-06
      100.400   5.73223e-06
      100.500   5.68345e-06
      100.600   5.63494e-06
      100.700   5.58668e-06
      100.800   5.53866e-06
      100.900   5.49098e-06
      101.000   5.44372e-06
      101.100   5.39694e-06
      101.200   5.35054e-06
      101.300   5.30448e-06
      101.400   5.25875e-06
      101.500   5.21160e-06
      101.600   5.16258e-06
      101.700   5.11447e-06
      101.800   5.06685e-06
      101.900   5.01953e-06
      102.000   4.97272e-06
      102.100   4.92709e-06
      102.200   4.88224e-06
      102.300   4.83775e-06
      102.400   4.79358e-06
      102.500   4.74971e-06
      102.600   4.70609e-06
      102.700   4.66276e-06
      102.800   4.61974e-06
      102.900   4.57704e-06
      103.000   4.53465e-06
      103.100   4.49257e-06
      103.200   4.45082e-06
      103.300   4.40944e-06
      103.400   4.36843e-06
      103.500   4.32779e-06
      103.600   4.28744e-06
      103.700   4.24729e-06
      103.800   4.20644e-06
      103.900   4.16475e-06
      104.000   4.12344e-06
      104.100   4.08255e-06
      104.200   4.04247e-06
      104.300   4.00564e-06
      104.400   3.96918e-06
      104.500   3.93302e-06
      104.600   3.89712e-06
      104.700   3.86057e-06
      104.800   3.82389e-06
      104.900   3.78746e-06
      105.000   3.75130e-06
      105.100   3.71613e-06
      105.200   3.68284e-06
      105.300   3.64986e-06
      105.400   3.61714e-06
      105.500   3.58463e-06
      105.600   3.55270e-06
      105.700   3.52109e-06
      105.800   3.48970e-06
      105.900   3.45856e-06
      106.000   3.42813e-06
      106.100   3.39896e-06
      106.200   3.37004e-06
      106.300   3.34132e-06
      106.400   3.31280e-06
      106.500   3.28449e-06
      106.600   3.25639e-06
      106.700   3.22846e-06
      106.800   3.20070e-06
      106.900   3.17315e-06
      107.000   3.14583e-06
      107.100   3.11873e-06
      107.200   3.09185e-06
      107.300   3.06520e-06
      107.400   3.03868e-06
      107.500   3.01229e-06
      107.600   2.98613e-06
      107.700   2.96018e-06
      107.800   2.93446e-06
      107.900   2.90873e-06
      108.000   2.88317e-06
      108.100   2.85776e-06
      108.200   2.83250e-06
      108.300   2.80740e-06
      108.400   2.78227e-06
      108.500   2.75732e-06
      108.600   2.73253e-06
      108.700   2.70787e-06
      108.800   2.68269e-06
      108.900   2.65672e-06
      109.000   2.63095e-06
      109.100   2.60540e-06
      109.200   2.58006e-06
      109.300   2.55492e-06
      109.400   2.52998e-06
      109.500   2.50525e-06
      109.600   2.48074e-06
      109.700   2.45647e-06
      109.800   2.43245e-06
      109.900   2.40868e-06
      110.000   2.38511e-06
      110.100   2.36175e-06
      110.200   2.33859e-06
      110.300   2.31602e-06
      110.400   2.29368e-06
      110.500   2.27155e-06
      110.600   2.24960e-06
      110.700   2.22782e-06
      110.800   2.20618e-06
      110.900   2.18470e-06
      111.000   2.16336e-06
      111.100   2.14217e-06
      111.200   2.12118e-06
      111.300   2.10107e-06
      111.400   2.08111e-06
      111.500   2.06129e-06
      111.600   2.04163e-06
      111.700   2.02215e-06
      111.800   2.00329e-06
      111.900   1.98461e-06
      112.000   1.96609e-06
      112.100   1.94771e-06
      112.200   1.92948e-06
      112.300   1.91097e-06
      112.400   1.89260e-06
      112.500   1.87441e-06
      112.600   1.85640e-06
      112.700   1.83863e-06
      112.800   1.82141e-06
      112.900   1.80333e-06
      113.000   1.78573e-06
      113.100   1.76843e-06
      113.200   1.75108e-06
      113.300   1.73408e-06
      113.400   1.71503e-06
      113.500   1.69559e-06
      113.600   1.67821e-06
      113.700   1.66041e-06
      113.800   1.64150e-06
      113.900   1.62458e-06
      114.000   1.60781e-06
      114.100   1.58992e-06
      114.200   1.57282e-06
      114.300   1.55689e-06
      114.400   1.54082e-06
      114.500   1.52461e-06
      114.600   1.50983e-06
      114.700   1.49421e-06
      114.800   1.47938e-06
      114.900   1.46617e-06
      115.000   1.45199e-06
      115.100   1.43729e-06
      115.200   1.42265e-06
      115.300   1.40946e-06
      115.400   1.39513e-06
      115.500   1.38155e-06
      115.600   1.36756e-06
      115.700   1.35292e-06
      115.800   1.33944e-06
      115.900   1.32551e-06
      116.000   1.31258e-06
      116.100   1.30110e-06
      116.200   1.28959e-06
      116.300   1.27793e-06
      116.400   1.26593e-06
      116.500   1.25495e-06
      116.600   1.24375e-06
      116.700   1.23286e-06
      116.800   1.22178e-06
      116.900   1.20965e-06
      117.000   1.19889e-06
      117.100   1.19178e-06
      117.200   1.18723e-06
      117.300   1.18021e-06
      117.400   1.17307e-06
      117.500   1.16599e-06
      117.600   1.15754e-06
      117.700   1.14860e-06
      117.800   1.13899e-06
      117.900   1.12909e-06
      118.000   1.11857e-06
      118.100   1.10747e-06
      118.200   1.09697e-06
      118.300   1.08678e-06
      118.400   1.07411e-06
      118.500   1.06177e-06
      118.600   1.05069e-06
      118.700   1.03930e-06
      118.800   1.02745e-06
      118.900   1.01609e-06
      119.000   1.00350e-06
      119.100   9.89536e-07
      119.200   9.77039e-07
      119.300   9.65764e-07
      119.400   9.55201e-07
      119.500   9.45007e-07
      119.600   9.34059e-07
      119.700   9.22230e-07
      119.800   9.08581e-07
      119.900   8.92532e-07
      120.000   8.77484e-07
      120.100   8.63260e-07
      120.200   8.52292e-07
      120.300   8.43206e-07
      120.400   8.34178e-07
      120.500   8.22766e-07
      120.600   8.09608e-07
      120.700   7.96006e-07
      120.800   7.82953e-07
      120.900   7.73190e-07
      121.000   7.68399e-07
      121.100   7.62764e-07
      121.200   7.54746e-07
      121.300   7.45088e-07
      121.400   7.34232e-07
      121.500   7.22522e-07
      121.600   7.07205e-07
      121.700   6.93567e-07
      121.800   6.78798e-07
      121.900   6.64052e-07
      122.000   6.48625e-07
      122.100   6.34056e-07
      122.200   6.19793e-07
      122.300   6.08739e-07
      122.400   6.01075e-07
      122.500   5.94176e-07
      122.600   5.86928e-07
      122.700   5.79723e-07
      122.800   5.71867e-07
      122.900   5.64504e-07
      123.000   5.60882e-07
      123.100   5.63616e-07
      123.200   5.66719e-07
      123.300   5.72990e-07
      123.400   5.81824e-07
      123.500   5.94311e-07
      123.600   6.04495e-07
      123.700   6.08242e-07
      123.800   6.10141e-07
      123.900   6.13776e-07
      124.000   6.20218e-07
      124.100   6.35869e-07
      124.200   6.71045e-07
      124.300   7.24927e-07
      124.400   7.76194e-07
      124.500   7.88037e-07
      124.600   7.81825e-07
      124.700   7.73609e-07
      124.800   7.65672e-07
      124.900   7.57790e-07
      125.000   7.49959e-07
      125.100   7.42108e-07
      125.200   7.34317e-07
      125.300   7.26594e-07
      125.400   7.18942e-07
      125.500   7.11360e-07
      125.600   7.03843e-07
      125.700   6.96401e-07
      125.800   6.89027e-07
      125.900   6.81727e-07
      126.000   6.74501e-07
      126.100   6.67350e-07
      126.200   6.60273e-07
      126.300   6.53267e-07
      126.400   6.46332e-07
      126.500   6.39464e-07
      126.600   6.32663e-07
      126.700   6.25927e-07
      126.800   6.19255e-07
      126.900   6.12645e-07
      127.000   6.06083e-07
      127.100   5.99543e-07
      127.200   5.93045e-07
      127.300   5.86600e-07
      127.400   5.80213e-07
      127.500   5.73885e-07
      127.600   5.67616e-07
      127.700   5.61408e-07
      127.800   5.55259e-07
      127.900   5.49169e-07
      128.000   5.43138e-07
      128.100   5.37164e-07
      128.200   5.31247e-07
      128.300   5.25384e-07
      128.400   5.19578e-07
      128.500   5.13825e-07
      128.600   5.08125e-07
      128.700   5.02483e-07
      128.800   4.96895e-07
      128.900   4.91363e-07
      129.000   4.85888e-07
      129.100   4.80459e-07
      129.200   4.75056e-07
      129.300   4.69706e-07
      129.400   4.64412e-07
      129.500   4.59176e-07
      129.600   4.53995e-07
      129.700   4.48869e-07
      129.800   4.43797e-07
      129.900   4.38781e-07
      130.000   4.33818e-07
      130.100   4.28906e-07
      130.200   4.24044e-07
      130.300   4.19234e-07
      130.400   4.14475e-07
      130.500   4.09765e-07
      130.600   4.05103e-07
      130.700   4.00491e-07
      130.800   3.95928e-07
      130.900   3.91414e-07
      131.000   3.86946e-07
      131.100   3.82524e-07
      131.200   3.78143e-07
      131.300   3.73799e-07
      131.400   3.69499e-07
      131.500   3.65241e-07
      131.600   3.61027e-07
      131.700   3.56855e-07
      131.800   3.52725e-07
      131.900   3.48636e-07
      132.000   3.44589e-07
      132.100   3.40583e-07
      132.200   3.36618e-07
      132.300   3.32695e-07
      132.400   3.28813e-07
      132.500   3.24975e-07
      132.600   3.21179e-07
      132.700   3.17426e-07
      132.800   3.13713e-07
      132.900   3.10041e-07
      133.000   3.06407e-07
      133.100   3.02812e-07
      133.200   2.99256e-07
      133.300   2.95736e-07
      133.400   2.92252e-07
      133.500   2.88804e-07
      133.600   2.85393e-07
      133.700   2.82019e-07
      133.800   2.78681e-07
      133.900   2.75382e-07
      134.000   2.72119e-07
      134.100   2.68890e-07
      134.200   2.65696e-07
      134.300   2.62536e-07
      134.400   2.59411e-07
      134.500   2.56320e-07
      134.600   2.53262e-07
      134.700   2.50239e-07
      134.800   2.47248e-07
      134.900   2.44291e-07
      135.000   2.41365e-07
      135.100   2.38473e-07
      135.200   2.35614e-07
      135.300   2.32787e-07
      135.400   2.29991e-07
      135.500   2.27224e-07
      135.600   2.24486e-07
      135.700   2.21778e-07
      135.800   2.19100e-07
      135.900   2.16452e-07
      136.000   2.13834e-07
      136.100   2.11243e-07
      136.200   2.08685e-07
      136.300   2.06154e-07
      136.400   2.03651e-07
      136.500   2.01176e-07
      136.600   1.98727e-07
      136.700   1.96305e-07
      136.800   1.93910e-07
      136.900   1.91541e-07
      137.000   1.89198e-07
      137.100   1.86879e-07
      137.200   1.84587e-07
      137.300   1.82323e-07
      137.400   1.80084e-07
      137.500   1.77868e-07
      137.600   1.75710e-07
      137.700   1.73655e-07
      137.800   1.71681e-07
      137.900   1.69728e-07
      138.000   1.67795e-07
      138.100   1.65881e-07
      138.200   1.63989e-07
      138.300   1.62116e-07
      138.400   1.60263e-07
      138.500   1.58429e-07
      138.600   1.56614e-07
      138.700   1.54819e-07
      138.800   1.53043e-07
      138.900   1.51285e-07
      139.000   1.49545e-07
      139.100   1.47826e-07
      139.200   1.46126e-07
      139.300   1.44443e-07
      139.400   1.42779e-07
      139.500   1.41132e-07
      139.600   1.39503e-07
      139.700   1.37891e-07
      139.800   1.36296e-07
      139.900   1.34717e-07
      140.000   1.33157e-07
      140.100   1.31613e-07
      140.200   1.30085e-07
      140.300   1.28574e-07
      140.400   1.27078e-07
      140.500   1.25598e-07
      140.600   1.24133e-07
      140.700   1.22683e-07
      140.800   1.21251e-07
      140.900   1.19834e-07
      141.000   1.18432e-07
      141.100   1.17044e-07
      141.200   1.15670e-07
      141.300   1.14311e-07
      141.400   1.12965e-07
      141.500   1.11632e-07
      141.600   1.10315e-07
      141.700   1.09012e-07
      141.800   1.07722e-07
      141.900   1.06445e-07
      142.000   1.05182e-07
      142.100   1.03972e-07
      142.200   1.02894e-07
      142.300   1.01928e-07
      142.400   1.00969e-07
      142.500   1.00017e-07
      142.600   9.90729e-08
      142.700   9.81356e-08
      142.800   9.72057e-08
      142.900   9.62831e-08
      143.000   9.53677e-08
      143.100   9.44604e-08
      143.200   9.35611e-08
      143.300   9.26689e-08
      143.400   9.17843e-08
      143.500   9.09069e-08
      143.600   9.00365e-08
      143.700   8.91729e-08
      143.800   8.83174e-08
      143.900   8.74695e-08
      144.000   8.66285e-08
      144.100   8.57942e-08
      144.200   8.49670e-08
      144.300   8.41462e-08
      144.400   8.33411e-08
      144.500   8.26672e-08
      144.600   8.20362e-08
      144.700   8.14126e-08
      144.800   8.07917e-08
      144.900   8.01733e-08
      145.000   7.95573e-08
      145.100   7.89441e-08
      145.200   7.83335e-08
      145.300   7.77258e-08
      145.400   7.71206e-08
      145.500   7.65176e-08
      145.600   7.59171e-08
      145.700   7.53189e-08
      145.800   7.47236e-08
      145.900   7.41313e-08
      146.000   7.35413e-08
      146.100   7.29540e-08
      146.200   7.23693e-08
      146.300   7.17873e-08
      146.400   7.12077e-08
      146.500   7.06320e-08
      146.600   7.00591e-08
      146.700   6.94891e-08
      146.800   6.89177e-08
      146.900   6.83433e-08
      147.000   6.77720e-08
      147.100   6.72042e-08
      147.200   6.66400e-08
      147.300   6.60790e-08
      147.400   6.55212e-08
      147.500   6.49665e-08
      147.600   6.44150e-08
      147.700   6.38672e-08
      147.800   6.33231e-08
      147.900   6.27822e-08
      148.000   6.22447e-08
      148.100   6.17105e-08
      148.200   6.11798e-08
      148.300   6.06527e-08
      148.400   6.01294e-08
      148.500   5.96094e-08
      148.600   5.90928e-08
      148.700   5.85793e-08
      148.800   5.80690e-08
      148.900   5.75625e-08
      149.000   5.70596e-08
      149.100   5.65598e-08
      149.200   5.60628e-08
      149.300   5.55686e-08
      149.400   5.50775e-08
      149.500   5.45899e-08
      149.600   5.41053e-08
      149.700   5.36238e-08
      149.800   5.31451e-08
      149.900   5.26694e-08
      150.000   5.21965e-08
      150.100   5.17269e-08
      150.200   5.12602e-08
      150.300   5.07967e-08
      150.400   5.03360e-08
      150.500   4.98781e-08
      150.600   4.94233e-08
      150.700   4.89711e-08
      150.800   4.85223e-08
      150.900   4.80764e-08
      151.000   4.76332e-08
      151.100   4.71930e-08
      151.200   4.67556e-08
      151.300   4.63211e-08
      151.400   4.58895e-08
      151.500   4.54612e-08
      151.600   4.50364e-08
      151.700   4.46154e-08
      151.800   4.41973e-08
      151.900   4.37819e-08
      152.000   4.33696e-08
      152.100   4.29603e-08
      152.200   4.25543e-08
      152.300   4.21512e-08
      152.400   4.17511e-08
      152.500   4.13540e-08
      152.600   4.09599e-08
      152.700   4.05688e-08
      152.800   4.01807e-08
      152.900   3.97959e-08
      153.000   3.94139e-08
      153.100   3.90350e-08
      153.200   3.86589e-08
      153.300   3.82857e-08
      153.400   3.79154e-08
      153.500   3.75477e-08
      153.600   3.71831e-08
      153.700   3.68213e-08
      153.800   3.64622e-08
      153.900   3.61058e-08
      154.000   3.57389e-08
      154.100   3.53595e-08
      154.200   3.49814e-08
      154.300   3.46064e-08
      154.400   3.42350e-08
      154.500   3.38667e-08
      154.600   3.35017e-08
      154.700   3.31398e-08
      154.800   3.27810e-08
      154.900   3.24254e-08
      155.000   3.20728e-08
      155.100   3.17234e-08
      155.200   3.13771e-08
      155.300   3.10341e-08
      155.400   3.06942e-08
      155.500   3.03572e-08
      155.600   3.00233e-08
      155.700   2.96923e-08
      155.800   2.93643e-08
      155.900   2.90393e-08
      156.000   2.87173e-08
      156.100   2.83984e-08
      156.200   2.80824e-08
      156.300   2.77692e-08
      156.400   2.74589e-08
      156.500   2.71479e-08
      156.600   2.68305e-08
      156.700   2.65158e-08
      156.800   2.62042e-08
      156.900   2.58957e-08
      157.000   2.55906e-08
      157.100   2.52883e-08
      157.200   2.49892e-08
      157.300   2.46930e-08
      157.400   2.43998e-08
      157.500   2.41095e-08
      157.600   2.38220e-08
      157.700   2.35374e-08
      157.800   2.32558e-08
      157.900   2.29771e-08
      158.000   2.27012e-08
      158.100   2.24281e-08
      158.200   2.21577e-08
      158.300   2.18902e-08
      158.400   2.16253e-08
      158.500   2.13632e-08
      158.600   2.11037e-08
      158.700   2.08468e-08
      158.800   2.05926e-08
      158.900   2.03411e-08
      159.000   2.00925e-08
      159.100   1.98462e-08
      159.200   1.96026e-08
      159.300   1.93615e-08
      159.400   1.91229e-08
      159.500   1.88870e-08
      159.600   1.86535e-08
      159.700   1.84226e-08
      159.800   1.81941e-08
      159.900   1.79681e-08
      160.000   1.77446e-08
      160.100   1.75236e-08
      160.200   1.73050e-08
      160.300   1.70888e-08
      160.400   1.68749e-08
      160.500   1.66633e-08
      160.600   1.64541e-08
      160.700   1.62472e-08
      160.800   1.60425e-08
      160.900   1.58401e-08
      161.000   1.56399e-08
      161.100   1.54419e-08
      161.200   1.52462e-08
      161.300   1.50528e-08
      161.400   1.48615e-08
      161.500   1.46723e-08
      161.600   1.44852e-08
      161.700   1.43002e-08
      161.800   1.41171e-08
      161.900   1.39361e-08
      162.000   1.37572e-08
      162.100   1.35803e-08
      162.200   1.34053e-08
      162.300   1.32324e-08
      162.400   1.30614e-08
      162.500   1.28923e-08
      162.600   1.27253e-08
      162.700   1.25601e-08
      162.800   1.23968e-08
      162.900   1.22353e-08
      163.000   1.20757e-08
      163.100   1.19179e-08
      163.200   1.17618e-08
      163.300   1.16075e-08
      163.400   1.14550e-08
      163.500   1.13042e-08
      163.600   1.11551e-08
      163.700   1.10077e-08
      163.800   1.08620e-08
      163.900   1.07180e-08
      164.000   1.05757e-08
      164.100   1.04351e-08
      164.200   1.02962e-08
      164.300   1.01594e-08
      164.400   1.00243e-08
      164.500   9.89085e-09
      164.600   9.75892e-09
      164.700   9.62856e-09
      164.800   9.49974e-09
      164.900   9.37243e-09
      165.000   9.24666e-09
      165.100   9.12242e-09
      165.200   8.99967e-09
      165.300   8.87844e-09
      165.400   8.75866e-09
      165.500   8.64034e-09
      165.600   8.52352e-09
      165.700   8.40807e-09
      165.800   8.29412e-09
      165.900   8.18153e-09
      166.000   8.07045e-09
      166.100   7.96072e-09
      166.200   7.85236e-09
      166.300   7.74539e-09
      166.400   7.63977e-09
      166.500   7.53546e-09
      166.600   7.43245e-09
      166.700   7.33078e-09
      166.800   7.22977e-09
      166.900   7.12720e-09
      167.000   7.02341e-09
      167.100   6.92091e-09
      167.200   6.81979e-09
      167.300   6.72001e-09
      167.400   6.62159e-09
      167.500   6.52449e-09
      167.600   6.42870e-09
      167.700   6.33417e-09
      167.800   6.24093e-09
      167.900   6.14894e-09
      168.000   6.05818e-09
      168.100   5.96860e-09
      168.200   5.88023e-09
      168.300   5.79303e-09
      168.400   5.70703e-09
      168.500   5.62218e-09
      168.600   5.53846e-09
      168.700   5.45585e-09
      168.800   5.37436e-09
      168.900   5.29399e-09
      169.000   5.21467e-09
      169.100   5.13642e-09
      169.200   5.05925e-09
      169.300   4.98309e-09
      169.400   4.90798e-09
      169.500   4.83256e-09
      169.600   4.75244e-09
      169.700   4.66777e-09
      169.800   4.58408e-09
      169.900   4.50173e-09
      170.000   4.42071e-09
      170.100   4.34101e-09
      170.200   4.26260e-09
      170.300   5.54605e-09
      170.400   1.18946e-08
      170.500   2.25091e-08
      170.600   3.30814e-08
      170.700   4.14749e-08
      170.800   4.52918e-08
      170.900   4.52981e-08
      171.000   4.43770e-08
      171.100   4.34713e-08
      171.200   4.25809e-08
      171.300   4.17052e-08
      171.400   4.08449e-08
      171.500   3.99994e-08
      171.600   3.91687e-08
      171.700   3.83529e-08
      171.800   3.75521e-08
      171.900   3.67665e-08
      172.000   3.59963e-08
      172.100   3.52411e-08
      172.200   3.45016e-08
      172.300   3.37760e-08
      172.400   3.30587e-08
      172.500   3.23550e-08
      172.600   3.16663e-08
      172.700   3.09924e-08
      172.800   3.03327e-08
      172.900   2.96869e-08
      173.000   2.90552e-08
      173.100   2.84372e-08
      173.200   2.78322e-08
      173.300   2.72403e-08
      173.400   2.66609e-08
      173.500   2.60940e-08
      173.600   2.55395e-08
      173.700   2.49966e-08
      173.800   2.44651e-08
      173.900   2.39453e-08
      174.000   2.34363e-08
      174.100   2.29380e-08
      174.200   2.24503e-08
      174.300   2.19729e-08
      174.400   2.15056e-08
      174.500   2.10479e-08
      174.600   2.05995e-08
      174.700   2.01607e-08
      174.800   1.97311e-08
      174.900   1.93101e-08
      175.000   1.88976e-08
      175.100   1.84936e-08
      175.200   1.80988e-08
      175.300   1.77119e-08
      175.400   1.73328e-08
      175.500   1.69617e-08
      175.600   1.65981e-08
      175.700   1.62420e-08
      175.800   1.58931e-08
      175.900   1.55515e-08
      176.000   1.52169e-08
      176.100   1.48894e-08
      176.200   1.45685e-08
      176.300   1.42542e-08
      176.400   1.39466e-08
      176.500   1.36452e-08
      176.600   1.33501e-08
      176.700   1.30612e-08
      176.800   1.27782e-08
      176.900   1.25013e-08
      177.000   1.22300e-08
      177.100   1.19644e-08
      177.200   1.17044e-08
      177.300   1.14499e-08
      177.400   1.12006e-08
      177.500   1.09564e-08
      177.600   1.07174e-08
      177.700   1.04835e-08
      177.800   1.02544e-08
      177.900   1.00299e-08
      178.000   9.81081e-09
      178.100   9.59633e-09
      178.200   9.38623e-09
      178.300   9.18054e-09
      178.400   8.97923e-09
      178.500   8.78210e-09
      178.600   8.58907e-09
      178.700   8.40003e-09
      178.800   8.21503e-09
      178.900   8.03395e-09
      179.000   7.85664e-09
      179.100   7.68302e-09
      179.200   7.51310e-09
      179.300   7.34681e-09
      179.400   7.18404e-09
      179.500   7.02483e-09
      179.600   6.86902e-09
      179.700   6.71665e-09
      179.800   6.56749e-09
      179.900   6.42156e-09
      180.000   6.27874e-09
      180.100   6.13908e-09
      180.200   6.00247e-09
      180.300   5.86884e-09
      180.400   5.73809e-09
      180.500   5.61026e-09
      180.600   5.48522e-09
      180.700   5.36294e-09
      180.800   5.24200e-09
      180.900   5.12216e-09
      181.000   5.00460e-09
      181.100   4.88975e-09
      181.200   4.77748e-09
      181.300   4.66773e-09
      181.400   4.56053e-09
      181.500   4.45573e-09
      181.600   4.35331e-09
      181.700   4.25319e-09
      181.800   4.15536e-09
      181.900   4.05973e-09
      182.000   3.96631e-09
      182.100   3.87498e-09
      182.200   3.78580e-09
      182.300   3.69861e-09
      182.400   3.61342e-09
      182.500   3.53014e-09
      182.600   3.44871e-09
      182.700   3.36913e-09
      182.800   3.29136e-09
      182.900   3.21530e-09
      183.000   3.14098e-09
      183.100   3.06835e-09
      183.200   2.99734e-09
      183.300   2.92791e-09
      183.400   2.86005e-09
      183.500   2.79373e-09
      183.600   2.72890e-09
      183.700   2.66369e-09
      183.800   2.59280e-09
      183.900   2.52240e-09
      184.000   2.45386e-09
      184.100   2.38714e-09
      184.200   2.32223e-09
      184.300   2.25899e-09
      184.400   2.19743e-09
      184.500   2.13750e-09
      184.600   2.07913e-09
      184.700   2.02228e-09
      184.800   1.96694e-09
      184.900   1.91305e-09
      185.000   1.86058e-09
      185.100   1.80947e-09
      185.200   1.75971e-09
      185.300   1.71129e-09
      185.400   1.66414e-09
      185.500   1.61823e-09
      185.600   1.57353e-09
      185.700   1.52999e-09
      185.800   1.48767e-09
      185.900   1.44651e-09
      186.000   1.40641e-09
      186.100   1.36738e-09
      186.200   1.32938e-09
      186.300   1.29239e-09
      186.400   1.25637e-09
      186.500   1.22130e-09
      186.600   1.18717e-09
      186.700   1.15394e-09
      186.800   1.12158e-09
      186.900   1.09008e-09
      187.000   1.05942e-09
      187.100   1.02957e-09
      187.200   1.00052e-09
      187.300   9.72288e-10
      187.400   9.44821e-10
      187.500   9.18094e-10
      187.600   8.92079e-10
      187.700   8.66766e-10
      187.800   8.42127e-10
      187.900   8.18151e-10
      188.000   7.94833e-10
      188.100   7.72143e-10
      188.200   7.50061e-10
      188.300   7.28576e-10
      188.400   7.07676e-10
      188.500   6.87353e-10
      188.600   6.67608e-10
      188.700   6.48424e-10
      188.800   6.29773e-10
      188.900   6.11642e-10
      189.000   5.94006e-10
      189.100   5.76851e-10
      189.200   5.60174e-10
      189.300   5.43964e-10
      189.400   5.28206e-10
      189.500   5.12885e-10
      189.600   4.97981e-10
      189.700   4.83447e-10
      189.800   4.68991e-10
      189.900   4.54987e-10
      190.000   4.41380e-10
      190.100   4.28172e-10
      190.200   4.15343e-10
      190.300   4.02885e-10
      190.400   3.90782e-10
      190.500   3.79030e-10
      190.600   3.67623e-10
      190.700   3.56543e-10
      190.800   3.45785e-10
      190.900   3.35342e-10
      191.000   3.25214e-10
      191.100   3.15398e-10
      191.200   3.05864e-10
      191.300   2.96607e-10
      191.400   2.87622e-10
      191.500   2.78894e-10
      191.600   2.70423e-10
      191.700   2.62199e-10
      191.800   2.54211e-10
      191.900   2.46459e-10
      192.000   2.38937e-10
      192.100   2.31649e-10
      192.200   2.24584e-10
      192.300   2.17724e-10
      192.400   2.11062e-10
      192.500   2.04596e-10
      192.600   1.98321e-10
      192.700   1.92162e-10
      192.800   1.85824e-10
      192.900   1.79040e-10
      193.000   1.72494e-10
      193.100   1.66184e-10
      193.200   1.60105e-10
      193.300   1.54237e-10
      193.400   1.48575e-10
      193.500   1.43108e-10
      193.600   1.37830e-10
      193.700   1.32735e-10
      193.800   1.27821e-10
      193.900   1.23080e-10
      194.000   1.18503e-10
      194.100   1.14097e-10
      194.200   1.09856e-10
      194.300   1.05764e-10
      194.400   1.01816e-10
      194.500   9.80066e-11
      194.600   9.43310e-11
      194.700   9.07868e-11
      194.800   8.73694e-11
      194.900   8.40718e-11
      195.000   8.08935e-11
      195.100   7.78400e-11
      195.200   7.48964e-11
      195.300   7.20582e-11
      195.400   6.93205e-11
      195.500   6.66804e-11
      195.600   6.41346e-11
      195.700   6.16807e-11
      195.800   5.93148e-11
      195.900   5.70349e-11
      196.000   5.48359e-11
      196.100   5.27165e-11
      196.200   5.06743e-11
      196.300   4.87061e-11
      196.400   4.68095e-11
      196.500   4.49813e-11
      196.600   4.32209e-11
      196.700   4.15247e-11
      196.800   3.98943e-11
      196.900   3.83283e-11
      197.000   3.68203e-11
      197.100   3.53679e-11
      197.200   3.39693e-11
      197.300   3.26219e-11
      197.400   3.13239e-11
      197.500   3.00748e-11
      197.600   2.88725e-11
      197.700   2.77209e-11
      197.800   2.66132e-11
      197.900   2.55461e-11
      198.000   2.45194e-11
      198.100   2.35316e-11
      198.200   2.25806e-11
      198.300   2.16653e-11
      198.400   2.07853e-11
      198.500   1.99424e-11
      198.600   1.91329e-11
      198.700   1.83540e-11
      198.800   1.76048e-11
      198.900   1.68844e-11
      199.000   1.62021e-11
      199.100   1.55774e-11
      199.200   1.50193e-11
      199.300   1.44823e-11
      199.400   1.39642e-11
      199.500   1.34637e-11
      199.600   1.29801e-11
      199.700   1.25129e-11
      199.800   1.20616e-11
      199.900   1.16258e-11
      200.000   1.12048e-11
      200.100   1.08002e-11
      200.200   1.04096e-11
      200.300   1.00326e-11
      200.400   9.66876e-12
      200.500   9.31750e-12
      200.600   8.97846e-12
      200.700   8.65130e-12
      200.800   8.33538e-12
      200.900   8.03059e-12
      201.000   7.73707e-12
      201.100   7.45409e-12
      201.200   7.18103e-12
      201.300   6.91762e-12
      201.400   6.66360e-12
      201.500   6.41831e-12
      201.600   6.18180e-12
      201.700   5.95365e-12
      201.800   5.73349e-12
      201.900   5.52154e-12
      202.000   5.31751e-12
      202.100   5.12056e-12
      202.200   4.93069e-12
      202.300   4.75235e-12
      202.400   4.58776e-12
      202.500   4.43036e-12
      202.600   4.27809e-12
      202.700   4.13087e-12
      202.800   3.98869e-12
      202.900   3.85141e-12
      203.000   3.71875e-12
      203.100   3.59052e-12
      203.200   3.46651e-12
      203.300   3.34659e-12
      203.400   3.23069e-12
      203.500   3.11869e-12
      203.600   3.01042e-12
      203.700   2.90577e-12
      203.800   2.80484e-12
      203.900   2.70739e-12
      204.000   2.61319e-12
      204.100   2.52218e-12
      204.200   2.43427e-12
      204.300   2.34928e-12
      204.400   2.26719e-12
      204.500   2.18787e-12
      204.600   2.11122e-12
      204.700   2.03718e-12
      204.800   1.96577e-12
      204.900   1.89685e-12
      205.000   1.83028e-12
      205.100   1.76600e-12
      205.200   1.70386e-12
      205.300   1.64388e-12
      205.400   1.58594e-12
      205.500   1.52996e-12
      205.600   1.47653e-12
      205.700   1.42548e-12
      205.800   1.37618e-12
      205.900   1.32860e-12
      206.000   1.28270e-12
      206.100   1.23830e-12
      206.200   1.19537e-12
      206.300   1.15390e-12
      206.400   1.11382e-12
      206.500   1.07506e-12
      206.600   1.03762e-12
      206.700   1.00143e-12
      206.800   9.66437e-13
      206.900   9.32627e-13
      207.000   8.99975e-13
      207.100   8.68454e-13
      207.200   8.38022e-13
      207.300   8.08617e-13
      207.400   7.80192e-13
      207.500   7.52726e-13
      207.600   7.26194e-13
      207.700   7.00547e-13
      207.800   6.75771e-13
      207.900   6.51840e-13
      208.000   6.28717e-13
      208.100   6.06380e-13
      208.200   5.84812e-13
      208.300   5.63975e-13
      208.400   5.43884e-13
      208.500   5.24490e-13
      208.600   5.05748e-13
      208.700   4.87643e-13
      208.800   4.70144e-13
      208.900   4.52477e-13
      209.000   4.34423e-13
      209.100   4.17062e-13
      209.200   4.00363e-13
      209.300   3.84297e-13
      209.400   3.68856e-13
      209.500   3.54002e-13
      209.600   3.39717e-13
      209.700   3.25996e-13
      209.800   3.12835e-13
      209.900   3.00169e-13
      210.000   2.87999e-13
      210.100   2.76303e-13
      210.200   2.65059e-13
      210.300   2.54255e-13
      210.400   2.43873e-13
      210.500   2.33894e-13
      210.600   2.24308e-13
      210.700   2.15101e-13
      210.800   2.06254e-13
      210.900   1.97756e-13
      211.000   1.89593e-13
      211.100   1.81757e-13
      211.200   1.74229e-13
      211.300   1.67015e-13
      211.400   1.60094e-13
      211.500   1.53443e-13
      211.600   1.47058e-13
      211.700   1.40932e-13
      211.800   1.35046e-13
      211.900   1.29397e-13
      212.000   1.23978e-13
      212.100   1.18777e-13
      212.200   1.13674e-13
      212.300   1.07147e-13
      212.400   9.99994e-14
      212.500   9.33013e-14
      212.600   8.70301e-14
      212.700   8.11555e-14
      212.800   7.56559e-14
      212.900   7.05113e-14
      213.000   6.57008e-14
      213.100   6.12100e-14
      213.200   5.70089e-14
      213.300   5.30829e-14
      213.400   4.94111e-14
      213.500   4.59802e-14
      213.600   4.27752e-14
      213.700   3.97831e-14
      213.800   3.69877e-14
      213.900   3.43805e-14
      214.000   3.19472e-14
      214.100   2.96766e-14
      214.200   2.75606e-14
      214.300   2.55871e-14
      214.400   2.37473e-14
      214.500   2.20334e-14
      214.600   2.04379e-14
      214.700   1.89518e-14
      214.800   1.75683e-14
      214.900   1.62816e-14
      215.000   1.50837e-14
      215.100   1.39706e-14
      215.200   1.29377e-14
      215.300   1.19783e-14
      215.400   1.10860e-14
      215.500   1.02572e-14
      215.600   9.48810e-15
      215.700   8.77341e-15
      215.800   8.11007e-15
      215.900   7.49494e-15
      216.000   6.92402e-15
      216.100   6.39454e-15
      216.200   5.90388e-15
      216.300   5.44923e-15
      216.400   5.02798e-15
      216.500   4.63769e-15
      216.600   4.27647e-15
      216.700   3.94218e-15
      216.800   3.63275e-15
      216.900   3.34666e-15
      217.000   3.08210e-15
      217.100   2.83739e-15
      217.200   2.61144e-15
      217.300   2.40264e-15
      217.400   2.20975e-15
      217.500   2.03178e-15
      217.600   1.86744e-15
      217.700   1.71581e-15
      217.800   1.57596e-15
      217.900   1.44716e-15
      218.000   1.32854e-15
      218.100   1.21925e-15
      218.200   1.11859e-15
      218.300   1.02594e-15
      218.400   9.40608e-16
      218.500   8.62043e-16
      218.600   7.89822e-16
      218.700   7.23360e-16
      218.800   6.62259e-16
      218.900   6.06142e-16
      219.000   5.54550e-16
      219.100   5.07572e-16
      219.200   4.67760e-16
      219.300   4.35984e-16
      219.400   4.06275e-16
      219.500   3.78529e-16
      219.600   3.52609e-16
      219.700   3.28396e-16
      219.800   3.05797e-16
      219.900   2.84693e-16
      220.000   2.64987e-16
      220.100   2.46597e-16
      220.200   2.29442e-16
      220.300   2.13441e-16
      220.400   1.98512e-16
      220.500   1.84593e-16
      220.600   1.71620e-16
      220.700   1.59522e-16
      220.800   1.48243e-16
      220.900   1.37743e-16
      221.000   1.27957e-16
      221.100   1.18839e-16
      221.200   1.10354e-16
      221.300   1.02452e-16
      221.400   9.50953e-17
      221.500   8.82513e-17
      221.600   8.18820e-17
      221.700   7.59552e-17
      221.800   7.04425e-17
      221.900   6.53188e-17
      222.000   6.05555e-17
      222.100   5.61253e-17
      222.200   5.20116e-17
      222.300   4.81879e-17
      222.400   4.46355e-17
      222.500   4.13357e-17
      222.600   3.82740e-17
      222.700   3.54301e-17
      222.800   3.27907e-17
      222.900   3.03434e-17
      223.000   2.80715e-17
      223.100   2.59639e-17
      223.200   2.40094e-17
      223.300   2.21981e-17
      223.400   2.05187e-17
      223.500   1.89615e-17
      223.600   1.75199e-17
      223.700   1.61837e-17
      223.800   1.49458e-17
      223.900   1.38010e-17
      224.000   1.27400e-17
      224.100   1.17580e-17
      224.200   1.08494e-17
      224.300   1.00091e-17
      224.400   9.23142e-18
      224.500   8.51242e-18
      224.600   7.84742e-18
      224.700   7.23335e-18
      224.800   6.66560e-18
      224.900   6.14079e-18
      225.000   5.65625e-18
      225.100   5.20861e-18
      225.200   4.79528e-18
      225.300   4.41405e-18
      225.400   4.06195e-18
      225.500   3.73703e-18
      225.600   3.43735e-18
      225.700   3.16110e-18
      225.800   2.90625e-18
      225.900   2.67134e-18
      226.000   2.45497e-18
      226.100   2.25548e-18
      226.200   2.07169e-18
      226.300   1.90267e-18
      226.400   1.74715e-18
      226.500   1.60387e-18
      226.600   1.47197e-18
      226.700   1.35067e-18
      226.800   1.23901e-18
      226.900   1.13626e-18
      227.000   1.04186e-18
      227.100   9.55031e-19
      227.200   8.75231e-19
      227.300   8.01915e-19
      227.400   7.34568e-19
      227.500   6.72705e-19
      227.600   6.15906e-19
      227.700   5.63765e-19
      227.800   5.15924e-19
      227.900   4.72031e-19
      228.000   4.31763e-19
      228.100   3.94834e-19
      228.200   3.60971e-19
      228.300   3.29936e-19
      228.400   3.01503e-19
      228.500   2.75443e-19
      228.600   2.51581e-19
      228.700   2.29727e-19
      228.800   2.09717e-19
      228.900   1.91412e-19
      229.000   1.74654e-19
      229.100   1.59325e-19
      229.200   1.45308e-19
      229.300   1.32491e-19
      229.400   1.20775e-19
      229.500   1.10067e-19
      229.600   1.00284e-19
      229.700   9.13479e-20
      229.800   8.31856e-20
      229.900   7.57591e-20
      230.000   6.91730e-20
      230.100   6.34844e-20
      230.200   5.82510e-20
      230.300   5.34418e-20
      230.400   4.90183e-20
      230.500   4.49560e-20
      230.600   4.12277e-20
      230.700   3.78003e-20
      230.800   3.46517e-20
      230.900   3.17598e-20
      231.000   2.91024e-20
      231.100   2.66626e-20
      231.200   2.44221e-20
      231.300   2.23659e-20
      231.400   2.04796e-20
      231.500   1.87474e-20
      231.600   1.71581e-20
      231.700   1.57008e-20
      231.800   1.43645e-20
      231.900   1.31392e-20
      232.000   1.20158e-20
      232.100   1.09861e-20
      232.200   1.00427e-20
      232.300   9.17836e-21
      232.400   8.38654e-21
      232.500   7.66122e-21
      232.600   6.99739e-21
      232.700   6.38970e-21
      232.800   5.83348e-21
      232.900   5.32454e-21
      233.000   4.85889e-21
      233.100   4.43314e-21
      233.200   4.04362e-21
      233.300   3.68760e-21
      233.400   3.36225e-21
      233.500   3.06556e-21
      233.600   2.79482e-21
      233.700   2.54736e-21
      233.800   2.31659e-21
      233.900   2.10571e-21
      234.000   1.91346e-21
      234.100   1.73843e-21
      234.200   1.57905e-21
      234.300   1.43394e-21
      234.400   1.30185e-21
      234.500   1.18166e-21
      234.600   1.07229e-21
      234.700   9.72837e-22
      234.800   8.82414e-22
      234.900   8.00177e-22
      235.000   7.25419e-22
      235.100   6.57501e-22
      235.200   5.95793e-22
      235.300   5.39741e-22
      235.400   4.88844e-22
      235.500   4.42631e-22
      235.600   4.00698e-22
      235.700   3.62677e-22
      235.800   3.28318e-22
      235.900   2.97141e-22
      236.000   2.68859e-22
      236.100   2.43203e-22
      236.200   2.19942e-22
      236.300   1.98851e-22
      236.400   1.79741e-22
      236.500   1.62423e-22
      236.600   1.46737e-22
      236.700   1.32530e-22
      236.800   1.19666e-22
      236.900   1.08023e-22
      237.000   9.74874e-23
      237.100   8.79528e-23
      237.200   7.93328e-23
      237.300   7.15356e-23
      237.400   6.45153e-23
      237.500   5.84249e-23
      237.600   5.33413e-23
      237.700   4.87074e-23
      237.800   4.44671e-23
      237.900   4.05877e-23
      238.000   3.70406e-23
      238.100   3.37954e-23
      238.200   3.08287e-23
      238.300   2.81164e-23
      238.400   2.56376e-23
      238.500   2.33721e-23
      238.600   2.13026e-23
      238.700   1.94128e-23
      238.800   1.76864e-23
      238.900   1.61102e-23
      239.000   1.46712e-23
      239.100   1.33581e-23
      239.200   1.21601e-23
      239.300   1.10707e-23
      239.400   1.00797e-23
      239.500   9.17521e-24
      239.600   8.35001e-24
      239.700   7.59766e-24
      239.800   6.91136e-24
      239.900   6.28570e-24
      240.000   5.71547e-24
      240.100   5.19566e-24
      240.200   4.72204e-24
      240.300   4.29072e-24
      240.400   3.89775e-24
      240.500   3.54016e-24
      240.600   3.21459e-24
      240.700   2.91832e-24
      240.800   2.64965e-24
      240.900   2.40598e-24
      241.000   2.18424e-24
      241.100   1.98249e-24
      241.200   1.79895e-24
      241.300   1.63955e-24
      241.400   1.50767e-24
      241.500   1.39321e-24
      241.600   1.28726e-24
      241.700   1.18918e-24
      241.800   1.09843e-24
      241.900   1.01445e-24
      242.000   9.36767e-25
      242.100   8.64915e-25
      242.200   7.98700e-25
      242.300   7.37620e-25
      242.400   6.81103e-25
      242.500   6.28828e-25
      242.600   5.80484e-25
      242.700   5.35770e-25
      242.800   4.94439e-25
      242.900   4.56228e-25
      243.000   4.20909e-25
      243.100   3.88270e-25
      243.200   3.58098e-25
      243.300   3.30227e-25
      243.400   3.04491e-25
      243.500   2.80797e-25
      243.600   2.58991e-25
      243.700   2.38833e-25
      243.800   2.20210e-25
      243.900   2.03017e-25
      244.000   1.87132e-25
      244.100   1.72465e-25
      244.200   1.58926e-25
      244.300   1.46422e-25
      244.400   1.34886e-25
      244.500   1.24238e-25
      244.600   1.14413e-25
      244.700   1.05373e-25
      244.800   9.70728e-26
      244.900   8.94148e-26
      245.000   8.23449e-26
      245.100   7.58229e-26
      245.200   6.98091e-26
      245.300   6.42617e-26
      245.400   5.91440e-26
      245.500   5.44274e-26
      245.600   5.00785e-26
      245.700   4.60686e-26
      245.800   4.23721e-26
      245.900   3.89869e-26
      246.000   3.58743e-26
      246.100   3.30040e-26
      246.200   3.03588e-26
      246.300   2.79205e-26
      246.400   2.56746e-26
      246.500   2.36050e-26
      246.600   2.16986e-26
      246.700   1.99431e-26
      246.800   1.83259e-26
      246.900   1.68371e-26
      247.000   1.54747e-26
      247.100   1.42237e-26
      247.200   1.30717e-26
      247.300   1.20111e-26
      247.400   1.10345e-26
      247.500   1.01354e-26
      247.600   9.30809e-27
      247.700   8.54671e-27
      247.800   7.84622e-27
      247.900   7.20180e-27
      248.000   6.60926e-27
      248.100   6.06963e-27
      248.200   5.57288e-27
      248.300   5.11585e-27
      248.400   4.69546e-27
      248.500   4.30868e-27
      248.600   3.95305e-27
      248.700   3.62619e-27
      248.800   3.32570e-27
      248.900   3.04957e-27
      249.000   2.79583e-27
      249.100   2.56457e-27
      249.200   2.37357e-27
      249.300   2.21826e-27
      249.400   2.07807e-27
      249.500   1.94658e-27
      249.600   1.82320e-27
      249.700   1.70748e-27
      249.800   1.59897e-27
      249.900   1.49719e-27
      250.000   1.40179e-27
      250.100   1.31274e-27
      250.200   1.22941e-27
      250.300   1.15134e-27
      250.400   1.07813e-27
      250.500   1.00952e-27
      250.600   9.45205e-28
      250.700   8.84914e-28
      250.800   8.28410e-28
      250.900   7.75452e-28
      251.000   7.25831e-28
      251.100   6.79327e-28
      251.200   6.35850e-28
      251.300   5.95241e-28
      251.400   5.57177e-28
      251.500   5.21500e-28
      251.600   4.88079e-28
      251.700   4.56777e-28
      251.800   4.27446e-28
      251.900   3.99966e-28
      252.000   3.74220e-28
      252.100   3.50121e-28
      252.200   3.27538e-28
      252.300   3.06428e-28
      252.400   2.86711e-28
      252.500   2.68254e-28
      252.600   2.50961e-28
      252.700   2.34769e-28
      252.800   2.19607e-28
      252.900   2.05408e-28
      253.000   1.92113e-28
      253.100   1.79669e-28
      253.200   1.68810e-28
      253.300   1.61935e-28
      253.400   1.56096e-28
      253.500   1.50474e-28
      253.600   1.45059e-28
      253.700   1.39836e-28
      253.800   1.34800e-28
      253.900   1.29944e-28
      254.000   1.25260e-28
      254.100   1.20742e-28
      254.200   1.16386e-28
      254.300   1.12185e-28
      254.400   1.08133e-28
      254.500   1.04227e-28
      254.600   1.00459e-28
      254.700   9.68270e-29
      254.800   9.33320e-29
      254.900   8.99612e-29
      255.000   8.67112e-29
      255.100   8.35754e-29
      255.200   8.05527e-29
      255.300   7.76375e-29
      255.400   7.48265e-29
      255.500   7.21166e-29
      255.600   6.95031e-29
      255.700   6.69828e-29
      255.800   6.45526e-29
      255.900   6.22092e-29
      256.000   5.99493e-29
      256.100   5.77733e-29
      256.200   5.56766e-29
      256.300   5.36550e-29
      256.400   5.17073e-29
      256.500   4.98278e-29
      256.600   4.80160e-29
      256.700   4.62694e-29
      256.800   4.45852e-29
      256.900   4.29612e-29
      257.000   4.13957e-29
      257.100   3.98862e-29
      257.200   3.84316e-29
      257.300   3.70288e-29
      257.400   3.56865e-29
      257.500   3.43958e-29
      257.600   3.31534e-29
      257.700   3.19556e-29
      257.800   3.08005e-29
      257.900   2.96868e-29
      258.000   2.86127e-29
      258.100   2.75767e-29
      258.200   2.65780e-29
      258.300   2.56150e-29
      258.400   2.46861e-29
      258.500   2.37902e-29
      258.600   2.29269e-29
      258.700   2.20943e-29
      258.800   2.12913e-29
      258.900   2.05175e-29
      259.000   1.97711e-29
      259.100   1.90516e-29
      259.200   1.83585e-29
      259.300   1.76911e-29
      259.400   1.70475e-29
      259.500   1.64268e-29
      259.600   1.58288e-29
      259.700   1.52522e-29
      259.800   1.46962e-29
      259.900   1.41600e-29
      260.000   1.36434e-29
      260.100   1.31454e-29
      260.200   1.26654e-29
      260.300   1.22027e-29
      260.400   1.17566e-29
      260.500   1.13269e-29
      260.600   1.09124e-29
      260.700   1.05130e-29
      260.800   1.01283e-29
      260.900   9.75724e-30
      261.000   9.39993e-30
      261.100   9.05600e-30
      261.200   8.72432e-30
      261.300   8.40473e-30
      261.400   8.09683e-30
      261.500   7.80025e-30
      261.600   7.51505e-30
      261.700   7.24024e-30
      261.800   6.97546e-30
      261.900   6.72014e-30
      262.000   6.47412e-30
      262.100   6.23700e-30
      262.200   6.00861e-30
      262.300   5.78841e-30
      262.400   5.57627e-30
      262.500   5.37179e-30
      262.600   5.17471e-30
      262.700   4.98486e-30
      262.800   4.80191e-30
      262.900   4.62551e-30
      263.000   4.45575e-30
      263.100   4.29209e-30
      263.200   4.13459e-30
      263.300   3.98280e-30
      263.400   3.83654e-30
      263.500   3.69565e-30
      263.600   3.55991e-30
      263.700   3.42909e-30
      263.800   3.30303e-30
      263.900   3.18168e-30
      264.000   3.06469e-30
      264.100   2.95195e-30
      264.200   2.84331e-30
      264.300   2.73872e-30
      264.400   2.63794e-30
      264.500   2.54081e-30
      264.600   2.44725e-30
      264.700   2.35714e-30
      264.800   2.27028e-30
      264.900   2.18665e-30
      265.000   2.10608e-30
      265.100   2.02843e-30
      265.200   1.95365e-30
      265.300   1.88160e-30
      265.400   1.81223e-30
      265.500   1.74538e-30
      265.600   1.68100e-30
      265.700   1.62355e-30
      265.800   1.58732e-30
      265.900   1.55251e-30
      266.000   1.51847e-30
      266.100   1.48518e-30
      266.200   1.45261e-30
      266.300   1.42074e-30
      266.400   1.38957e-30
      266.500   1.35908e-30
      266.600   1.32925e-30
      266.700   1.30005e-30
      266.800   1.27152e-30
      266.900   1.24360e-30
      267.000   1.21629e-30
      267.100   1.18958e-30
      267.200   1.16346e-30
      267.300   1.13790e-30
      267.400   1.11289e-30
      267.500   1.08844e-30
      267.600   1.06452e-30
      267.700   1.04113e-30
      267.800   1.01823e-30
      267.900   9.95842e-31
      268.000   9.73956e-31
      268.100   9.52545e-31
      268.200   9.31603e-31
      268.300   9.11130e-31
      268.400   8.91088e-31
      268.500   8.71483e-31
      268.600   8.52306e-31
      268.700   8.33568e-31
      268.800   8.15231e-31
      268.900   7.97297e-31
      269.000   7.79763e-31
      269.100   7.62597e-31
      269.200   7.45825e-31
      269.300   7.29419e-31
      269.400   7.13363e-31
      269.500   6.97661e-31
      269.600   6.82314e-31
      269.700   6.67291e-31
      269.800   6.52606e-31
      269.900   6.38240e-31
      270.000   6.24198e-31
      270.100   6.10492e-31
      270.200   5.97102e-31
      270.300   5.84007e-31
      270.400   5.71190e-31
      270.500   5.58657e-31
      270.600   5.46391e-31
      270.700   5.34405e-31
      270.800   5.22677e-31
      270.900   5.11200e-31
      271.000   4.99983e-31
      271.100   4.89004e-31
      271.200   4.78265e-31
      271.300   4.67763e-31
      271.400   4.57489e-31
      271.500   4.47444e-31
      271.600   4.37611e-31
      271.700   4.27993e-31
      271.800   4.18591e-31
      271.900   4.09391e-31
      272.000   4.00394e-31
      272.100   3.91590e-31
      272.200   3.82979e-31
      272.300   3.74552e-31
      272.400   3.66311e-31
      272.500   3.58252e-31
      272.600   3.50368e-31
      272.700   3.42655e-31
      272.800   3.35106e-31
      272.900   3.27728e-31
      273.000   3.20509e-31
      273.100   3.13445e-31
      273.200   3.06537e-31
      273.300   2.99782e-31
      273.400   2.93169e-31
      273.500   2.86701e-31
      273.600   2.80375e-31
      273.700   2.74185e-31
      273.800   2.68129e-31
      273.900   2.62208e-31
      274.000   2.56416e-31
      274.100   2.50749e-31
      274.200   2.45203e-31
      274.300   2.39780e-31
      274.400   2.34259e-31
      274.500   2.28397e-31
      274.600   2.22578e-31
      274.700   2.16906e-31
      274.800   2.11375e-31
      274.900   2.05981e-31
      275.000   2.00721e-31
      275.100   1.95594e-31
      275.200   1.90595e-31
      275.300   1.85720e-31
      275.400   1.80969e-31
      275.500   1.76337e-31
      275.600   1.71819e-31
      275.700   1.67416e-31
      275.800   1.63124e-31
      275.900   1.58939e-31
      276.000   1.54860e-31
      276.100   1.50882e-31
      276.200   1.47004e-31
      276.300   1.43223e-31
      276.400   1.39538e-31
      276.500   1.35945e-31
      276.600   1.32444e-31
      276.700   1.29029e-31
      276.800   1.25701e-31
      276.900   1.22456e-31
      277.000   1.19294e-31
      277.100   1.16210e-31
      277.200   1.13205e-31
      277.300   1.10276e-31
      277.400   1.07421e-31
      277.500   1.04637e-31
      277.600   1.01925e-31
      277.700   9.92790e-32
      277.800   9.67002e-32
      277.900   9.41890e-32
      278.000   9.17413e-32
      278.100   8.93551e-32
      278.200   8.70293e-32
      278.300   8.47629e-32
      278.400   8.25544e-32
      278.500   8.04006e-32
      278.600   7.83016e-32
      278.700   7.62576e-32
      278.800   7.42957e-32
      278.900   7.25069e-32
      279.000   7.07589e-32
      279.100   6.90521e-32
      279.200   6.73838e-32
      279.300   6.57558e-32
      279.400   6.41647e-32
      279.500   6.26113e-32
      279.600   6.10945e-32
      279.700   5.96136e-32
      279.800   5.81672e-32
      279.900   5.67547e-32
      280.000   5.53754e-32
      280.100   5.40279e-32
      280.200   5.27130e-32
      280.300   5.14287e-32
      280.400   5.01747e-32
      280.500   4.89508e-32
      280.600   4.77558e-32
      280.700   4.65889e-32
      280.800   4.54495e-32
      280.900   4.43369e-32
      281.000   4.32509e-32
      281.100   4.21906e-32
      281.200   4.11554e-32
      281.300   4.01449e-32
      281.400   3.91588e-32
      281.500   3.81959e-32
      281.600   3.72554e-32
      281.700   3.63376e-32
      281.800   3.54425e-32
      281.900   3.45683e-32
      282.000   3.37147e-32
      282.100   3.28817e-32
      282.200   3.20695e-32
      282.300   3.12758e-32
      282.400   3.05013e-32
      282.500   2.97451e-32
      282.600   2.90078e-32
      282.700   2.82880e-32
      282.800   2.75850e-32
      282.900   2.69000e-32
      283.000   2.62312e-32
      283.100   2.55786e-32
      283.200   2.49421e-32
      283.300   2.43705e-32
      283.400   2.40762e-32
      283.500   2.38172e-32
      283.600   2.35598e-32
      283.700   2.33048e-32
      283.800   2.30517e-32
      283.900   2.28007e-32
      284.000   2.25517e-32
      284.100   2.23046e-32
      284.200   2.20599e-32
      284.300   2.18174e-32
      284.400   2.15766e-32
      284.500   2.13379e-32
      284.600   2.11014e-32
      284.700   2.08669e-32
      284.800   2.06344e-32
      284.900   2.04040e-32
      285.000   2.01754e-32
      285.100   1.99489e-32
      285.200   1.97243e-32
      285.300   1.95018e-32
      285.400   1.92815e-32
      285.500   1.90627e-32
      285.600   1.88465e-32
      285.700   1.86317e-32
      285.800   1.84193e-32
      285.900   1.82086e-32
      286.000   1.79997e-32
      286.100   1.77932e-32
      286.200   1.75884e-32
      286.300   1.73857e-32
      286.400   1.71847e-32
      286.500   1.69856e-32
      286.600   1.67885e-32
      286.700   1.65931e-32
      286.800   1.63997e-32
      286.900   1.62083e-32
      287.000   1.60185e-32
      287.100   1.58306e-32
      287.200   1.56447e-32
      287.300   1.54603e-32
      287.400   1.52778e-32
      287.500   1.50973e-32
      287.600   1.49185e-32
      287.700   1.47415e-32
      287.800   1.45663e-32
      287.900   1.43929e-32
      288.000   1.42215e-32
      288.100   1.40518e-32
      288.200   1.38837e-32
      288.300   1.37176e-32
      288.400   1.35533e-32
      288.500   1.33904e-32
      288.600   1.32292e-32
      288.700   1.30699e-32
      288.800   1.29120e-32
      288.900   1.27558e-32
      289.000   1.26013e-32
      289.100   1.24483e-32
      289.200   1.22969e-32
      289.300   1.21472e-32
      289.400   1.19991e-32
      289.500   1.18525e-32
      289.600   1.17074e-32
      289.700   1.15640e-32
      289.800   1.14220e-32
      289.900   1.12814e-32
      290.000   1.11426e-32
      290.100   1.10050e-32
      290.200   1.08692e-32
      290.300   1.07348e-32
      290.400   1.06017e-32
      290.500   1.04703e-32
      290.600   1.03401e-32
      290.700   1.02114e-32
      290.800   1.00842e-32
      290.900   9.95837e-33
      291.000   9.83385e-33
      291.100   9.71066e-33
      291.200   9.58885e-33
      291.300   9.46845e-33
      291.400   9.34934e-33
      291.500   9.23150e-33
      291.600   9.11503e-33
      291.700   8.99988e-33
      291.800   8.88596e-33
      291.900   8.77341e-33
      292.000   8.66221e-33
      292.100   8.55224e-33
      292.200   8.44346e-33
      292.300   8.33585e-33
      292.400   8.22947e-33
      292.500   8.12426e-33
      292.600   8.02011e-33
      292.700   7.91706e-33
      292.800   7.81519e-33
      292.900   7.71443e-33
      293.000   7.61486e-33
      293.100   7.51643e-33
      293.200   7.41906e-33
      293.300   7.32281e-33
      293.400   7.22780e-33
      293.500   7.13380e-33
      293.600   7.04094e-33
      293.700   6.94916e-33
      293.800   6.85847e-33
      293.900   6.76877e-33
      294.000   6.68008e-33
      294.100   6.59246e-33
      294.200   6.50590e-33
      294.300   6.42035e-33
      294.400   6.33573e-33
      294.500   6.25210e-33
      294.600   6.16940e-33
      294.700   6.08778e-33
      294.800   6.00706e-33
      294.900   5.92725e-33
      295.000   5.84846e-33
      295.100   5.77069e-33
      295.200   5.69376e-33
      295.300   5.61768e-33
      295.400   5.54256e-33
      295.500   5.46835e-33
      295.600   5.39496e-33
      295.700   5.32245e-33
      295.800   5.25081e-33
      295.900   5.17997e-33
      296.000   5.11005e-33
      296.100   5.04086e-33
      296.200   4.97260e-33
      296.300   4.90512e-33
      296.400   4.83855e-33
      296.500   4.77267e-33
      296.600   4.70763e-33
      296.700   4.64336e-33
      296.800   4.57987e-33
      296.900   4.51714e-33
      297.000   4.45518e-33
      297.100   4.39396e-33
      297.200   4.33603e-33
      297.300   4.29773e-33
      297.400   4.30615e-33
      297.500   4.31438e-33
      297.600   4.32242e-33
      297.700   4.33027e-33
      297.800   4.33789e-33
      297.900   4.34535e-33
      298.000   4.35258e-33
      298.100   4.35959e-33
      298.200   4.36640e-33
      298.300   4.37302e-33
      298.400   4.37944e-33
      298.500   4.38564e-33
      298.600   4.39167e-33
      298.700   4.39744e-33
      298.800   4.40298e-33
      298.900   4.40829e-33
      299.000   4.41344e-33
      299.100   4.41835e-33
      299.200   4.42304e-33
      299.300   4.42749e-33
      299.400   4.43174e-33
      299.500   4.43578e-33
      299.600   4.43957e-33
      299.700   4.44313e-33
      299.800   4.44650e-33
      299.900   4.44970e-33
      300.000   4.45261e-33
      300.100   4.45529e-33
      300.192   4.45757e-33
      300.285   4.45964e-33
      300.377   4.46150e-33
      300.470   4.46326e-33
      300.562   4.46470e-33
      300.654   4.46594e-33
      300.747   4.46709e-33
      300.839   4.46799e-33
      300.932   4.46865e-33
      301.025   4.46922e-33
      301.117   4.46952e-33
      301.210   4.46958e-33
      301.303   4.46956e-33
      301.395   4.46925e-33
      301.488   4.46874e-33
      301.581   4.46802e-33
      301.674   4.46712e-33
      301.766   4.46601e-33
      301.859   4.46475e-33
      301.952   4.46323e-33
      302.045   4.46154e-33
      302.138   4.59458e-33
      302.231   4.78608e-33
      302.324   4.98685e-33
      302.417   5.19540e-33
      302.510   5.41157e-33
      302.603   5.63559e-33
      302.696   5.86791e-33
      302.789   6.10895e-33
      302.882   6.35867e-33
      302.976   6.62034e-33
      303.069   6.88850e-33
      303.162   7.16631e-33
      303.255   7.45403e-33
      303.349   7.75535e-33
      303.442   8.06406e-33
      303.535   8.38331e-33
      303.629   8.71738e-33
      303.722   9.05959e-33
      303.816   9.41750e-33
      303.909   9.78392e-33
      304.003   1.01668e-32
      304.096   1.05588e-32
      304.190   1.09686e-32
      304.283   1.13875e-32
      304.377   1.18248e-32
      304.471   1.22771e-32
      304.564   1.27395e-32
      304.658   1.32224e-32
      304.752   1.37216e-32
      304.846   1.42366e-32
      304.939   1.47628e-32
      305.033   1.53121e-32
      305.127   1.58789e-32
      305.221   1.64637e-32
      305.315   1.70679e-32
      305.409   1.76906e-32
      305.503   1.83330e-32
      305.597   1.89962e-32
      305.691   1.96794e-32
      305.785   2.03845e-32
      305.879   2.11110e-32
      305.973   2.18591e-32
      306.067   2.26307e-32
      306.161   2.34256e-32
      306.255   2.42443e-32
      306.350   2.50969e-32
      306.444   2.59655e-32
      306.538   2.68604e-32
      306.633   2.77910e-32
      306.727   2.87392e-32
      306.821   2.97151e-32
      306.916   3.07297e-32
      307.010   3.17708e-32
      307.105   3.28604e-32
      307.199   3.39705e-32
      307.294   3.51251e-32
      307.388   3.63000e-32
      307.483   3.75215e-32
      307.577   3.87645e-32
      307.672   4.00564e-32
      307.767   4.13841e-32
      307.861   4.27331e-32
      307.956   4.41359e-32
      308.051   4.55773e-32
      308.146   4.70581e-32
      308.240   4.85616e-32
      308.335   5.01224e-32
      308.430   5.17256e-32
      308.525   5.33731e-32
      308.620   5.50625e-32
      308.715   5.67972e-32
      308.810   5.85775e-32
      308.905   6.04036e-32
      309.000   6.22756e-32
      309.095   6.41968e-32
      309.190   6.61671e-32
      309.285   6.81877e-32
      309.380   7.02589e-32
      309.476   7.24042e-32
      309.571   7.45802e-32
      309.666   7.68120e-32
      309.761   7.90969e-32
      309.857   8.14616e-32
      309.952   8.38584e-32
      310.047   8.63117e-32
      310.143   8.88520e-32
      310.238   9.14255e-32
      310.334   9.40865e-32
      310.429   9.67844e-32
      310.525   9.95706e-32
      310.620   1.02394e-31
      310.716   1.05311e-31
      310.811   1.08266e-31
      310.907   1.11316e-31
      311.003   1.14435e-31
      311.098   1.17592e-31
      311.194   1.20854e-31
      311.290   1.24188e-31
      311.386   1.27594e-31
      311.481   1.31037e-31
      311.577   1.34589e-31
      311.673   1.38222e-31
      311.769   1.41931e-31
      311.865   1.45714e-31
      311.961   1.49632e-31
      312.057   1.53793e-31
      312.153   1.58094e-31
      312.249   1.62494e-31
      312.345   1.66993e-31
      312.441   1.71593e-31
      312.537   1.76291e-31
      312.633   1.81092e-31
      312.730   1.86052e-31
      312.826   1.91067e-31
      312.922   1.96188e-31
      313.018   2.01419e-31
      313.115   2.06818e-31
      313.211   2.12276e-31
      313.307   2.17847e-31
      313.404   2.23593e-31
      313.500   2.29397e-31
      313.597   2.35383e-31
      313.693   2.41421e-31
      313.790   2.47652e-31
      313.886   2.53942e-31
      313.983   2.60426e-31
      314.079   2.66971e-31
      314.176   2.73710e-31
      314.273   2.80582e-31
      314.369   2.87519e-31
      314.466   2.94661e-31
      314.563   3.01940e-31
      314.660   3.09348e-31
      314.756   3.16826e-31
      314.853   3.24519e-31
      314.950   3.32356e-31
      315.047   3.40336e-31
      315.144   3.48467e-31
      315.241   3.56741e-31
      315.338   3.65167e-31
      315.435   3.73739e-31
      315.532   3.82462e-31
      315.629   3.91335e-31
      315.726   4.00365e-31
      315.823   4.09557e-31
      315.921   4.18991e-31
      316.018   4.28497e-31
      316.115   4.38163e-31
      316.212   4.47988e-31
      316.310   4.58078e-31
      316.407   4.68223e-31
      316.504   4.78541e-31
      316.602   4.89131e-31
      316.699   4.99783e-31
      316.796   5.10592e-31
      316.894   5.21691e-31
      316.991   5.32933e-31
      317.089   5.45002e-31
      317.187   5.57550e-31
      317.284   5.70181e-31
      317.382   5.83158e-31
      317.479   5.96224e-31
      317.577   6.09637e-31
      317.675   6.23268e-31
      317.773   6.37138e-31
      317.870   6.51092e-31
      317.968   6.65433e-31
      318.066   6.79993e-31
      318.164   6.94786e-31
      318.262   7.09818e-31
      318.360   7.25094e-31
      318.458   7.40608e-31
      318.556   7.56359e-31
      318.654   7.72351e-31
      318.752   7.88579e-31
      318.850   8.05055e-31
      318.948   8.21790e-31
      319.046   8.38774e-31
      319.144   8.56005e-31
      319.242   8.73480e-31
      319.341   8.91399e-31
      319.439   9.09384e-31
      319.537   9.27628e-31
      319.635   9.46129e-31
      319.734   9.65073e-31
      319.832   9.84086e-31
      319.930   1.00336e-30
      320.029   1.02309e-30
      320.127   1.04288e-30
      320.226   1.06316e-30
      320.324   1.08348e-30
      320.423   1.10428e-30
      320.522   1.12535e-30
      320.620   1.14646e-30
      320.719   1.16805e-30
      320.818   1.18993e-30
      320.916   1.21184e-30
      321.015   1.23426e-30
      321.114   1.25693e-30
      321.213   1.27989e-30
      321.311   1.30287e-30
      321.410   1.32634e-30
      321.509   1.35010e-30
      321.608   1.37411e-30
      321.707   1.39840e-30
      321.806   1.42297e-30
      321.905   1.44779e-30
      322.004   1.47291e-30
      322.103   1.50564e-30
      322.202   1.55155e-30
      322.301   1.60406e-30
      322.401   1.65856e-30
      322.500   1.71402e-30
      322.599   1.77097e-30
      322.698   1.82943e-30
      322.798   1.89013e-30
      322.897   1.95182e-30
      322.996   2.01509e-30
      323.096   2.08073e-30
      323.195   2.14737e-30
      323.294   2.21571e-30
      323.394   2.28650e-30
      323.493   2.35839e-30
      323.593   2.43283e-30
      323.692   2.50835e-30
      323.792   2.58651e-30
      323.892   2.66658e-30
      323.991   2.74781e-30
      324.091   2.83183e-30
      324.191   2.91790e-30
      324.291   3.00595e-30
      324.390   3.09513e-30
      324.490   3.18745e-30
      324.590   3.28176e-30
      324.690   3.37822e-30
      324.790   3.47692e-30
      324.890   3.57781e-30
      324.990   3.68102e-30
      325.090   3.78651e-30
      325.190   3.89419e-30
      325.290   4.00419e-30
      325.390   4.11664e-30
      325.490   4.23142e-30
      325.590   4.34857e-30
      325.690   4.46817e-30
      325.790   4.59024e-30
      325.891   4.71605e-30
      325.991   4.84309e-30
      326.091   4.97274e-30
      326.192   5.10624e-30
      326.292   5.24101e-30
      326.392   5.37833e-30
      326.493   5.51971e-30
      326.593   5.66234e-30
      326.694   5.80896e-30
      326.794   5.95691e-30
      326.895   6.10909e-30
      326.995   6.26252e-30
      327.096   6.42008e-30
      327.197   6.58053e-30
      327.297   6.74263e-30
      327.398   6.91008e-30
      327.499   7.08095e-30
      327.599   7.25315e-30
      327.700   7.42995e-30
      327.801   7.60958e-30
      327.902   7.79220e-30
      328.003   7.97790e-30
      328.104   8.16659e-30
      328.205   8.35828e-30
      328.306   8.55290e-30
      328.407   8.75046e-30
      328.508   8.95104e-30
      328.609   9.15463e-30
      328.710   9.36113e-30
      328.811   9.57073e-30
      328.912   9.78343e-30
      329.013   9.99891e-30
      329.115   1.02197e-29
      329.216   1.04414e-29
      329.317   1.06659e-29
      329.419   1.08956e-29
      329.520   1.11262e-29
      329.621   1.13597e-29
      329.723   1.15986e-29
      329.824   1.18377e-29
      329.926   1.20823e-29
      330.027   1.23275e-29
      330.129   1.25780e-29
      330.230   1.28288e-29
      330.332   1.30851e-29
      330.434   1.33441e-29
      330.535   1.36035e-29
      330.637   1.38682e-29
      330.739   1.41353e-29
      330.840   1.44027e-29
      330.942   1.46756e-29
      331.044   1.49511e-29
      331.146   1.52291e-29
      331.248   1.55098e-29
      331.350   1.57930e-29
      331.452   1.60795e-29
      331.554   1.63836e-29
      331.656   1.67157e-29
      331.758   1.70516e-29
      331.860   1.73916e-29
      331.962   1.77354e-29
      332.064   1.80829e-29
      332.166   1.84344e-29
      332.268   1.87896e-29
      332.371   1.91520e-29
      332.473   1.95146e-29
      332.575   1.98507e-29
      332.677   2.00905e-29
      332.780   2.02533e-29
      332.882   2.04140e-29
      332.985   2.05752e-29
      333.087   2.07341e-29
      333.190   2.08934e-29
      333.292   2.10393e-29
      333.395   2.11560e-29
      333.497   2.12586e-29
      333.600   2.13604e-29
      333.702   2.14594e-29
      333.805   2.15575e-29
      333.908   2.16541e-29
      334.011   2.17488e-29
      334.113   2.18405e-29
      334.216   2.19313e-29
      334.319   2.20202e-29
      334.422   2.21071e-29
      334.525   2.21921e-29
      334.628   2.22753e-29
      334.731   2.23563e-29
      334.834   2.24354e-29
      334.937   2.25126e-29
      335.040   2.25877e-29
      335.143   2.26606e-29
      335.246   2.27316e-29
      335.349   2.28002e-29
      335.452   2.28668e-29
      335.555   2.29313e-29
      335.659   2.29944e-29
      335.762   2.30549e-29
      335.865   2.31131e-29
      335.969   2.31695e-29
      336.072   2.32233e-29
      336.175   2.32748e-29
      336.279   2.33246e-29
      336.382   2.33718e-29
      336.486   2.34172e-29
      336.589   2.34596e-29
      336.693   2.35007e-29
      336.796   2.35387e-29
      336.900   2.35753e-29
      337.004   2.36094e-29
      337.107   2.36408e-29
      337.211   2.36704e-29
      337.315   2.36978e-29
      337.419   2.37228e-29
      337.523   2.37451e-29
      337.626   2.37653e-29
      337.730   2.37837e-29
      337.834   2.37993e-29
      337.938   2.38120e-29
      338.042   2.38196e-29
      338.146   2.38266e-29
      338.250   2.38318e-29
      338.354   2.38349e-29
      338.458   2.38357e-29
      338.562   2.38344e-29
      338.667   2.38308e-29
      338.771   2.38251e-29
      338.875   2.38171e-29
      338.979   2.38069e-29
      339.084   2.37946e-29
      339.188   2.37799e-29
      339.292   2.37637e-29
      339.397   2.37449e-29
      339.501   2.37242e-29
      339.606   2.37012e-29
      339.710   2.36762e-29
      339.815   2.36491e-29
      339.919   2.36200e-29
      340.024   2.35887e-29
      340.128   2.35556e-29
      340.233   2.35203e-29
      340.338   2.34829e-29
      340.442   2.34437e-29
      340.547   2.34024e-29
      340.652   2.33590e-29
      340.757   2.33137e-29
      340.862   2.32665e-29
      340.966   2.32180e-29
      341.071   2.31666e-29
      341.176   2.31137e-29
      341.281   2.30589e-29
      341.386   2.30025e-29
      341.491   2.29440e-29
      341.596   2.28841e-29
      341.702   2.28217e-29
      341.807   2.27578e-29
      341.912   2.26925e-29
      342.017   2.26256e-29
      342.122   2.25569e-29
      342.228   2.24858e-29
      342.333   2.24138e-29
      342.438   2.23404e-29
      342.544   2.22645e-29
      342.649   2.21876e-29
      342.754   2.21096e-29
      342.860   2.20289e-29
      342.965   2.19477e-29
      343.071   2.18642e-29
      343.176   2.17803e-29
      343.282   2.16940e-29
      343.388   2.16064e-29
      343.493   2.15216e-29
      343.599   2.14608e-29
      343.705   2.14019e-29
      343.810   2.13414e-29
      343.916   2.12791e-29
      344.022   2.12155e-29
      344.128   2.11502e-29
      344.234   2.10835e-29
      344.340   2.10154e-29
      344.446   2.09458e-29
      344.552   2.08749e-29
      344.658   2.08031e-29
      344.764   2.07295e-29
      344.870   2.06548e-29
      344.976   2.05786e-29
      345.082   2.05013e-29
      345.188   2.04229e-29
      345.294   2.03430e-29
      345.401   2.02614e-29
      345.507   2.01792e-29
      345.613   2.00960e-29
      345.719   2.00116e-29
      345.826   1.99254e-29
      345.932   1.98388e-29
      346.039   1.97503e-29
      346.145   1.96617e-29
      346.252   1.95712e-29
      346.358   1.94806e-29
      346.465   1.93880e-29
      346.571   1.92956e-29
      346.678   1.92011e-29
      346.785   1.91058e-29
      346.891   1.90105e-29
      346.998   1.89134e-29
      347.105   1.88156e-29
      347.212   1.87170e-29
      347.319   1.86175e-29
      347.425   1.85180e-29
      347.532   1.84171e-29
      347.639   1.83154e-29
      347.746   1.82129e-29
      347.853   1.81099e-29
      347.960   1.80061e-29
      348.067   1.79019e-29
      348.174   1.77970e-29
      348.281   1.76913e-29
      348.389   1.75842e-29
      348.496   1.74771e-29
      348.603   1.73703e-29
      348.710   1.72624e-29
      348.818   1.71533e-29
      348.925   1.70428e-29
      349.032   1.68491e-29
      349.140   1.64555e-29
      349.247   1.60739e-29
      349.355   1.56979e-29
      349.462   1.53335e-29
      349.570   1.49739e-29
      349.677   1.46261e-29
      349.785   1.42827e-29
      349.892   1.39505e-29
      350.000   1.36229e-29
      350.100   1.33263e-29
      350.193   1.30561e-29
      350.287   1.27882e-29
      350.380   1.25287e-29
      350.473   1.22743e-29
      350.567   1.20221e-29
      350.660   1.17777e-29
      350.754   1.15356e-29
      350.847   1.13010e-29
      350.941   1.10685e-29
      351.034   1.08431e-29
      351.128   1.06199e-29
      351.221   1.04035e-29
      351.315   1.01890e-29
      351.409   9.97884e-30
      351.502   9.77521e-30
      351.596   9.57347e-30
      351.690   9.37567e-30
      351.783   9.18417e-30
      351.877   8.99442e-30
      351.971   8.80838e-30
      352.065   8.62618e-30
      352.159   8.44767e-30
      352.252   8.27463e-30
      352.346   8.10312e-30
      352.440   7.93521e-30
      352.534   7.77080e-30
      352.628   7.60957e-30
      352.722   7.45159e-30
      352.816   7.29692e-30
      352.910   7.14539e-30
      353.004   6.99698e-30
      353.098   6.85144e-30
      353.192   6.70891e-30
      353.287   6.56780e-30
      353.381   6.43101e-30
      353.475   6.29717e-30
      353.569   6.16584e-30
      353.663   6.03732e-30
      353.758   5.91012e-30
      353.852   5.78682e-30
      353.946   5.66600e-30
      354.041   5.54639e-30
      354.135   5.43050e-30
      354.229   5.31690e-30
      354.324   5.20455e-30
      354.418   5.09560e-30
      354.513   4.98775e-30
      354.607   4.88337e-30
      354.702   4.77197e-30
      354.796   4.65729e-30
      354.891   4.54350e-30
      354.985   4.43364e-30
      355.080   4.32528e-30
      355.175   4.21947e-30
      355.269   4.11733e-30
      355.364   4.01654e-30
      355.459   3.91824e-30
      355.553   3.82327e-30
      355.648   3.72964e-30
      355.743   3.63829e-30
      355.838   3.54901e-30
      355.933   3.46204e-30
      356.027   3.37799e-30
      356.122   3.29507e-30
      356.217   3.21417e-30
      356.312   3.13529e-30
      356.407   3.05824e-30
      356.502   2.98308e-30
      356.597   2.90972e-30
      356.692   2.83818e-30
      356.787   2.76836e-30
      356.882   2.70018e-30
      356.977   2.63373e-30
      357.073   2.56820e-30
      357.168   2.50487e-30
      357.263   2.44313e-30
      357.358   2.38288e-30
      357.453   2.32410e-30
      357.549   2.26615e-30
      357.644   2.21021e-30
      357.739   2.15565e-30
      357.835   2.10180e-30
      357.930   2.04984e-30
      358.025   1.99915e-30
      358.121   1.94918e-30
      358.216   1.90093e-30
      358.312   1.85337e-30
      358.407   1.80747e-30
      358.503   1.76222e-30
      358.598   1.71855e-30
      358.694   1.67548e-30
      358.790   1.63347e-30
      358.885   1.59291e-30
      358.981   1.55294e-30
      359.076   1.51437e-30
      359.172   1.47636e-30
      359.268   1.43923e-30
      359.364   1.40305e-30
      359.459   1.36816e-30
      359.555   1.33374e-30
      359.651   1.30015e-30
      359.747   1.26741e-30
      359.843   1.23548e-30
      359.939   1.20433e-30
      360.035   1.17397e-30
      360.131   1.14437e-30
      360.227   1.11546e-30
      360.323   1.08730e-30
      360.419   1.06594e-30
      360.515   1.05034e-30
      360.611   1.03594e-30
      360.707   1.02169e-30
      360.803   1.00762e-30
      360.899   9.93694e-31
      360.995   9.79942e-31
      361.092   9.66185e-31
      361.188   9.52723e-31
      361.284   9.39414e-31
      361.380   9.26261e-31
      361.477   9.13117e-31
      361.573   9.00257e-31
      361.669   8.87544e-31
      361.766   8.74839e-31
      361.862   8.62421e-31
      361.959   8.50019e-31
      362.055   8.37868e-31
      362.152   8.25759e-31
      362.248   8.13905e-31
      362.345   8.02062e-31
      362.441   7.90498e-31
      362.538   7.78943e-31
      362.635   7.67529e-31
      362.731   7.56358e-31
      362.828   7.45204e-31
      362.925   7.34194e-31
      363.021   7.23430e-31
      363.118   7.12689e-31
      363.215   7.02069e-31
      363.312   6.91580e-31
      363.409   6.81230e-31
      363.505   6.71104e-31
      363.602   6.61002e-31
      363.699   6.51032e-31
      363.796   6.41180e-31
      363.893   6.31450e-31
      363.990   6.21844e-31
      364.087   6.12363e-31
      364.184   6.03001e-31
      364.281   5.93754e-31
      364.378   5.84635e-31
      364.475   5.75625e-31
      364.573   5.66640e-31
      364.670   5.57863e-31
      364.767   5.49201e-31
      364.864   5.40650e-31
      364.961   5.32211e-31
      365.059   5.23799e-31
      365.156   5.15585e-31
      365.253   5.07477e-31
      365.351   4.99392e-31
      365.448   4.91497e-31
      365.545   4.83713e-31
      365.643   4.75949e-31
      365.740   4.68366e-31
      365.838   4.60811e-31
      365.935   4.53437e-31
      366.033   4.46091e-31
      366.130   4.38914e-31
      366.228   4.32558e-31
      366.326   4.27373e-31
      366.423   4.22624e-31
      366.521   4.17858e-31
      366.618   4.13164e-31
      366.716   4.08451e-31
      366.814   4.03770e-31
      366.912   3.99119e-31
      367.010   3.94497e-31
      367.107   3.89951e-31
      367.205   3.85386e-31
      367.303   3.80853e-31
      367.401   3.76352e-31
      367.499   3.71880e-31
      367.597   3.67440e-31
      367.695   3.63030e-31
      367.793   3.58653e-31
      367.891   3.54310e-31
      367.989   3.49996e-31
      368.087   3.45715e-31
      368.185   3.41463e-31
      368.283   3.37245e-31
      368.381   3.33058e-31
      368.480   3.28862e-31
      368.578   3.24741e-31
      368.676   3.20655e-31
      368.774   3.16602e-31
      368.873   3.12540e-31
      368.971   3.08552e-31
      369.069   3.04597e-31
      369.168   3.00632e-31
      369.266   2.96741e-31
      369.364   2.92886e-31
      369.463   2.89026e-31
      369.561   2.85238e-31
      369.660   2.81443e-31
      369.758   2.77720e-31
      369.857   2.73996e-31
      369.955   2.70342e-31
      370.054   2.66682e-31
      370.153   2.63057e-31
      370.251   2.59503e-31
      370.350   2.55949e-31
      370.449   2.52428e-31
      370.547   2.48974e-31
      370.646   2.45517e-31
      370.745   2.42098e-31
      370.844   2.38712e-31
      370.943   2.35359e-31
      371.041   2.32073e-31
      371.140   2.28785e-31
      371.239   2.25532e-31
      371.338   2.22315e-31
      371.437   2.19130e-31
      371.536   2.15977e-31
      371.635   2.12857e-31
      371.734   2.09773e-31
      371.833   2.06720e-31
      371.932   2.03701e-31
      372.032   2.00684e-31
      372.131   1.99086e-31
      372.230   2.00329e-31
      372.329   2.02996e-31
      372.428   2.05643e-31
      372.528   2.08294e-31
      372.627   2.10897e-31
      372.726   2.13476e-31
      372.826   2.16058e-31
      372.925   2.18590e-31
      373.024   2.21091e-31
      373.124   2.23589e-31
      373.223   2.26030e-31
      373.323   2.28468e-31
      373.422   2.30850e-31
      373.522   2.33218e-31
      373.621   2.35528e-31
      373.721   2.37827e-31
      373.820   2.40063e-31
      373.920   2.42283e-31
      374.020   2.44466e-31
      374.119   2.46582e-31
      374.219   2.48681e-31
      374.319   2.50737e-31
      374.419   2.52746e-31
      374.518   2.54691e-31
      374.618   2.56611e-31
      374.718   2.58483e-31
      374.818   2.60304e-31
      374.918   2.62076e-31
      375.018   2.63803e-31
      375.118   2.65477e-31
      375.218   2.67099e-31
      375.318   2.68672e-31
      375.418   2.70191e-31
      375.518   2.71656e-31
      375.618   2.73067e-31
      375.718   2.74421e-31
      375.818   2.75722e-31
      375.918   2.76968e-31
      376.019   2.78172e-31
      376.119   2.79307e-31
      376.219   2.80382e-31
      376.319   2.81402e-31
      376.420   2.82374e-31
      376.520   2.83276e-31
      376.620   2.84123e-31
      376.721   2.84918e-31
      376.821   2.85647e-31
      376.922   2.86379e-31
      377.022   2.87748e-31
      377.122   2.89843e-31
      377.223   2.91897e-31
      377.323   2.93867e-31
      377.424   2.95793e-31
      377.525   2.97649e-31
      377.625   2.99417e-31
      377.726   3.01136e-31
      377.827   3.02788e-31
      377.927   3.04355e-31
      378.028   3.05865e-31
      378.129   3.07304e-31
      378.230   3.08669e-31
      378.330   3.09944e-31
      378.431   3.11159e-31
      378.532   3.12302e-31
      378.633   3.13371e-31
      378.734   3.14367e-31
      378.835   3.15285e-31
      378.936   3.16133e-31
      379.037   3.16904e-31
      379.138   3.17597e-31
      379.239   3.18219e-31
      379.340   3.18770e-31
      379.441   3.19245e-31
      379.542   3.19643e-31
      379.643   3.19969e-31
      379.745   3.20225e-31
      379.846   3.20403e-31
      379.947   3.20504e-31
      380.048   3.20536e-31
      380.150   3.20497e-31
      380.251   3.20384e-31
      380.352   3.20200e-31
      380.454   3.19943e-31
      380.555   3.19617e-31
      380.656   3.19220e-31
      380.758   3.18752e-31
      380.859   3.18219e-31
      380.961   3.17614e-31
      381.062   3.16947e-31
      381.164   3.16209e-31
      381.266   3.15404e-31
      381.367   3.14543e-31
      381.469   3.13612e-31
      381.570   3.12626e-31
      381.672   3.11567e-31
      381.774   3.10451e-31
      381.876   3.09272e-31
      381.977   3.08128e-31
      382.079   3.07173e-31
      382.181   3.06375e-31
      382.283   3.05513e-31
      382.385   3.04584e-31
      382.487   3.03592e-31
      382.589   3.02536e-31
      382.691   3.01416e-31
      382.793   3.00238e-31
      382.895   2.99001e-31
      382.997   2.97704e-31
      383.099   2.96351e-31
      383.201   2.94941e-31
      383.303   2.93481e-31
      383.405   2.91962e-31
      383.507   2.90389e-31
      383.610   2.88756e-31
      383.712   2.87088e-31
      383.814   2.85371e-31
      383.916   2.83610e-31
      384.019   2.81784e-31
      384.121   2.79932e-31
      384.223   2.78037e-31
      384.326   2.76085e-31
      384.428   2.74100e-31
      384.531   2.72055e-31
      384.633   2.69996e-31
      384.736   2.67880e-31
      384.838   2.65750e-31
      384.941   2.63568e-31
      385.043   2.61376e-31
      385.146   2.59135e-31
      385.249   2.56866e-31
      385.351   2.54592e-31
      385.454   2.52272e-31
      385.557   2.49927e-31
      385.660   2.47561e-31
      385.762   2.45198e-31
      385.865   2.42791e-31
      385.968   2.40365e-31
      386.071   2.37922e-31
      386.174   2.35466e-31
      386.277   2.32995e-31
      386.380   2.30511e-31
      386.483   2.28014e-31
      386.586   2.25511e-31
      386.689   2.22996e-31
      386.792   2.20473e-31
      386.895   2.17943e-31
      386.998   2.15408e-31
      387.101   2.11921e-31
      387.204   2.05209e-31
      387.308   1.97574e-31
      387.411   1.90289e-31
      387.514   1.83273e-31
      387.617   1.76516e-31
      387.721   1.69946e-31
      387.824   1.63677e-31
      387.927   1.57635e-31
      388.031   1.51763e-31
      388.134   1.46162e-31
      388.238   1.40719e-31
      388.341   1.35522e-31
      388.445   1.30471e-31
      388.548   1.25650e-31
      388.652   1.20966e-31
      388.755   1.16498e-31
      388.859   1.12152e-31
      388.962   1.08007e-31
      389.066   1.03975e-31
      389.170   1.00096e-31
      389.274   9.63590e-32
      389.377   9.27940e-32
      389.481   8.93262e-32
      389.585   8.59901e-32
      389.689   8.27767e-32
      389.793   7.96816e-32
      389.897   7.67039e-32
      390.000   7.38615e-32
      390.104   7.10998e-32
      390.208   6.84389e-32
      390.312   6.58779e-32
      390.416   6.34123e-32
      390.520   6.10368e-32
      390.625   5.87276e-32
      390.729   5.65281e-32
      390.833   5.44089e-32
      390.937   5.23690e-32
      391.041   5.04058e-32
      391.145   4.85157e-32
      391.250   4.66779e-32
      391.354   4.49264e-32
      391.458   4.32395e-32
      391.563   4.16001e-32
      391.667   4.00376e-32
      391.771   3.85336e-32
      391.876   3.70717e-32
      391.980   3.56779e-32
      392.085   3.43241e-32
      392.189   3.30335e-32
      392.294   3.17792e-32
      392.398   3.05839e-32
      392.503   2.94224e-32
      392.607   2.83152e-32
      392.712   2.72397e-32
      392.817   2.62041e-32
      392.921   2.52178e-32
      393.026   2.42590e-32
      393.131   2.33369e-32
      393.236   2.24489e-32
      393.340   2.16031e-32
      393.445   2.07815e-32
      393.550   1.99908e-32
      393.655   1.92298e-32
      393.760   1.84980e-32
      393.865   1.77936e-32
      393.970   1.71165e-32
      394.075   1.64644e-32
      394.180   1.58374e-32
      394.285   1.52340e-32
      394.390   1.46537e-32
      394.495   1.40950e-32
      394.600   1.35578e-32
      394.706   1.30362e-32
      394.811   1.25393e-32
      394.916   1.20608e-32
      395.021   1.16007e-32
      395.126   1.11584e-32
      395.232   1.07285e-32
      395.337   1.03190e-32
      395.443   9.92154e-33
      395.548   9.54279e-33
      395.653   9.17853e-33
      395.759   8.82462e-33
      395.864   8.48765e-33
      395.970   8.16041e-33
      396.075   7.84863e-33
      396.181   7.54585e-33
      396.286   7.25730e-33
      396.392   6.97746e-33
      396.498   6.70826e-33
      396.603   6.45155e-33
      396.709   6.20260e-33
      396.815   5.96309e-33
      396.921   5.73271e-33
      397.026   5.51334e-33
      397.132   5.30024e-33
      397.238   5.09549e-33
      397.344   4.89838e-33
      397.450   4.70923e-33
      397.556   4.52702e-33
      397.662   4.35188e-33
      397.768   4.18357e-33
      397.874   4.02163e-33
      397.980   3.86597e-33
      398.086   3.71623e-33
      398.192   3.57236e-33
      398.298   3.43396e-33
      398.404   3.30092e-33
      398.510   3.17298e-33
      398.617   3.04895e-33
      398.723   2.93074e-33
      398.829   2.81704e-33
      398.935   2.70776e-33
      399.042   2.60178e-33
      399.148   2.50076e-33
      399.255   2.40286e-33
      399.361   2.30958e-33
      399.467   2.21982e-33
      399.574   2.13285e-33
      399.680   2.04995e-33
      399.787   1.96954e-33
      399.893       0.00000
      400.000       0.00000
