Filter: C-poly/Ti-poly
observation_date 22-Sept-2015 22:40:45
wavelength effective area 
      1.00000   2.76717e-10
      1.10000   7.88415e-10
      1.20000   2.04493e-09
      1.30000   4.87704e-09
      1.40000   1.10334e-08
      1.50000   2.34600e-08
      1.60000   4.73162e-08
      1.70000   9.14824e-08
      1.80000   1.69557e-07
      1.90000   3.03275e-07
      2.00000   5.24506e-07
      2.10000   8.81006e-07
      2.20000   1.44411e-06
      2.30000   2.30695e-06
      2.40000   3.59807e-06
      2.50000   5.76452e-06
      2.60000   8.92024e-06
      2.70000   1.32921e-05
      2.80000   1.94274e-05
      2.90000   2.81016e-05
      3.00000   4.00132e-05
      3.10000   5.62397e-05
      3.20000   7.81808e-05
      3.30000   0.000107573
      3.40000   0.000146467
      3.50000   0.000197487
      3.60000   0.000265042
      3.70000   0.000351918
      3.80000   0.000465314
      3.90000   0.000611810
      4.00000   0.000799391
      4.10000    0.00103960
      4.20000    0.00134710
      4.30000    0.00174052
      4.40000    0.00224273
      4.50000    0.00288178
      4.60000    0.00369035
      4.70000    0.00472536
      4.80000    0.00604413
      4.90000    0.00763128
      5.00000    0.00988815
      5.10000     0.0126315
      5.20000     0.0161824
      5.30000     0.0205556
      5.40000     0.0260666
      5.50000     0.0331111
      5.60000     0.0407673
      5.70000     0.0528774
      5.80000     0.0618485
      5.90000     0.0942116
      6.00000      0.126338
      6.10000      0.161069
      6.20000      0.197289
      6.30000      0.231613
      6.40000      0.260800
      6.50000      0.281960
      6.60000      0.291022
      6.70000      0.299191
      6.80000      0.298683
      6.90000      0.390624
      7.00000      0.423428
      7.10000      0.446326
      7.20000      0.464048
      7.30000      0.478071
      7.40000      0.488251
      7.50000      0.495887
      7.60000      0.501102
      7.70000      0.502596
      7.80000      0.499445
      7.90000      0.496848
      8.00000      0.715320
      8.10000      0.779531
      8.20000      0.788484
      8.30000      0.793682
      8.40000      0.795708
      8.50000      0.796368
      8.60000      0.795427
      8.70000      0.793426
      8.80000      0.790120
      8.90000      0.785923
      9.00000      0.780794
      9.10000      0.774788
      9.20000      0.768072
      9.30000      0.760594
      9.40000      0.752486
      9.50000      0.743805
      9.60000      0.734529
      9.70000      0.724751
      9.80000      0.714621
      9.90000      0.704175
      10.0000      0.693472
      10.1000      0.682519
      10.2000      0.671343
      10.3000      0.659903
      10.4000      0.648226
      10.5000      0.636335
      10.6000      0.624267
      10.7000      0.612048
      10.8000      0.599696
      10.9000      0.587246
      11.0000      0.574708
      11.1000      0.562111
      11.2000      0.549464
      11.3000      0.536801
      11.4000      0.524124
      11.5000      0.511439
      11.6000      0.498764
      11.7000      0.486072
      11.8000      0.473421
      11.9000      0.460785
      12.0000      0.447691
      12.1000      0.436344
      12.2000      0.432711
      12.3000      0.424513
      12.4000      0.413253
      12.5000      0.401852
      12.6000      0.390482
      12.7000      0.379210
      12.8000      0.368066
      12.9000      0.357058
      13.0000      0.346215
      13.1000      0.335559
      13.2000      0.325098
      13.3000      0.314842
      13.4000      0.304801
      13.5000      0.295063
      13.6000      0.285617
      13.7000      0.276370
      13.8000      0.267319
      13.9000      0.258474
      14.0000      0.249830
      14.1000      0.241380
      14.2000      0.233120
      14.3000      0.225048
      14.4000      0.217158
      14.5000      0.209460
      14.6000      0.201961
      14.7000      0.194640
      14.8000      0.187499
      14.9000      0.180536
      15.0000      0.173751
      15.1000      0.167143
      15.2000      0.160743
      15.3000      0.154525
      15.4000      0.148478
      15.5000      0.142601
      15.6000      0.136900
      15.7000      0.131382
      15.8000      0.126067
      15.9000      0.120922
      16.0000      0.115942
      16.1000      0.111125
      16.2000      0.106506
      16.3000      0.102046
      16.4000     0.0977259
      16.5000     0.0935415
      16.6000     0.0895093
      16.7000     0.0856313
      16.8000     0.0818754
      16.9000     0.0782383
      17.0000     0.0747425
      17.1000     0.0713848
      17.2000     0.0681343
      17.3000     0.0649930
      17.4000     0.0620455
      17.5000     0.0592559
      17.6000     0.0565986
      17.7000     0.0540899
      17.8000     0.0517819
      17.9000     0.0495513
      18.0000     0.0473815
      18.1000     0.0453075
      18.2000     0.0432830
      18.3000     0.0413007
      18.4000     0.0393721
      18.5000     0.0374945
      18.6000     0.0356540
      18.7000     0.0338584
      18.8000     0.0321427
      18.9000     0.0304842
      19.0000     0.0289078
      19.1000     0.0274080
      19.2000     0.0259621
      19.3000     0.0246014
      19.4000     0.0233060
      19.5000     0.0220584
      19.6000     0.0208985
      19.7000     0.0197860
      19.8000     0.0187158
      19.9000     0.0177227
      20.0000     0.0167621
      20.1000     0.0158473
      20.2000     0.0149831
      20.3000     0.0141465
      20.4000     0.0133626
      20.5000     0.0126106
      20.6000     0.0118874
      20.7000     0.0112130
      20.8000     0.0105590
      20.9000    0.00994370
      21.0000    0.00937627
      21.1000    0.00884562
      21.2000    0.00840526
      21.3000    0.00799164
      21.4000    0.00763479
      21.5000    0.00733085
      21.6000    0.00708015
      21.7000    0.00683222
      21.8000    0.00658592
      21.9000    0.00633580
      22.0000    0.00608179
      22.1000    0.00581642
      22.2000    0.00552520
      22.3000    0.00521193
      22.4000    0.00481093
      22.5000    0.00438422
      22.6000    0.00362587
      22.7000    0.00322285
      22.8000    0.00461343
      22.9000    0.00612306
      23.0000    0.00753079
      23.1000    0.00830876
      23.2000    0.00848749
      23.3000    0.00829925
      23.4000    0.00792606
      23.5000    0.00756349
      23.6000    0.00720503
      23.7000    0.00685188
      23.8000    0.00650180
      23.9000    0.00617531
      24.0000    0.00585316
      24.1000    0.00554963
      24.2000    0.00525249
      24.3000    0.00497496
      24.4000    0.00470454
      24.5000    0.00445068
      24.6000    0.00420480
      24.7000    0.00397450
      24.8000    0.00375209
      24.9000    0.00354335
      25.0000    0.00334235
      25.1000    0.00315409
      25.2000    0.00297287
      25.3000    0.00280330
      25.4000    0.00264010
      25.5000    0.00248822
      25.6000    0.00234190
      25.7000    0.00220680
      25.8000    0.00207582
      25.9000    0.00195514
      26.0000    0.00183744
      26.1000    0.00172982
      26.2000    0.00162404
      26.3000    0.00152837
      26.4000    0.00143340
      26.5000    0.00134845
      26.6000    0.00126405
      26.7000    0.00118798
      26.8000    0.00111337
      26.9000    0.00104511
      27.0000   0.000979123
      27.1000   0.000917690
      27.2000   0.000859278
      27.3000    0.00349337
      27.4000    0.00947482
      27.5000     0.0137371
      27.6000     0.0131806
      27.7000     0.0126291
      27.8000     0.0121070
      27.9000     0.0115882
      28.0000     0.0111022
      28.1000     0.0106250
      28.2000     0.0101708
      28.3000    0.00973289
      28.4000    0.00930856
      28.5000    0.00890751
      28.6000    0.00851119
      28.7000    0.00814577
      28.8000    0.00778272
      28.9000    0.00744298
      29.0000    0.00711142
      29.1000    0.00679371
      29.2000    0.00649136
      29.3000    0.00619425
      29.4000    0.00591916
      29.5000    0.00564591
      29.6000    0.00539158
      29.7000    0.00514345
      29.8000    0.00490552
      29.9000    0.00468067
      30.0000    0.00445807
      30.1000    0.00425467
      30.2000    0.00405264
      30.3000    0.00413182
      30.4000    0.00437039
      30.5000    0.00451387
      30.6000    0.00431006
      30.7000    0.00410765
      30.8000    0.00391970
      30.9000    0.00373697
      31.0000    0.00356033
      31.1000    0.00339582
      31.2000    0.00323244
      31.3000    0.00308200
      31.4000    0.00293514
      31.5000    0.00279360
      31.6000    0.00266212
      31.7000    0.00253155
      31.8000    0.00241133
      31.9000    0.00229433
      32.0000    0.00218065
      32.1000    0.00207498
      32.2000    0.00197006
      32.3000    0.00187296
      32.4000    0.00177967
      32.5000    0.00168830
      32.6000    0.00160759
      32.7000    0.00152749
      32.8000    0.00145198
      32.9000    0.00138087
      33.0000    0.00131027
      33.1000    0.00124904
      33.2000    0.00118948
      33.3000    0.00113170
      33.4000    0.00107866
      33.5000    0.00102601
      33.6000   0.000976684
      33.7000   0.000929931
      33.8000   0.000883499
      33.9000   0.000841488
      34.0000   0.000800332
      34.1000   0.000760278
      34.2000   0.000723924
      34.3000   0.000687811
      34.4000   0.000653586
      34.5000   0.000621710
      34.6000   0.000590048
      34.7000   0.000560838
      34.8000   0.000532865
      34.9000   0.000505079
      35.0000   0.000480229
      35.1000   0.000455829
      35.2000   0.000431909
      35.3000   0.000410758
      35.4000   0.000389748
      35.5000   0.000369556
      35.6000   0.000351165
      35.7000   0.000332898
      35.8000   0.000315678
      35.9000   0.000299726
      36.0000   0.000283883
      36.1000   0.000269209
      36.2000   0.000255408
      36.3000   0.000241701
      36.4000   0.000229201
      36.5000   0.000217287
      36.6000   0.000205455
      36.7000   0.000194811
      36.8000   0.000184556
      36.9000   0.000174373
      37.0000   0.000165310
      37.1000   0.000156508
      37.2000   0.000147766
      37.3000   0.000140048
      37.4000   0.000132512
      37.5000   0.000125029
      37.6000   0.000118454
      37.7000   0.000112019
      37.8000   0.000105630
      37.9000   0.000100025
      38.0000   9.45473e-05
      38.1000   8.91085e-05
      38.2000   8.43247e-05
      38.3000   7.96735e-05
      38.4000   7.50552e-05
      38.5000   7.09692e-05
      38.6000   6.70317e-05
      38.7000   6.31222e-05
      38.8000   5.96285e-05
      38.9000   5.63049e-05
      39.0000   5.30048e-05
      39.1000   5.00142e-05
      39.2000   4.72172e-05
      39.3000   4.44402e-05
      39.4000   4.18773e-05
      39.5000   3.95309e-05
      39.6000   3.72015e-05
      39.7000   3.50028e-05
      39.8000   3.30406e-05
      39.9000   3.10926e-05
      40.0000   2.92046e-05
      40.1000   2.75698e-05
      40.2000   2.59469e-05
      40.3000   2.43360e-05
      40.4000   2.29662e-05
      40.5000   2.16174e-05
      40.6000   2.02783e-05
      40.7000   1.90962e-05
      40.8000   1.79784e-05
      40.9000   1.68688e-05
      41.0000   1.58475e-05
      41.1000   1.49243e-05
      41.2000   1.40080e-05
      41.3000   1.31254e-05
      41.4000   1.23662e-05
      41.5000   1.16126e-05
      41.6000   1.08646e-05
      41.7000   1.02269e-05
      41.8000   9.60873e-06
      41.9000   8.99516e-06
      42.0000   8.44033e-06
      42.1000   7.93523e-06
      42.2000   7.43387e-06
      42.3000   6.95101e-06
      42.4000   6.53962e-06
      42.5000   6.13126e-06
      42.6000   5.72596e-06
      42.7000   5.37754e-06
      42.8000   5.04607e-06
      42.9000   4.71705e-06
      43.0000   4.41154e-06
      43.1000   4.14351e-06
      43.2000   3.87750e-06
      43.3000   3.61349e-06
      43.4000     0.0121346
      43.5000     0.0273203
      43.6000     0.0476426
      43.7000     0.0665405
      43.8000     0.0753360
      43.9000     0.0764791
      44.0000     0.0747650
      44.1000     0.0703981
      44.2000     0.0690071
      44.3000     0.0678755
      44.4000     0.0667650
      44.5000     0.0656814
      44.6000     0.0646007
      44.7000     0.0635229
      44.8000     0.0624864
      44.9000     0.0614583
      45.0000     0.0604328
      45.1000     0.0594219
      45.2000     0.0584419
      45.3000     0.0574646
      45.4000     0.0564898
      45.5000     0.0555444
      45.6000     0.0546142
      45.7000     0.0536864
      45.8000     0.0527625
      45.9000     0.0518776
      46.0000     0.0509950
      46.1000     0.0501147
      46.2000     0.0492720
      46.3000     0.0484925
      46.4000     0.0477151
      46.5000     0.0469397
      46.6000     0.0461949
      46.7000     0.0454664
      46.8000     0.0447399
      46.9000     0.0440152
      47.0000     0.0433318
      47.1000     0.0426528
      47.2000     0.0419756
      47.3000     0.0413054
      47.4000     0.0406616
      47.5000     0.0400194
      47.6000     0.0393789
      47.7000     0.0387524
      47.8000     0.0381472
      47.9000     0.0375435
      48.0000     0.0369415
      48.1000     0.0363559
      48.2000     0.0357833
      48.3000     0.0352122
      48.4000     0.0346426
      48.5000     0.0340961
      48.6000     0.0335597
      48.7000     0.0330247
      48.8000     0.0324910
      48.9000     0.0319790
      49.0000     0.0314724
      49.1000     0.0309671
      49.2000     0.0304632
      49.3000     0.0299810
      49.4000     0.0295017
      49.5000     0.0290237
      49.6000     0.0285469
      49.7000     0.0280919
      49.8000     0.0276386
      49.9000     0.0271865
      50.0000     0.0267359
      50.1000     0.0263033
      50.2000     0.0258927
      50.3000     0.0254876
      50.4000     0.0250884
      50.5000     0.0246943
      50.6000     0.0243058
      50.7000     0.0239230
      50.8000     0.0235456
      50.9000     0.0231742
      51.0000     0.0228103
      51.1000     0.0224526
      51.2000     0.0220996
      51.3000     0.0217519
      51.4000     0.0214099
      51.5000     0.0210717
      51.6000     0.0207382
      51.7000     0.0204090
      51.8000     0.0200806
      51.9000     0.0197568
      52.0000     0.0194371
      52.1000     0.0191220
      52.2000     0.0188114
      52.3000     0.0185049
      52.4000     0.0182035
      52.5000     0.0179065
      52.6000     0.0176079
      52.7000     0.0173080
      52.8000     0.0170121
      52.9000     0.0167210
      53.0000     0.0164347
      53.1000     0.0161523
      53.2000     0.0158746
      53.3000     0.0156010
      53.4000     0.0153312
      53.5000     0.0150659
      53.6000     0.0148046
      53.7000     0.0145469
      53.8000     0.0142936
      53.9000     0.0140439
      54.0000     0.0137982
      54.1000     0.0135571
      54.2000     0.0133194
      54.3000     0.0130850
      54.4000     0.0128543
      54.5000     0.0126270
      54.6000     0.0124035
      54.7000     0.0121840
      54.8000     0.0119679
      54.9000     0.0117550
      55.0000     0.0115456
      55.1000     0.0113391
      55.2000     0.0111307
      55.3000     0.0109216
      55.4000     0.0107158
      55.5000     0.0105132
      55.6000     0.0103141
      55.7000     0.0101184
      55.8000    0.00992577
      55.9000    0.00973647
      56.0000    0.00955208
      56.1000    0.00936830
      56.2000    0.00918544
      56.3000    0.00900587
      56.4000    0.00882933
      56.5000    0.00865575
      56.6000    0.00848535
      56.7000    0.00831811
      56.8000    0.00815355
      56.9000    0.00799222
      57.0000    0.00783665
      57.1000    0.00768565
      57.2000    0.00753714
      57.3000    0.00739122
      57.4000    0.00724769
      57.5000    0.00710670
      57.6000    0.00696808
      57.7000    0.00683177
      57.8000    0.00669815
      57.9000    0.00656712
      58.0000    0.00643827
      58.1000    0.00631132
      58.2000    0.00618681
      58.3000    0.00606450
      58.4000    0.00594425
      58.5000    0.00582613
      58.6000    0.00571041
      58.7000    0.00559667
      58.8000    0.00548490
      58.9000    0.00537506
      59.0000    0.00526721
      59.1000    0.00516128
      59.2000    0.00505734
      59.3000    0.00495532
      59.4000    0.00485517
      59.5000    0.00475681
      59.6000    0.00466032
      59.7000    0.00456549
      59.8000    0.00447236
      59.9000    0.00438088
      60.0000    0.00429129
      60.1000    0.00420328
      60.2000    0.00411689
      60.3000    0.00403213
      60.4000    0.00394896
      60.5000    0.00386745
      60.6000    0.00378734
      60.7000    0.00370864
      60.8000    0.00363136
      60.9000    0.00355550
      61.0000    0.00348109
      61.1000    0.00340823
      61.2000    0.00333669
      61.3000    0.00326657
      61.4000    0.00319772
      61.5000    0.00313023
      61.6000    0.00306396
      61.7000    0.00299915
      61.8000    0.00293642
      61.9000    0.00287523
      62.0000    0.00281518
      62.1000    0.00275625
      62.2000    0.00269854
      62.3000    0.00264190
      62.4000    0.00258634
      62.5000    0.00253178
      62.6000    0.00247828
      62.7000    0.00242591
      62.8000    0.00237651
      62.9000    0.00232805
      63.0000    0.00228051
      63.1000    0.00223388
      63.2000    0.00218807
      63.3000    0.00214308
      63.4000    0.00209890
      63.5000    0.00205570
      63.6000    0.00201324
      63.7000    0.00197156
      63.8000    0.00193071
      63.9000    0.00189064
      64.0000    0.00185134
      64.1000    0.00181274
      64.2000    0.00177499
      64.3000    0.00173796
      64.4000    0.00170160
      64.5000    0.00166589
      64.6000    0.00163084
      64.7000    0.00159649
      64.8000    0.00156276
      64.9000    0.00152970
      65.0000    0.00149727
      65.1000    0.00146556
      65.2000    0.00143449
      65.3000    0.00140397
      65.4000    0.00137406
      65.5000    0.00134470
      65.6000    0.00131589
      65.7000    0.00128764
      65.8000    0.00125996
      65.9000    0.00123291
      66.0000    0.00120639
      66.1000    0.00118042
      66.2000    0.00115497
      66.3000    0.00112999
      66.4000    0.00110552
      66.5000    0.00108150
      66.6000    0.00105796
      66.7000    0.00103489
      66.8000    0.00101231
      66.9000   0.000990617
      67.0000   0.000969727
      67.1000   0.000949316
      67.2000   0.000929323
      67.3000   0.000909710
      67.4000   0.000890486
      67.5000   0.000871620
      67.6000   0.000853120
      67.7000   0.000835001
      67.8000   0.000817205
      67.9000   0.000799721
      68.0000   0.000782648
      68.1000   0.000765983
      68.2000   0.000749647
      68.3000   0.000733623
      68.4000   0.000717929
      68.5000   0.000702564
      68.6000   0.000687491
      68.7000   0.000672733
      68.8000   0.000658264
      68.9000   0.000644241
      69.0000   0.000631410
      69.1000   0.000619659
      69.2000   0.000608281
      69.3000   0.000597226
      69.4000   0.000586574
      69.5000   0.000575844
      69.6000   0.000564946
      69.7000   0.000554462
      69.8000   0.000544455
      69.9000   0.000534626
      70.0000   0.000524940
      70.1000   0.000515277
      70.2000   0.000506042
      70.3000   0.000497235
      70.4000   0.000488521
      70.5000   0.000480031
      70.6000   0.000471761
      70.7000   0.000463644
      70.8000   0.000455642
      70.9000   0.000447559
      71.0000   0.000439414
      71.1000   0.000431608
      71.2000   0.000424149
      71.3000   0.000416416
      71.4000   0.000408326
      71.5000   0.000400791
      71.6000   0.000394019
      71.7000   0.000387258
      71.8000   0.000380391
      71.9000   0.000373748
      72.0000   0.000367518
      72.1000   0.000361248
      72.2000   0.000354347
      72.3000   0.000347584
      72.4000   0.000341508
      72.5000   0.000335540
      72.6000   0.000329673
      72.7000   0.000323919
      72.8000   0.000318258
      72.9000   0.000312689
      73.0000   0.000307315
      73.1000   0.000302075
      73.2000   0.000296920
      73.3000   0.000291857
      73.4000   0.000286909
      73.5000   0.000282101
      73.6000   0.000277379
      73.7000   0.000272739
      73.8000   0.000268170
      73.9000   0.000263672
      74.0000   0.000259263
      74.1000   0.000255176
      74.2000   0.000251230
      74.3000   0.000247094
      74.4000   0.000242829
      74.5000   0.000238685
      74.6000   0.000234721
      74.7000   0.000230821
      74.8000   0.000226998
      74.9000   0.000223265
      75.0000   0.000219570
      75.1000   0.000215921
      75.2000   0.000212331
      75.3000   0.000208796
      75.4000   0.000205337
      75.5000   0.000201988
      75.6000   0.000198691
      75.7000   0.000195443
      75.8000   0.000192257
      75.9000   0.000189154
      76.0000   0.000186120
      76.1000   0.000183271
      76.2000   0.000180486
      76.3000   0.000177742
      76.4000   0.000175073
      76.5000   0.000172448
      76.6000   0.000169857
      76.7000   0.000167299
      76.8000   0.000164780
      76.9000   0.000162301
      77.0000   0.000159857
      77.1000   0.000157449
      77.2000   0.000155079
      77.3000   0.000152740
      77.4000   0.000150433
      77.5000   0.000148160
      77.6000   0.000145887
      77.7000   0.000143642
      77.8000   0.000141429
      77.9000   0.000139248
      78.0000   0.000137075
      78.1000   0.000134875
      78.2000   0.000132714
      78.3000   0.000130714
      78.4000   0.000128787
      78.5000   0.000126876
      78.6000   0.000124954
      78.7000   0.000123059
      78.8000   0.000121141
      78.9000   0.000119241
      79.0000   0.000117367
      79.1000   0.000115519
      79.2000   0.000113703
      79.3000   0.000111955
      79.4000   0.000110245
      79.5000   0.000108548
      79.6000   0.000106837
      79.7000   0.000105150
      79.8000   0.000103467
      79.9000   0.000101799
      80.0000   0.000100155
      80.1000   9.84900e-05
      80.2000   9.68466e-05
      80.3000   9.51831e-05
      80.4000   9.35030e-05
      80.5000   9.18473e-05
      80.6000   9.02184e-05
      80.7000   8.86170e-05
      80.8000   8.70488e-05
      80.9000   8.55212e-05
      81.0000   8.40201e-05
      81.1000   8.25467e-05
      81.2000   8.10973e-05
      81.3000   7.96722e-05
      81.4000   7.83502e-05
      81.5000   7.70543e-05
      81.6000   7.58008e-05
      81.7000   7.46127e-05
      81.8000   7.34464e-05
      81.9000   7.23299e-05
      82.0000   7.12445e-05
      82.1000   7.01770e-05
      82.2000   6.91014e-05
      82.3000   6.80426e-05
      82.4000   6.70149e-05
      82.5000   6.60261e-05
      82.6000   6.50502e-05
      82.7000   6.40686e-05
      82.8000   6.30766e-05
      82.9000   6.20983e-05
      83.0000   6.11425e-05
      83.1000   6.02039e-05
      83.2000   5.92780e-05
      83.3000   5.83653e-05
      83.4000   5.74683e-05
      83.5000   5.65875e-05
      83.6000   5.57339e-05
      83.7000   5.48930e-05
      83.8000   5.40605e-05
      83.9000   5.32298e-05
      84.0000   5.24095e-05
      84.1000   5.16096e-05
      84.2000   5.08365e-05
      84.3000   5.00736e-05
      84.4000   4.93143e-05
      84.5000   4.85607e-05
      84.6000   4.78182e-05
      84.7000   4.70952e-05
      84.8000   4.63872e-05
      84.9000   4.56914e-05
      85.0000   4.49939e-05
      85.1000   4.43027e-05
      85.2000   4.36213e-05
      85.3000   4.29687e-05
      85.4000   4.23289e-05
      85.5000   4.16990e-05
      85.6000   4.10681e-05
      85.7000   4.04456e-05
      85.8000   3.98319e-05
      85.9000   3.92267e-05
      86.0000   3.86292e-05
      86.1000   3.80400e-05
      86.2000   3.74726e-05
      86.3000   3.69139e-05
      86.4000   3.63628e-05
      86.5000   3.58187e-05
      86.6000   3.52820e-05
      86.7000   3.47531e-05
      86.8000   3.42050e-05
      86.9000   3.36637e-05
      87.0000   3.31312e-05
      87.1000   3.26130e-05
      87.2000   3.21035e-05
      87.3000   3.16015e-05
      87.4000   3.10981e-05
      87.5000   3.06005e-05
      87.6000   3.01098e-05
      87.7000   2.96313e-05
      87.8000   2.91606e-05
      87.9000   2.86973e-05
      88.0000   2.82414e-05
      88.1000   2.77916e-05
      88.2000   2.73483e-05
      88.3000   2.69180e-05
      88.4000   2.65006e-05
      88.5000   2.60912e-05
      88.6000   2.56852e-05
      88.7000   2.52816e-05
      88.8000   2.48842e-05
      88.9000   2.44923e-05
      89.0000   2.41053e-05
      89.1000   2.37241e-05
      89.2000   2.33498e-05
      89.3000   2.29847e-05
      89.4000   2.26296e-05
      89.5000   2.22795e-05
      89.6000   2.19346e-05
      89.7000   2.15943e-05
      89.8000   2.12587e-05
      89.9000   2.09275e-05
      90.0000   2.06008e-05
      90.1000   2.02796e-05
      90.2000   1.99584e-05
      90.3000   1.96308e-05
      90.4000   1.93079e-05
      90.5000   1.89901e-05
      90.6000   1.86819e-05
      90.7000   1.83779e-05
      90.8000   1.80764e-05
      90.9000   1.77751e-05
      91.0000   1.74773e-05
      91.1000   1.71846e-05
      91.2000   1.68936e-05
      91.3000   1.66026e-05
      91.4000   1.63155e-05
      91.5000   1.60335e-05
      91.6000   1.57566e-05
      91.7000   1.55005e-05
      91.8000   1.52735e-05
      91.9000   1.50794e-05
      92.0000   1.48696e-05
      92.1000   1.46588e-05
      92.2000   1.44406e-05
      92.3000   1.42162e-05
      92.4000   1.39899e-05
      92.5000   1.37677e-05
      92.6000   1.35489e-05
      92.7000   1.33332e-05
      92.8000   1.31206e-05
      92.9000   1.29131e-05
      93.0000   1.27130e-05
      93.1000   1.25156e-05
      93.2000   1.23212e-05
      93.3000   1.21344e-05
      93.4000   1.19521e-05
      93.5000   1.17722e-05
      93.6000   1.15949e-05
      93.7000   1.14203e-05
      93.8000   1.12496e-05
      93.9000   1.10812e-05
      94.0000   1.09152e-05
      94.1000   1.07515e-05
      94.2000   1.05903e-05
      94.3000   1.04323e-05
      94.4000   1.02795e-05
      94.5000   1.01289e-05
      94.6000   9.98071e-06
      94.7000   9.83485e-06
      94.8000   9.69079e-06
      94.9000   9.54856e-06
      95.0000   9.40825e-06
      95.1000   9.27047e-06
      95.2000   9.13419e-06
      95.3000   8.99947e-06
      95.4000   8.86672e-06
      95.5000   8.73774e-06
      95.6000   8.61048e-06
      95.7000   8.48490e-06
      95.8000   8.35983e-06
      95.9000   8.23616e-06
      96.0000   8.11406e-06
      96.1000   7.99343e-06
      96.2000   7.87427e-06
      96.3000   7.75712e-06
      96.4000   7.64151e-06
      96.5000   7.52749e-06
      96.6000   7.41540e-06
      96.7000   7.30545e-06
      96.8000   7.19670e-06
      96.9000   7.08920e-06
      97.0000   6.98307e-06
      97.1000   6.87904e-06
      97.2000   6.77635e-06
      97.3000   6.67402e-06
      97.4000   6.57225e-06
      97.5000   6.47236e-06
      97.6000   6.37388e-06
      97.7000   6.27720e-06
      97.8000   6.18218e-06
      97.9000   6.08866e-06
      98.0000   5.99627e-06
      98.1000   5.90501e-06
      98.2000   5.81520e-06
      98.3000   5.73122e-06
      98.4000   5.65038e-06
      98.5000   5.57190e-06
      98.6000   5.49454e-06
      98.7000   5.41820e-06
      98.8000   5.34272e-06
      98.9000   5.26813e-06
      99.0000   5.19482e-06
      99.1000   5.12241e-06
      99.2000   5.05061e-06
      99.3000   4.97832e-06
      99.4000   4.90727e-06
      99.5000   4.83711e-06
      99.6000   4.76813e-06
      99.7000   4.70234e-06
      99.8000   4.63844e-06
      99.9000   4.58400e-06
      100.000   4.54359e-06
      100.100   4.50195e-06
      100.200   4.46058e-06
      100.300   4.41950e-06
      100.400   4.37876e-06
      100.500   4.33896e-06
      100.600   4.29940e-06
      100.700   4.26008e-06
      100.800   4.22099e-06
      100.900   4.18219e-06
      101.000   4.14377e-06
      101.100   4.10575e-06
      101.200   4.06807e-06
      101.300   4.03068e-06
      101.400   3.99359e-06
      101.500   3.95547e-06
      101.600   3.91597e-06
      101.700   3.87720e-06
      101.800   3.83885e-06
      101.900   3.80077e-06
      102.000   3.76312e-06
      102.100   3.72640e-06
      102.200   3.69031e-06
      102.300   3.65454e-06
      102.400   3.61905e-06
      102.500   3.58382e-06
      102.600   3.54882e-06
      102.700   3.51407e-06
      102.800   3.47960e-06
      102.900   3.44540e-06
      103.000   3.41148e-06
      103.100   3.37781e-06
      103.200   3.34444e-06
      103.300   3.31137e-06
      103.400   3.27862e-06
      103.500   3.24618e-06
      103.600   3.21399e-06
      103.700   3.18198e-06
      103.800   3.14948e-06
      103.900   3.11639e-06
      104.000   3.08361e-06
      104.100   3.05118e-06
      104.200   3.01939e-06
      104.300   2.99006e-06
      104.400   2.96103e-06
      104.500   2.93226e-06
      104.600   2.90371e-06
      104.700   2.87470e-06
      104.800   2.84563e-06
      104.900   2.81677e-06
      105.000   2.78814e-06
      105.100   2.76028e-06
      105.200   2.73385e-06
      105.300   2.70767e-06
      105.400   2.68172e-06
      105.500   2.65595e-06
      105.600   2.63063e-06
      105.700   2.60558e-06
      105.800   2.58073e-06
      105.900   2.55608e-06
      106.000   2.53199e-06
      106.100   2.50886e-06
      106.200   2.48593e-06
      106.300   2.46318e-06
      106.400   2.44061e-06
      106.500   2.41821e-06
      106.600   2.39600e-06
      106.700   2.37394e-06
      106.800   2.35203e-06
      106.900   2.33031e-06
      107.000   2.30877e-06
      107.100   2.28742e-06
      107.200   2.26627e-06
      107.300   2.24531e-06
      107.400   2.22447e-06
      107.500   2.20375e-06
      107.600   2.18322e-06
      107.700   2.16288e-06
      107.800   2.14272e-06
      107.900   2.12258e-06
      108.000   2.10260e-06
      108.100   2.08275e-06
      108.200   2.06303e-06
      108.300   2.04345e-06
      108.400   2.02387e-06
      108.500   2.00444e-06
      108.600   1.98516e-06
      108.700   1.96600e-06
      108.800   1.94648e-06
      108.900   1.92641e-06
      109.000   1.90652e-06
      109.100   1.88680e-06
      109.200   1.86726e-06
      109.300   1.84789e-06
      109.400   1.82868e-06
      109.500   1.80965e-06
      109.600   1.79080e-06
      109.700   1.77214e-06
      109.800   1.75369e-06
      109.900   1.73544e-06
      110.000   1.71735e-06
      110.100   1.69944e-06
      110.200   1.68169e-06
      110.300   1.66438e-06
      110.400   1.64726e-06
      110.500   1.63031e-06
      110.600   1.61351e-06
      110.700   1.59684e-06
      110.800   1.58030e-06
      110.900   1.56389e-06
      111.000   1.54760e-06
      111.100   1.53144e-06
      111.200   1.51544e-06
      111.300   1.50008e-06
      111.400   1.48485e-06
      111.500   1.46974e-06
      111.600   1.45476e-06
      111.700   1.43993e-06
      111.800   1.42555e-06
      111.900   1.41131e-06
      112.000   1.39721e-06
      112.100   1.38323e-06
      112.200   1.36937e-06
      112.300   1.35533e-06
      112.400   1.34140e-06
      112.500   1.32762e-06
      112.600   1.31398e-06
      112.700   1.30052e-06
      112.800   1.28748e-06
      112.900   1.27384e-06
      113.000   1.26057e-06
      113.100   1.24751e-06
      113.200   1.23444e-06
      113.300   1.22163e-06
      113.400   1.20739e-06
      113.500   1.19291e-06
      113.600   1.17988e-06
      113.700   1.16658e-06
      113.800   1.15251e-06
      113.900   1.13986e-06
      114.000   1.12733e-06
      114.100   1.11403e-06
      114.200   1.10131e-06
      114.300   1.08942e-06
      114.400   1.07744e-06
      114.500   1.06538e-06
      114.600   1.05434e-06
      114.700   1.04273e-06
      114.800   1.03168e-06
      114.900   1.02177e-06
      115.000   1.01120e-06
      115.100   1.00028e-06
      115.200   9.89421e-07
      115.300   9.79582e-07
      115.400   9.68965e-07
      115.500   9.58876e-07
      115.600   9.48523e-07
      115.700   9.37728e-07
      115.800   9.27745e-07
      115.900   9.17471e-07
      116.000   9.07898e-07
      116.100   8.99338e-07
      116.200   8.90769e-07
      116.300   8.82107e-07
      116.400   8.73220e-07
      116.500   8.65049e-07
      116.600   8.56737e-07
      116.700   8.48647e-07
      116.800   8.40430e-07
      116.900   8.31510e-07
      117.000   8.23533e-07
      117.100   8.18083e-07
      117.200   8.14383e-07
      117.300   8.09005e-07
      117.400   8.03541e-07
      117.500   7.98131e-07
      117.600   7.91785e-07
      117.700   7.85113e-07
      117.800   7.77993e-07
      117.900   7.70679e-07
      118.000   7.62952e-07
      118.100   7.54841e-07
      118.200   7.47155e-07
      118.300   7.39683e-07
      118.400   7.30535e-07
      118.500   7.21619e-07
      118.600   7.13576e-07
      118.700   7.05329e-07
      118.800   6.96784e-07
      118.900   6.88579e-07
      119.000   6.79551e-07
      119.100   6.69610e-07
      119.200   6.60673e-07
      119.300   6.52573e-07
      119.400   6.44965e-07
      119.500   6.37616e-07
      119.600   6.29769e-07
      119.700   6.21339e-07
      119.800   6.11695e-07
      119.900   6.00450e-07
      120.000   5.89894e-07
      120.100   5.79907e-07
      120.200   5.72119e-07
      120.300   5.65605e-07
      120.400   5.59139e-07
      120.500   5.51084e-07
      120.600   5.41873e-07
      120.700   5.32379e-07
      120.800   5.23264e-07
      120.900   5.16360e-07
      121.000   5.12784e-07
      121.100   5.08650e-07
      121.200   5.02935e-07
      121.300   4.96134e-07
      121.400   4.88547e-07
      121.500   4.80403e-07
      121.600   4.69874e-07
      121.700   4.60475e-07
      121.800   4.50339e-07
      121.900   4.40234e-07
      122.000   4.29692e-07
      122.100   4.19733e-07
      122.200   4.09991e-07
      122.300   4.02384e-07
      122.400   3.97028e-07
      122.500   3.92183e-07
      122.600   3.87117e-07
      122.700   3.82085e-07
      122.800   3.76631e-07
      122.900   3.71511e-07
      123.000   3.68857e-07
      123.100   3.70384e-07
      123.200   3.72151e-07
      123.300   3.75993e-07
      123.400   3.81511e-07
      123.500   3.89413e-07
      123.600   3.95796e-07
      123.700   3.97957e-07
      123.800   3.98906e-07
      123.900   4.00988e-07
      124.000   4.04899e-07
      124.100   4.14811e-07
      124.200   4.37436e-07
      124.300   4.72212e-07
      124.400   5.05233e-07
      124.500   5.12563e-07
      124.600   5.08146e-07
      124.700   5.02432e-07
      124.800   4.96909e-07
      124.900   4.91428e-07
      125.000   4.85987e-07
      125.100   4.80559e-07
      125.200   4.75178e-07
      125.300   4.69848e-07
      125.400   4.64569e-07
      125.500   4.59343e-07
      125.600   4.54166e-07
      125.700   4.49044e-07
      125.800   4.43971e-07
      125.900   4.38953e-07
      126.000   4.33989e-07
      126.100   4.29079e-07
      126.200   4.24223e-07
      126.300   4.19419e-07
      126.400   4.14666e-07
      126.500   4.09962e-07
      126.600   4.05308e-07
      126.700   4.00701e-07
      126.800   3.96141e-07
      126.900   3.91626e-07
      127.000   3.87149e-07
      127.100   3.82695e-07
      127.200   3.78276e-07
      127.300   3.73895e-07
      127.400   3.69558e-07
      127.500   3.65264e-07
      127.600   3.61013e-07
      127.700   3.56805e-07
      127.800   3.52642e-07
      127.900   3.48521e-07
      128.000   3.44443e-07
      128.100   3.40407e-07
      128.200   3.36412e-07
      128.300   3.32457e-07
      128.400   3.28543e-07
      128.500   3.24668e-07
      128.600   3.20832e-07
      128.700   3.17037e-07
      128.800   3.13282e-07
      128.900   3.09567e-07
      129.000   3.05893e-07
      129.100   3.02253e-07
      129.200   2.98635e-07
      129.300   2.95055e-07
      129.400   2.91515e-07
      129.500   2.88017e-07
      129.600   2.84557e-07
      129.700   2.81138e-07
      129.800   2.77756e-07
      129.900   2.74415e-07
      130.000   2.71111e-07
      130.100   2.67844e-07
      130.200   2.64613e-07
      130.300   2.61419e-07
      130.400   2.58261e-07
      130.500   2.55137e-07
      130.600   2.52049e-07
      130.700   2.48996e-07
      130.800   2.45977e-07
      130.900   2.42994e-07
      131.000   2.40042e-07
      131.100   2.37124e-07
      131.200   2.34235e-07
      131.300   2.31374e-07
      131.400   2.28543e-07
      131.500   2.25743e-07
      131.600   2.22973e-07
      131.700   2.20233e-07
      131.800   2.17523e-07
      131.900   2.14842e-07
      132.000   2.12191e-07
      132.100   2.09569e-07
      132.200   2.06976e-07
      132.300   2.04412e-07
      132.400   2.01877e-07
      132.500   1.99372e-07
      132.600   1.96897e-07
      132.700   1.94451e-07
      132.800   1.92034e-07
      132.900   1.89644e-07
      133.000   1.87282e-07
      133.100   1.84947e-07
      133.200   1.82638e-07
      133.300   1.80355e-07
      133.400   1.78096e-07
      133.500   1.75863e-07
      133.600   1.73656e-07
      133.700   1.71474e-07
      133.800   1.69317e-07
      133.900   1.67186e-07
      134.000   1.65080e-07
      134.100   1.62998e-07
      134.200   1.60941e-07
      134.300   1.58906e-07
      134.400   1.56895e-07
      134.500   1.54908e-07
      134.600   1.52944e-07
      134.700   1.51002e-07
      134.800   1.49084e-07
      134.900   1.47188e-07
      135.000   1.45314e-07
      135.100   1.43463e-07
      135.200   1.41634e-07
      135.300   1.39827e-07
      135.400   1.38042e-07
      135.500   1.36276e-07
      135.600   1.34530e-07
      135.700   1.32805e-07
      135.800   1.31100e-07
      135.900   1.29415e-07
      136.000   1.27750e-07
      136.100   1.26105e-07
      136.200   1.24481e-07
      136.300   1.22875e-07
      136.400   1.21289e-07
      136.500   1.19721e-07
      136.600   1.18172e-07
      136.700   1.16641e-07
      136.800   1.15127e-07
      136.900   1.13632e-07
      137.000   1.12154e-07
      137.100   1.10693e-07
      137.200   1.09249e-07
      137.300   1.07824e-07
      137.400   1.06417e-07
      137.500   1.05025e-07
      137.600   1.03669e-07
      137.700   1.02376e-07
      137.800   1.01133e-07
      137.900   9.99034e-08
      138.000   9.86877e-08
      138.100   9.74853e-08
      138.200   9.62976e-08
      138.300   9.51228e-08
      138.400   9.39617e-08
      138.500   9.28133e-08
      138.600   9.16777e-08
      138.700   9.05554e-08
      138.800   8.94459e-08
      138.900   8.83487e-08
      139.000   8.72642e-08
      139.100   8.61929e-08
      139.200   8.51345e-08
      139.300   8.40880e-08
      139.400   8.30537e-08
      139.500   8.20313e-08
      139.600   8.10202e-08
      139.700   8.00209e-08
      139.800   7.90331e-08
      139.900   7.80564e-08
      140.000   7.70915e-08
      140.100   7.61377e-08
      140.200   7.51948e-08
      140.300   7.42629e-08
      140.400   7.33413e-08
      140.500   7.24300e-08
      140.600   7.15289e-08
      140.700   7.06382e-08
      140.800   6.97588e-08
      140.900   6.88895e-08
      141.000   6.80297e-08
      141.100   6.71797e-08
      141.200   6.63392e-08
      141.300   6.55079e-08
      141.400   6.46856e-08
      141.500   6.38726e-08
      141.600   6.30694e-08
      141.700   6.22752e-08
      141.800   6.14899e-08
      141.900   6.07134e-08
      142.000   5.99455e-08
      142.100   5.92097e-08
      142.200   5.85496e-08
      142.300   5.79538e-08
      142.400   5.73636e-08
      142.500   5.67782e-08
      142.600   5.61976e-08
      142.700   5.56219e-08
      142.800   5.50513e-08
      142.900   5.44857e-08
      143.000   5.39250e-08
      143.100   5.33696e-08
      143.200   5.28196e-08
      143.300   5.22743e-08
      143.400   5.17342e-08
      143.500   5.11989e-08
      143.600   5.06683e-08
      143.700   5.01422e-08
      143.800   4.96215e-08
      143.900   4.91058e-08
      144.000   4.85946e-08
      144.100   4.80881e-08
      144.200   4.75862e-08
      144.300   4.70885e-08
      144.400   4.66004e-08
      144.500   4.61862e-08
      144.600   4.57967e-08
      144.700   4.54118e-08
      144.800   4.50288e-08
      144.900   4.46479e-08
      145.000   4.42688e-08
      145.100   4.38917e-08
      145.200   4.35167e-08
      145.300   4.31437e-08
      145.400   4.27727e-08
      145.500   4.24034e-08
      145.600   4.20360e-08
      145.700   4.16704e-08
      145.800   4.13069e-08
      145.900   4.09456e-08
      146.000   4.05861e-08
      146.100   4.02285e-08
      146.200   3.98729e-08
      146.300   3.95193e-08
      146.400   3.91675e-08
      146.500   3.88184e-08
      146.600   3.84712e-08
      146.700   3.81262e-08
      146.800   3.77809e-08
      146.900   3.74345e-08
      147.000   3.70903e-08
      147.100   3.67485e-08
      147.200   3.64092e-08
      147.300   3.60720e-08
      147.400   3.57372e-08
      147.500   3.54046e-08
      147.600   3.50742e-08
      147.700   3.47462e-08
      147.800   3.44208e-08
      147.900   3.40977e-08
      148.000   3.37768e-08
      148.100   3.34583e-08
      148.200   3.31421e-08
      148.300   3.28283e-08
      148.400   3.25172e-08
      148.500   3.22082e-08
      148.600   3.19016e-08
      148.700   3.15971e-08
      148.800   3.12949e-08
      148.900   3.09951e-08
      149.000   3.06978e-08
      149.100   3.04026e-08
      149.200   3.01093e-08
      149.300   2.98181e-08
      149.400   2.95289e-08
      149.500   2.92422e-08
      149.600   2.89575e-08
      149.700   2.86749e-08
      149.800   2.83943e-08
      149.900   2.81156e-08
      150.000   2.78390e-08
      150.100   2.75646e-08
      150.200   2.72921e-08
      150.300   2.70218e-08
      150.400   2.67534e-08
      150.500   2.64871e-08
      150.600   2.62227e-08
      150.700   2.59602e-08
      150.800   2.56998e-08
      150.900   2.54415e-08
      151.000   2.51850e-08
      151.100   2.49306e-08
      151.200   2.46780e-08
      151.300   2.44274e-08
      151.400   2.41787e-08
      151.500   2.39322e-08
      151.600   2.36879e-08
      151.700   2.34461e-08
      151.800   2.32061e-08
      151.900   2.29680e-08
      152.000   2.27319e-08
      152.100   2.24978e-08
      152.200   2.22658e-08
      152.300   2.20357e-08
      152.400   2.18075e-08
      152.500   2.15813e-08
      152.600   2.13570e-08
      152.700   2.11347e-08
      152.800   2.09143e-08
      152.900   2.06960e-08
      153.000   2.04795e-08
      153.100   2.02650e-08
      153.200   2.00522e-08
      153.300   1.98414e-08
      153.400   1.96324e-08
      153.500   1.94251e-08
      153.600   1.92197e-08
      153.700   1.90162e-08
      153.800   1.88143e-08
      153.900   1.86142e-08
      154.000   1.84090e-08
      154.100   1.81977e-08
      154.200   1.79874e-08
      154.300   1.77791e-08
      154.400   1.75729e-08
      154.500   1.73688e-08
      154.600   1.71666e-08
      154.700   1.69663e-08
      154.800   1.67680e-08
      154.900   1.65716e-08
      155.000   1.63771e-08
      155.100   1.61845e-08
      155.200   1.59939e-08
      155.300   1.58052e-08
      155.400   1.56184e-08
      155.500   1.54334e-08
      155.600   1.52502e-08
      155.700   1.50689e-08
      155.800   1.48894e-08
      155.900   1.47116e-08
      156.000   1.45357e-08
      156.100   1.43616e-08
      156.200   1.41893e-08
      156.300   1.40187e-08
      156.400   1.38498e-08
      156.500   1.36809e-08
      156.600   1.35090e-08
      156.700   1.33387e-08
      156.800   1.31703e-08
      156.900   1.30038e-08
      157.000   1.28391e-08
      157.100   1.26762e-08
      157.200   1.25152e-08
      157.300   1.23558e-08
      157.400   1.21982e-08
      157.500   1.20423e-08
      157.600   1.18882e-08
      157.700   1.17356e-08
      157.800   1.15848e-08
      157.900   1.14358e-08
      158.000   1.12883e-08
      158.100   1.11425e-08
      158.200   1.09983e-08
      158.300   1.08557e-08
      158.400   1.07147e-08
      158.500   1.05753e-08
      158.600   1.04374e-08
      158.700   1.03011e-08
      158.800   1.01663e-08
      158.900   1.00330e-08
      159.000   9.90141e-09
      159.100   9.77118e-09
      159.200   9.64247e-09
      159.300   9.51522e-09
      159.400   9.38943e-09
      159.500   9.26516e-09
      159.600   9.14226e-09
      159.700   9.02086e-09
      159.800   8.90083e-09
      159.900   8.78222e-09
      160.000   8.66505e-09
      160.100   8.54929e-09
      160.200   8.43492e-09
      160.300   8.32186e-09
      160.400   8.21017e-09
      160.500   8.09978e-09
      160.600   7.99072e-09
      160.700   7.88297e-09
      160.800   7.77649e-09
      160.900   7.67128e-09
      161.000   7.56735e-09
      161.100   7.46464e-09
      161.200   7.36323e-09
      161.300   7.26308e-09
      161.400   7.16415e-09
      161.500   7.06642e-09
      161.600   6.96985e-09
      161.700   6.87440e-09
      161.800   6.78011e-09
      161.900   6.68698e-09
      162.000   6.59499e-09
      162.100   6.50413e-09
      162.200   6.41436e-09
      162.300   6.32574e-09
      162.400   6.23818e-09
      162.500   6.15170e-09
      162.600   6.06634e-09
      162.700   5.98201e-09
      162.800   5.89873e-09
      162.900   5.81648e-09
      163.000   5.73523e-09
      163.100   5.65500e-09
      163.200   5.57573e-09
      163.300   5.49746e-09
      163.400   5.42014e-09
      163.500   5.34379e-09
      163.600   5.26838e-09
      163.700   5.19391e-09
      163.800   5.12039e-09
      163.900   5.04780e-09
      164.000   4.97610e-09
      164.100   4.90534e-09
      164.200   4.83551e-09
      164.300   4.76683e-09
      164.400   4.69904e-09
      164.500   4.63213e-09
      164.600   4.56607e-09
      164.700   4.50085e-09
      164.800   4.43648e-09
      164.900   4.37292e-09
      165.000   4.31020e-09
      165.100   4.24830e-09
      165.200   4.18720e-09
      165.300   4.12693e-09
      165.400   4.06744e-09
      165.500   4.00872e-09
      165.600   3.95081e-09
      165.700   3.89364e-09
      165.800   3.83727e-09
      165.900   3.78162e-09
      166.000   3.72678e-09
      166.100   3.67265e-09
      166.200   3.61926e-09
      166.300   3.56660e-09
      166.400   3.51466e-09
      166.500   3.46341e-09
      166.600   3.41285e-09
      166.700   3.36299e-09
      166.800   3.31353e-09
      166.900   3.26344e-09
      167.000   3.21289e-09
      167.100   3.16301e-09
      167.200   3.11386e-09
      167.300   3.06540e-09
      167.400   3.01766e-09
      167.500   2.97060e-09
      167.600   2.92421e-09
      167.700   2.87849e-09
      167.800   2.83343e-09
      167.900   2.78902e-09
      168.000   2.74525e-09
      168.100   2.70209e-09
      168.200   2.65956e-09
      168.300   2.61763e-09
      168.400   2.57632e-09
      168.500   2.53560e-09
      168.600   2.49546e-09
      168.700   2.45590e-09
      168.800   2.41691e-09
      168.900   2.37850e-09
      169.000   2.34062e-09
      169.100   2.30329e-09
      169.200   2.26652e-09
      169.300   2.23026e-09
      169.400   2.19453e-09
      169.500   2.15874e-09
      169.600   2.12090e-09
      169.700   2.08111e-09
      169.800   2.04183e-09
      169.900   2.00322e-09
      170.000   1.96527e-09
      170.100   1.92797e-09
      170.200   1.89131e-09
      170.300   2.45840e-09
      170.400   5.26743e-09
      170.500   9.95825e-09
      170.600   1.46213e-08
      170.700   1.83133e-08
      170.800   1.99791e-08
      170.900   1.99624e-08
      171.000   1.95374e-08
      171.100   1.91199e-08
      171.200   1.87099e-08
      171.300   1.83072e-08
      171.400   1.79120e-08
      171.500   1.75239e-08
      171.600   1.71431e-08
      171.700   1.67695e-08
      171.800   1.64031e-08
      171.900   1.60441e-08
      172.000   1.56924e-08
      172.100   1.53480e-08
      172.200   1.50110e-08
      172.300   1.46807e-08
      172.400   1.43546e-08
      172.500   1.40351e-08
      172.600   1.37226e-08
      172.700   1.34171e-08
      172.800   1.31184e-08
      172.900   1.28262e-08
      173.000   1.25407e-08
      173.100   1.22617e-08
      173.200   1.19887e-08
      173.300   1.17220e-08
      173.400   1.14610e-08
      173.500   1.12060e-08
      173.600   1.09568e-08
      173.700   1.07130e-08
      173.800   1.04746e-08
      173.900   1.02417e-08
      174.000   1.00138e-08
      174.100   9.79088e-09
      174.200   9.57297e-09
      174.300   9.35985e-09
      174.400   9.15142e-09
      174.500   8.94753e-09
      174.600   8.74795e-09
      174.700   8.55283e-09
      174.800   8.36197e-09
      174.900   8.17518e-09
      175.000   7.99230e-09
      175.100   7.81343e-09
      175.200   7.63872e-09
      175.300   7.46772e-09
      175.400   7.30035e-09
      175.500   7.13665e-09
      175.600   6.97645e-09
      175.700   6.81972e-09
      175.800   6.66633e-09
      175.900   6.51627e-09
      176.000   6.36946e-09
      176.100   6.22588e-09
      176.200   6.08538e-09
      176.300   5.94790e-09
      176.400   5.81349e-09
      176.500   5.68196e-09
      176.600   5.55328e-09
      176.700   5.42742e-09
      176.800   5.30432e-09
      176.900   5.18394e-09
      177.000   5.06617e-09
      177.100   4.95095e-09
      177.200   4.83831e-09
      177.300   4.72815e-09
      177.400   4.62035e-09
      177.500   4.51490e-09
      177.600   4.41179e-09
      177.700   4.31096e-09
      177.800   4.21234e-09
      177.900   4.11582e-09
      178.000   4.02168e-09
      178.100   3.92962e-09
      178.200   3.83955e-09
      178.300   3.75145e-09
      178.400   3.66533e-09
      178.500   3.58110e-09
      178.600   3.49870e-09
      178.700   3.41809e-09
      178.800   3.33929e-09
      178.900   3.26224e-09
      179.000   3.18689e-09
      179.100   3.11318e-09
      179.200   3.04112e-09
      179.300   2.97068e-09
      179.400   2.90180e-09
      179.500   2.83451e-09
      179.600   2.76872e-09
      179.700   2.70445e-09
      179.800   2.64161e-09
      179.900   2.58019e-09
      180.000   2.52015e-09
      180.100   2.46149e-09
      180.200   2.40418e-09
      180.300   2.34819e-09
      180.400   2.29346e-09
      180.500   2.24000e-09
      180.600   2.18777e-09
      180.700   2.13675e-09
      180.800   2.08636e-09
      180.900   2.03652e-09
      181.000   1.98769e-09
      181.100   1.94003e-09
      181.200   1.89349e-09
      181.300   1.84805e-09
      181.400   1.80370e-09
      181.500   1.76040e-09
      181.600   1.71813e-09
      181.700   1.67685e-09
      181.800   1.63655e-09
      181.900   1.59721e-09
      182.000   1.55882e-09
      182.100   1.52132e-09
      182.200   1.48475e-09
      182.300   1.44903e-09
      182.400   1.41417e-09
      182.500   1.38012e-09
      182.600   1.34687e-09
      182.700   1.31441e-09
      182.800   1.28271e-09
      182.900   1.25176e-09
      183.000   1.22154e-09
      183.100   1.19204e-09
      183.200   1.16323e-09
      183.300   1.13509e-09
      183.400   1.10762e-09
      183.500   1.08080e-09
      183.600   1.05461e-09
      183.700   1.02833e-09
      183.800   9.99907e-10
      183.900   9.71734e-10
      184.000   9.44339e-10
      184.100   9.17696e-10
      184.200   8.91803e-10
      184.300   8.66606e-10
      184.400   8.42103e-10
      184.500   8.18274e-10
      184.600   7.95090e-10
      184.700   7.72538e-10
      184.800   7.50606e-10
      184.900   7.29272e-10
      185.000   7.08522e-10
      185.100   6.88336e-10
      185.200   6.68700e-10
      185.300   6.49617e-10
      185.400   6.31049e-10
      185.500   6.12993e-10
      185.600   5.95433e-10
      185.700   5.78346e-10
      185.800   5.61756e-10
      185.900   5.45636e-10
      186.000   5.29949e-10
      186.100   5.14695e-10
      186.200   4.99864e-10
      186.300   4.85438e-10
      186.400   4.71410e-10
      186.500   4.57768e-10
      186.600   4.44501e-10
      186.700   4.31599e-10
      186.800   4.19052e-10
      186.900   4.06850e-10
      187.000   3.94985e-10
      187.100   3.83447e-10
      187.200   3.72232e-10
      187.300   3.61344e-10
      187.400   3.50762e-10
      187.500   3.40476e-10
      187.600   3.30475e-10
      187.700   3.20755e-10
      187.800   3.11304e-10
      187.900   3.02117e-10
      188.000   2.93192e-10
      188.100   2.84517e-10
      188.200   2.76084e-10
      188.300   2.67887e-10
      188.400   2.59923e-10
      188.500   2.52187e-10
      188.600   2.44679e-10
      188.700   2.37392e-10
      188.800   2.30315e-10
      188.900   2.23443e-10
      189.000   2.16765e-10
      189.100   2.10277e-10
      189.200   2.03977e-10
      189.300   1.97860e-10
      189.400   1.91920e-10
      189.500   1.86151e-10
      189.600   1.80545e-10
      189.700   1.75085e-10
      189.800   1.69664e-10
      189.900   1.64419e-10
      190.000   1.59327e-10
      190.100   1.54390e-10
      190.200   1.49601e-10
      190.300   1.44955e-10
      190.400   1.40446e-10
      190.500   1.36073e-10
      190.600   1.31833e-10
      190.700   1.27719e-10
      190.800   1.23729e-10
      190.900   1.19860e-10
      191.000   1.16112e-10
      191.100   1.12483e-10
      191.200   1.08962e-10
      191.300   1.05548e-10
      191.400   1.02237e-10
      191.500   9.90245e-11
      191.600   9.59102e-11
      191.700   9.28901e-11
      191.800   8.99598e-11
      191.900   8.71195e-11
      192.000   8.43665e-11
      192.100   8.17021e-11
      192.200   7.91218e-11
      192.300   7.66191e-11
      192.400   7.41917e-11
      192.500   7.18383e-11
      192.600   6.95569e-11
      192.700   6.73210e-11
      192.800   6.50273e-11
      192.900   6.25831e-11
      193.000   6.02271e-11
      193.100   5.79586e-11
      193.200   5.57753e-11
      193.300   5.36704e-11
      193.400   5.16419e-11
      193.500   4.96856e-11
      193.600   4.77988e-11
      193.700   4.59798e-11
      193.800   4.42273e-11
      193.900   4.25384e-11
      194.000   4.09101e-11
      194.100   3.93442e-11
      194.200   3.78389e-11
      194.300   3.63880e-11
      194.400   3.49897e-11
      194.500   3.36421e-11
      194.600   3.23434e-11
      194.700   3.10927e-11
      194.800   2.98881e-11
      194.900   2.87271e-11
      195.000   2.76095e-11
      195.100   2.65368e-11
      195.200   2.55040e-11
      195.300   2.45094e-11
      195.400   2.35512e-11
      195.500   2.26282e-11
      195.600   2.17392e-11
      195.700   2.08834e-11
      195.800   2.00592e-11
      195.900   1.92660e-11
      196.000   1.85018e-11
      196.100   1.77663e-11
      196.200   1.70583e-11
      196.300   1.63768e-11
      196.400   1.57209e-11
      196.500   1.50895e-11
      196.600   1.44822e-11
      196.700   1.38978e-11
      196.800   1.33366e-11
      196.900   1.27982e-11
      197.000   1.22805e-11
      197.100   1.17824e-11
      197.200   1.13033e-11
      197.300   1.08424e-11
      197.400   1.03989e-11
      197.500   9.97262e-12
      197.600   9.56281e-12
      197.700   9.17073e-12
      197.800   8.79402e-12
      197.900   8.43161e-12
      198.000   8.08332e-12
      198.100   7.74861e-12
      198.200   7.42681e-12
      198.300   7.11744e-12
      198.400   6.82041e-12
      198.500   6.53617e-12
      198.600   6.26353e-12
      198.700   6.00155e-12
      198.800   5.74984e-12
      198.900   5.50811e-12
      199.000   5.27935e-12
      199.100   5.06986e-12
      199.200   4.88251e-12
      199.300   4.70241e-12
      199.400   4.52888e-12
      199.500   4.36146e-12
      199.600   4.19988e-12
      199.700   4.04396e-12
      199.800   3.89353e-12
      199.900   3.74845e-12
      200.000   3.60848e-12
      200.100   3.47411e-12
      200.200   3.34453e-12
      200.300   3.21962e-12
      200.400   3.09920e-12
      200.500   2.98310e-12
      200.600   2.87118e-12
      200.700   2.76330e-12
      200.800   2.65926e-12
      200.900   2.55901e-12
      201.000   2.46258e-12
      201.100   2.36972e-12
      201.200   2.28022e-12
      201.300   2.19399e-12
      201.400   2.11093e-12
      201.500   2.03083e-12
      201.600   1.95369e-12
      201.700   1.87937e-12
      201.800   1.80774e-12
      201.900   1.73885e-12
      202.000   1.67262e-12
      202.100   1.60877e-12
      202.200   1.54729e-12
      202.300   1.48960e-12
      202.400   1.43646e-12
      202.500   1.38570e-12
      202.600   1.33665e-12
      202.700   1.28928e-12
      202.800   1.24358e-12
      202.900   1.19950e-12
      203.000   1.15695e-12
      203.100   1.11587e-12
      203.200   1.07618e-12
      203.300   1.03784e-12
      203.400   1.00083e-12
      203.500   9.65102e-13
      203.600   9.30602e-13
      203.700   8.97292e-13
      203.800   8.65201e-13
      203.900   8.34247e-13
      204.000   8.04361e-13
      204.100   7.75518e-13
      204.200   7.47687e-13
      204.300   7.20809e-13
      204.400   6.94877e-13
      204.500   6.69849e-13
      204.600   6.45687e-13
      204.700   6.22376e-13
      204.800   5.99917e-13
      204.900   5.78263e-13
      205.000   5.57369e-13
      205.100   5.37215e-13
      205.200   5.17757e-13
      205.300   4.98994e-13
      205.400   4.80888e-13
      205.500   4.63414e-13
      205.600   4.46758e-13
      205.700   4.30868e-13
      205.800   4.15540e-13
      205.900   4.00761e-13
      206.000   3.86516e-13
      206.100   3.72751e-13
      206.200   3.59458e-13
      206.300   3.46629e-13
      206.400   3.34245e-13
      206.500   3.22281e-13
      206.600   3.10735e-13
      206.700   2.99588e-13
      206.800   2.88820e-13
      206.900   2.78428e-13
      207.000   2.68402e-13
      207.100   2.58733e-13
      207.200   2.49408e-13
      207.300   2.40407e-13
      207.400   2.31715e-13
      207.500   2.23326e-13
      207.600   2.15230e-13
      207.700   2.07413e-13
      207.800   1.99869e-13
      207.900   1.92590e-13
      208.000   1.85565e-13
      208.100   1.78786e-13
      208.200   1.72247e-13
      208.300   1.65936e-13
      208.400   1.59858e-13
      208.500   1.53996e-13
      208.600   1.48338e-13
      208.700   1.42878e-13
      208.800   1.37607e-13
      208.900   1.32297e-13
      209.000   1.26885e-13
      209.100   1.21686e-13
      209.200   1.16692e-13
      209.300   1.11891e-13
      209.400   1.07282e-13
      209.500   1.02854e-13
      209.600   9.85991e-14
      209.700   9.45172e-14
      209.800   9.06055e-14
      209.900   8.68455e-14
      210.000   8.32364e-14
      210.100   7.97715e-14
      210.200   7.64442e-14
      210.300   7.32507e-14
      210.400   7.01852e-14
      210.500   6.72420e-14
      210.600   6.44178e-14
      210.700   6.17081e-14
      210.800   5.91072e-14
      210.900   5.66115e-14
      211.000   5.42169e-14
      211.100   5.19206e-14
      211.200   4.97172e-14
      211.300   4.76079e-14
      211.400   4.55862e-14
      211.500   4.36457e-14
      211.600   4.17850e-14
      211.700   4.00014e-14
      211.800   3.82898e-14
      211.900   3.66488e-14
      212.000   3.50765e-14
      212.100   3.35687e-14
      212.200   3.20921e-14
      212.300   3.02169e-14
      212.400   2.81709e-14
      212.500   2.62557e-14
      212.600   2.44646e-14
      212.700   2.27887e-14
      212.800   2.12215e-14
      212.900   1.97571e-14
      213.000   1.83893e-14
      213.100   1.71139e-14
      213.200   1.59221e-14
      213.300   1.48095e-14
      213.400   1.37703e-14
      213.500   1.28002e-14
      213.600   1.18951e-14
      213.700   1.10511e-14
      213.800   1.02634e-14
      213.900   9.52962e-15
      214.000   8.84553e-15
      214.100   8.20793e-15
      214.200   7.61439e-15
      214.300   7.06148e-15
      214.400   6.54662e-15
      214.500   6.06752e-15
      214.600   5.62201e-15
      214.700   5.20753e-15
      214.800   4.82211e-15
      214.900   4.46409e-15
      215.000   4.13114e-15
      215.100   3.82210e-15
      215.200   3.53564e-15
      215.300   3.26989e-15
      215.400   3.02300e-15
      215.500   2.79393e-15
      215.600   2.58161e-15
      215.700   2.38454e-15
      215.800   2.20183e-15
      215.900   2.03260e-15
      216.000   1.87571e-15
      216.100   1.73037e-15
      216.200   1.59585e-15
      216.300   1.47134e-15
      216.400   1.35611e-15
      216.500   1.24946e-15
      216.600   1.15088e-15
      216.700   1.05975e-15
      216.800   9.75497e-16
      216.900   8.97685e-16
      217.000   8.25812e-16
      217.100   7.59409e-16
      217.200   6.98165e-16
      217.300   6.41638e-16
      217.400   5.89474e-16
      217.500   5.41403e-16
      217.600   4.97063e-16
      217.700   4.56200e-16
      217.800   4.18554e-16
      217.900   3.83924e-16
      218.000   3.52066e-16
      218.100   3.22749e-16
      218.200   2.95777e-16
      218.300   2.70977e-16
      218.400   2.48166e-16
      218.500   2.27187e-16
      218.600   2.07924e-16
      218.700   1.90217e-16
      218.800   1.73958e-16
      218.900   1.59042e-16
      219.000   1.45344e-16
      219.100   1.32885e-16
      219.200   1.22327e-16
      219.300   1.13891e-16
      219.400   1.06013e-16
      219.500   9.86638e-17
      219.600   9.18062e-17
      219.700   8.54077e-17
      219.800   7.94424e-17
      219.900   7.38783e-17
      220.000   6.86886e-17
      220.100   6.38511e-17
      220.200   5.93434e-17
      220.300   5.51441e-17
      220.400   5.12303e-17
      220.500   4.75856e-17
      220.600   4.41926e-17
      220.700   4.10321e-17
      220.800   3.80888e-17
      220.900   3.53519e-17
      221.000   3.28039e-17
      221.100   3.04328e-17
      221.200   2.82288e-17
      221.300   2.61785e-17
      221.400   2.42719e-17
      221.500   2.25002e-17
      221.600   2.08533e-17
      221.700   1.93226e-17
      221.800   1.79004e-17
      221.900   1.65801e-17
      222.000   1.53541e-17
      222.100   1.42151e-17
      222.200   1.31587e-17
      222.300   1.21779e-17
      222.400   1.12677e-17
      222.500   1.04232e-17
      222.600   9.64051e-18
      222.700   8.91437e-18
      222.800   8.24119e-18
      222.900   7.61771e-18
      223.000   7.03958e-18
      223.100   6.50389e-18
      223.200   6.00768e-18
      223.300   5.54833e-18
      223.400   5.12294e-18
      223.500   4.72894e-18
      223.600   4.36459e-18
      223.700   4.02728e-18
      223.800   3.71515e-18
      223.900   3.42681e-18
      224.000   3.15986e-18
      224.100   2.91310e-18
      224.200   2.68503e-18
      224.300   2.47436e-18
      224.400   2.27960e-18
      224.500   2.09974e-18
      224.600   1.93357e-18
      224.700   1.78031e-18
      224.800   1.63877e-18
      224.900   1.50809e-18
      225.000   1.38756e-18
      225.100   1.27635e-18
      225.200   1.17377e-18
      225.300   1.07927e-18
      225.400   9.92088e-19
      225.500   9.11729e-19
      225.600   8.37693e-19
      225.700   7.69525e-19
      225.800   7.06708e-19
      225.900   6.48874e-19
      226.000   5.95661e-19
      226.100   5.46657e-19
      226.200   5.01561e-19
      226.300   4.60136e-19
      226.400   4.22063e-19
      226.500   3.87025e-19
      226.600   3.54806e-19
      226.700   3.25212e-19
      226.800   2.97997e-19
      226.900   2.72986e-19
      227.000   2.50031e-19
      227.100   2.28942e-19
      227.200   2.09582e-19
      227.300   1.91815e-19
      227.400   1.75513e-19
      227.500   1.60555e-19
      227.600   1.46838e-19
      227.700   1.34259e-19
      227.800   1.22731e-19
      227.900   1.12166e-19
      228.000   1.02485e-19
      228.100   9.36165e-20
      228.200   8.54935e-20
      228.300   7.80571e-20
      228.400   7.12520e-20
      228.500   6.50219e-20
      228.600   5.93237e-20
      228.700   5.41110e-20
      228.800   4.93433e-20
      228.900   4.49870e-20
      229.000   4.10033e-20
      229.100   3.73634e-20
      229.200   3.40387e-20
      229.300   3.10022e-20
      229.400   2.82296e-20
      229.500   2.56985e-20
      229.600   2.33884e-20
      229.700   2.12809e-20
      229.800   1.93580e-20
      229.900   1.76104e-20
      230.000   1.60616e-20
      230.100   1.47236e-20
      230.200   1.34941e-20
      230.300   1.23656e-20
      230.400   1.13288e-20
      230.500   1.03778e-20
      230.600   9.50607e-21
      230.700   8.70563e-21
      230.800   7.97116e-21
      230.900   7.29738e-21
      231.000   6.67897e-21
      231.100   6.11187e-21
      231.200   5.59173e-21
      231.300   5.11496e-21
      231.400   4.67808e-21
      231.500   4.27739e-21
      231.600   3.91018e-21
      231.700   3.57389e-21
      231.800   3.26587e-21
      231.900   2.98377e-21
      232.000   2.72546e-21
      232.100   2.48897e-21
      232.200   2.27255e-21
      232.300   2.07452e-21
      232.400   1.89332e-21
      232.500   1.72754e-21
      232.600   1.57599e-21
      232.700   1.43743e-21
      232.800   1.31075e-21
      232.900   1.19498e-21
      233.000   1.08919e-21
      233.100   9.92575e-22
      233.200   9.04288e-22
      233.300   8.23695e-22
      233.400   7.50131e-22
      233.500   6.83127e-22
      233.600   6.22057e-22
      233.700   5.66305e-22
      233.800   5.14359e-22
      233.900   4.66943e-22
      234.000   4.23772e-22
      234.100   3.84519e-22
      234.200   3.48823e-22
      234.300   3.16364e-22
      234.400   2.86857e-22
      234.500   2.60043e-22
      234.600   2.35674e-22
      234.700   2.13542e-22
      234.800   1.93447e-22
      234.900   1.75195e-22
      235.000   1.58624e-22
      235.100   1.43588e-22
      235.200   1.29946e-22
      235.300   1.17570e-22
      235.400   1.06347e-22
      235.500   9.61695e-23
      235.600   8.69472e-23
      235.700   7.85958e-23
      235.800   7.10584e-23
      235.900   6.42280e-23
      236.000   5.80397e-23
      236.100   5.24337e-23
      236.200   4.73574e-23
      236.300   4.27608e-23
      236.400   3.86015e-23
      236.500   3.48371e-23
      236.600   3.14319e-23
      236.700   2.83521e-23
      236.800   2.55668e-23
      236.900   2.30493e-23
      237.000   2.07742e-23
      237.100   1.87181e-23
      237.200   1.68616e-23
      237.300   1.51845e-23
      237.400   1.36765e-23
      237.500   1.23693e-23
      237.600   1.12782e-23
      237.700   1.02850e-23
      237.800   9.37734e-24
      237.900   8.54803e-24
      238.000   7.79077e-24
      238.100   7.09888e-24
      238.200   6.46721e-24
      238.300   5.89047e-24
      238.400   5.36408e-24
      238.500   4.88365e-24
      238.600   4.44535e-24
      238.700   4.04565e-24
      238.800   3.68100e-24
      238.900   3.34853e-24
      239.000   3.04540e-24
      239.100   2.76915e-24
      239.200   2.51747e-24
      239.300   2.28890e-24
      239.400   2.08124e-24
      239.500   1.89197e-24
      239.600   1.71952e-24
      239.700   1.56251e-24
      239.800   1.41947e-24
      239.900   1.28925e-24
      240.000   1.17073e-24
      240.100   1.06283e-24
      240.200   9.64658e-25
      240.300   8.75373e-25
      240.400   7.94136e-25
      240.500   7.20315e-25
      240.600   6.53194e-25
      240.700   5.92198e-25
      240.800   5.36956e-25
      240.900   4.86922e-25
      241.000   4.41451e-25
      241.100   4.00136e-25
      241.200   3.62603e-25
      241.300   3.30028e-25
      241.400   3.03072e-25
      241.500   2.79684e-25
      241.600   2.58066e-25
      241.700   2.38082e-25
      241.800   2.19615e-25
      241.900   2.02550e-25
      242.000   1.86786e-25
      242.100   1.72225e-25
      242.200   1.58824e-25
      242.300   1.46479e-25
      242.400   1.35072e-25
      242.500   1.24535e-25
      242.600   1.14804e-25
      242.700   1.05817e-25
      242.800   9.75208e-26
      242.900   8.98614e-26
      243.000   8.27914e-26
      243.100   7.62671e-26
      243.200   7.02443e-26
      243.300   6.46887e-26
      243.400   5.95654e-26
      243.500   5.48550e-26
      243.600   5.05257e-26
      243.700   4.65293e-26
      243.800   4.28423e-26
      243.900   3.94431e-26
      244.000   3.63069e-26
      244.100   3.34152e-26
      244.200   3.07495e-26
      244.300   2.82913e-26
      244.400   2.60264e-26
      244.500   2.39388e-26
      244.600   2.20152e-26
      244.700   2.02477e-26
      244.800   1.86271e-26
      244.900   1.71339e-26
      245.000   1.57573e-26
      245.100   1.44892e-26
      245.200   1.33215e-26
      245.300   1.22460e-26
      245.400   1.12551e-26
      245.500   1.03431e-26
      245.600   9.50349e-27
      245.700   8.73038e-27
      245.800   8.01870e-27
      245.900   7.36782e-27
      246.000   6.77016e-27
      246.100   6.21983e-27
      246.200   5.71335e-27
      246.300   5.24716e-27
      246.400   4.81835e-27
      246.500   4.42377e-27
      246.600   4.06082e-27
      246.700   3.72709e-27
      246.800   3.42007e-27
      246.900   3.13784e-27
      247.000   2.87989e-27
      247.100   2.64338e-27
      247.200   2.42590e-27
      247.300   2.22595e-27
      247.400   2.04209e-27
      247.500   1.87308e-27
      247.600   1.71777e-27
      247.700   1.57505e-27
      247.800   1.44393e-27
      247.900   1.32348e-27
      248.000   1.21288e-27
      248.100   1.11229e-27
      248.200   1.01982e-27
      248.300   9.34873e-28
      248.400   8.56845e-28
      248.500   7.85157e-28
      248.600   7.19338e-28
      248.700   6.58930e-28
      248.800   6.03475e-28
      248.900   5.52590e-28
      249.000   5.05899e-28
      249.100   4.63398e-28
      249.200   4.28281e-28
      249.300   3.99694e-28
      249.400   3.73905e-28
      249.500   3.49751e-28
      249.600   3.27121e-28
      249.700   3.05927e-28
      249.800   2.86081e-28
      249.900   2.67491e-28
      250.000   2.50094e-28
      250.100   2.33874e-28
      250.200   2.18719e-28
      250.300   2.04540e-28
      250.400   1.91263e-28
      250.500   1.78838e-28
      250.600   1.67208e-28
      250.700   1.56321e-28
      250.800   1.46132e-28
      250.900   1.36596e-28
      251.000   1.27674e-28
      251.100   1.19325e-28
      251.200   1.11529e-28
      251.300   1.04259e-28
      251.400   9.74530e-29
      251.500   9.10835e-29
      251.600   8.51253e-29
      251.700   7.95529e-29
      251.800   7.43388e-29
      251.900   6.94609e-29
      252.000   6.48972e-29
      252.100   6.06319e-29
      252.200   5.66403e-29
      252.300   5.29147e-29
      252.400   4.94393e-29
      252.500   4.61909e-29
      252.600   4.31517e-29
      252.700   4.03102e-29
      252.800   3.76532e-29
      252.900   3.51684e-29
      253.000   3.28454e-29
      253.100   3.06741e-29
      253.200   2.87791e-29
      253.300   2.75689e-29
      253.400   2.65386e-29
      253.500   2.55479e-29
      253.600   2.45950e-29
      253.700   2.36771e-29
      253.800   2.27934e-29
      253.900   2.19423e-29
      254.000   2.11225e-29
      254.100   2.03330e-29
      254.200   1.95726e-29
      254.300   1.88404e-29
      254.400   1.81352e-29
      254.500   1.74563e-29
      254.600   1.68022e-29
      254.700   1.61726e-29
      254.800   1.55676e-29
      254.900   1.49849e-29
      255.000   1.44238e-29
      255.100   1.38832e-29
      255.200   1.33628e-29
      255.300   1.28616e-29
      255.400   1.23790e-29
      255.500   1.19144e-29
      255.600   1.14669e-29
      255.700   1.10360e-29
      255.800   1.06211e-29
      255.900   1.02215e-29
      256.000   9.83670e-30
      256.100   9.46670e-30
      256.200   9.11065e-30
      256.300   8.76783e-30
      256.400   8.43799e-30
      256.500   8.12015e-30
      256.600   7.81419e-30
      256.700   7.51963e-30
      256.800   7.23600e-30
      256.900   6.96289e-30
      257.000   6.69996e-30
      257.100   6.44680e-30
      257.200   6.20318e-30
      257.300   5.96857e-30
      257.400   5.74444e-30
      257.500   5.52924e-30
      257.600   5.32237e-30
      257.700   5.12319e-30
      257.800   4.93136e-30
      257.900   4.74667e-30
      258.000   4.56879e-30
      258.100   4.39744e-30
      258.200   4.23249e-30
      258.300   4.07365e-30
      258.400   3.92064e-30
      258.500   3.77328e-30
      258.600   3.63145e-30
      258.700   3.49486e-30
      258.800   3.36331e-30
      258.900   3.23672e-30
      259.000   3.11478e-30
      259.100   2.99739e-30
      259.200   2.88444e-30
      259.300   2.77584e-30
      259.400   2.67125e-30
      259.500   2.57053e-30
      259.600   2.47361e-30
      259.700   2.38029e-30
      259.800   2.29042e-30
      259.900   2.20388e-30
      260.000   2.12061e-30
      260.100   2.04046e-30
      260.200   1.96329e-30
      260.300   1.88901e-30
      260.400   1.81750e-30
      260.500   1.74870e-30
      260.600   1.68244e-30
      260.700   1.61867e-30
      260.800   1.55733e-30
      260.900   1.49824e-30
      261.000   1.44143e-30
      261.100   1.38681e-30
      261.200   1.33421e-30
      261.300   1.28359e-30
      261.400   1.23490e-30
      261.500   1.18805e-30
      261.600   1.14306e-30
      261.700   1.09977e-30
      261.800   1.05812e-30
      261.900   1.01800e-30
      262.000   9.79406e-31
      262.100   9.42254e-31
      262.200   9.06518e-31
      262.300   8.72112e-31
      262.400   8.39010e-31
      262.500   8.07145e-31
      262.600   7.76477e-31
      262.700   7.46972e-31
      262.800   7.18580e-31
      262.900   6.91241e-31
      263.000   6.64967e-31
      263.100   6.39671e-31
      263.200   6.15360e-31
      263.300   5.91961e-31
      263.400   5.69446e-31
      263.500   5.47786e-31
      263.600   5.26947e-31
      263.700   5.06891e-31
      263.800   4.87591e-31
      263.900   4.69037e-31
      264.000   4.51174e-31
      264.100   4.33983e-31
      264.200   4.17440e-31
      264.300   4.01536e-31
      264.400   3.86232e-31
      264.500   3.71503e-31
      264.600   3.57333e-31
      264.700   3.43705e-31
      264.800   3.30586e-31
      264.900   3.17973e-31
      265.000   3.05838e-31
      265.100   2.94158e-31
      265.200   2.82925e-31
      265.300   2.72117e-31
      265.400   2.61726e-31
      265.500   2.51724e-31
      265.600   2.42107e-31
      265.700   2.33511e-31
      265.800   2.27986e-31
      265.900   2.22681e-31
      266.000   2.17499e-31
      266.100   2.12438e-31
      266.200   2.07493e-31
      266.300   2.02661e-31
      266.400   1.97942e-31
      266.500   1.93331e-31
      266.600   1.88828e-31
      266.700   1.84425e-31
      266.800   1.80129e-31
      266.900   1.75931e-31
      267.000   1.71830e-31
      267.100   1.67823e-31
      267.200   1.63912e-31
      267.300   1.60090e-31
      267.400   1.56355e-31
      267.500   1.52708e-31
      267.600   1.49145e-31
      267.700   1.45665e-31
      267.800   1.42264e-31
      267.900   1.38944e-31
      268.000   1.35701e-31
      268.100   1.32534e-31
      268.200   1.29441e-31
      268.300   1.26420e-31
      268.400   1.23467e-31
      268.500   1.20583e-31
      268.600   1.17766e-31
      268.700   1.15016e-31
      268.800   1.12330e-31
      268.900   1.09706e-31
      269.000   1.07144e-31
      269.100   1.04639e-31
      269.200   1.02195e-31
      269.300   9.98076e-32
      269.400   9.74742e-32
      269.500   9.51956e-32
      269.600   9.29715e-32
      269.700   9.07974e-32
      269.800   8.86753e-32
      269.900   8.66019e-32
      270.000   8.45780e-32
      270.100   8.26050e-32
      270.200   8.06801e-32
      270.300   7.88002e-32
      270.400   7.69627e-32
      270.500   7.51685e-32
      270.600   7.34149e-32
      270.700   7.17036e-32
      270.800   7.00316e-32
      270.900   6.83975e-32
      271.000   6.68027e-32
      271.100   6.52439e-32
      271.200   6.37212e-32
      271.300   6.22343e-32
      271.400   6.07817e-32
      271.500   5.93633e-32
      271.600   5.79770e-32
      271.700   5.66227e-32
      271.800   5.53007e-32
      271.900   5.40089e-32
      272.000   5.27474e-32
      272.100   5.15147e-32
      272.200   5.03107e-32
      272.300   4.91342e-32
      272.400   4.79851e-32
      272.500   4.68629e-32
      272.600   4.57667e-32
      272.700   4.46958e-32
      272.800   4.36492e-32
      272.900   4.26276e-32
      273.000   4.16296e-32
      273.100   4.06542e-32
      273.200   3.97018e-32
      273.300   3.87718e-32
      273.400   3.78626e-32
      273.500   3.69746e-32
      273.600   3.61073e-32
      273.700   3.52599e-32
      273.800   3.44320e-32
      273.900   3.36238e-32
      274.000   3.28342e-32
      274.100   3.20627e-32
      274.200   3.13089e-32
      274.300   3.05728e-32
      274.400   2.98252e-32
      274.500   2.90323e-32
      274.600   2.82469e-32
      274.700   2.74828e-32
      274.800   2.67387e-32
      274.900   2.60143e-32
      275.000   2.53091e-32
      275.100   2.46228e-32
      275.200   2.39547e-32
      275.300   2.33042e-32
      275.400   2.26713e-32
      275.500   2.20553e-32
      275.600   2.14554e-32
      275.700   2.08717e-32
      275.800   2.03036e-32
      275.900   1.97507e-32
      276.000   1.92126e-32
      276.100   1.86887e-32
      276.200   1.81787e-32
      276.300   1.76823e-32
      276.400   1.71994e-32
      276.500   1.67292e-32
      276.600   1.62718e-32
      276.700   1.58264e-32
      276.800   1.53932e-32
      276.900   1.49713e-32
      277.000   1.45609e-32
      277.100   1.41614e-32
      277.200   1.37727e-32
      277.300   1.33944e-32
      277.400   1.30263e-32
      277.500   1.26679e-32
      277.600   1.23194e-32
      277.700   1.19800e-32
      277.800   1.16497e-32
      277.900   1.13286e-32
      278.000   1.10161e-32
      278.100   1.07120e-32
      278.200   1.04161e-32
      278.300   1.01282e-32
      278.400   9.84809e-33
      278.500   9.57540e-33
      278.600   9.31009e-33
      278.700   9.05216e-33
      278.800   8.80476e-33
      278.900   8.57852e-33
      279.000   8.35777e-33
      279.100   8.14259e-33
      279.200   7.93263e-33
      279.300   7.72808e-33
      279.400   7.52851e-33
      279.500   7.33399e-33
      279.600   7.14438e-33
      279.700   6.95956e-33
      279.800   6.77937e-33
      279.900   6.60369e-33
      280.000   6.43243e-33
      280.100   6.26541e-33
      280.200   6.10270e-33
      280.300   5.94404e-33
      280.400   5.78939e-33
      280.500   5.63872e-33
      280.600   5.49184e-33
      280.700   5.34868e-33
      280.800   5.20912e-33
      280.900   5.07308e-33
      281.000   4.94051e-33
      281.100   4.81129e-33
      281.200   4.68535e-33
      281.300   4.56263e-33
      281.400   4.44308e-33
      281.500   4.32653e-33
      281.600   4.21290e-33
      281.700   4.10220e-33
      281.800   3.99442e-33
      281.900   3.88933e-33
      282.000   3.78689e-33
      282.100   3.68710e-33
      282.200   3.58996e-33
      282.300   3.49521e-33
      282.400   3.40290e-33
      282.500   3.31294e-33
      282.600   3.22536e-33
      282.700   3.14001e-33
      282.800   3.05679e-33
      282.900   2.97585e-33
      283.000   2.89695e-33
      283.100   2.82009e-33
      283.200   2.74526e-33
      283.300   2.67781e-33
      283.400   2.64099e-33
      283.500   2.60815e-33
      283.600   2.57560e-33
      283.700   2.54339e-33
      283.800   2.51150e-33
      283.900   2.47994e-33
      284.000   2.44869e-33
      284.100   2.41775e-33
      284.200   2.38716e-33
      284.300   2.35691e-33
      284.400   2.32693e-33
      284.500   2.29727e-33
      284.600   2.26795e-33
      284.700   2.23893e-33
      284.800   2.21021e-33
      284.900   2.18181e-33
      285.000   2.15369e-33
      285.100   2.12588e-33
      285.200   2.09836e-33
      285.300   2.07115e-33
      285.400   2.04425e-33
      285.500   2.01761e-33
      285.600   1.99132e-33
      285.700   1.96526e-33
      285.800   1.93954e-33
      285.900   1.91407e-33
      286.000   1.88888e-33
      286.100   1.86402e-33
      286.200   1.83941e-33
      286.300   1.81510e-33
      286.400   1.79105e-33
      286.500   1.76726e-33
      286.600   1.74376e-33
      286.700   1.72051e-33
      286.800   1.69754e-33
      286.900   1.67485e-33
      287.000   1.65240e-33
      287.100   1.63022e-33
      287.200   1.60830e-33
      287.300   1.58662e-33
      287.400   1.56520e-33
      287.500   1.54404e-33
      287.600   1.52314e-33
      287.700   1.50248e-33
      287.800   1.48207e-33
      287.900   1.46191e-33
      288.000   1.44201e-33
      288.100   1.42234e-33
      288.200   1.40292e-33
      288.300   1.38374e-33
      288.400   1.36481e-33
      288.500   1.34609e-33
      288.600   1.32759e-33
      288.700   1.30933e-33
      288.800   1.29129e-33
      288.900   1.27347e-33
      289.000   1.25587e-33
      289.100   1.23848e-33
      289.200   1.22130e-33
      289.300   1.20435e-33
      289.400   1.18760e-33
      289.500   1.17107e-33
      289.600   1.15473e-33
      289.700   1.13861e-33
      289.800   1.12269e-33
      289.900   1.10695e-33
      290.000   1.09144e-33
      290.100   1.07608e-33
      290.200   1.06096e-33
      290.300   1.04602e-33
      290.400   1.03127e-33
      290.500   1.01672e-33
      290.600   1.00233e-33
      290.700   9.88136e-34
      290.800   9.74136e-34
      290.900   9.60307e-34
      291.000   9.46650e-34
      291.100   9.33165e-34
      291.200   9.19857e-34
      291.300   9.06726e-34
      291.400   8.93761e-34
      291.500   8.80960e-34
      291.600   8.68330e-34
      291.700   8.55866e-34
      291.800   8.43560e-34
      291.900   8.31423e-34
      292.000   8.19454e-34
      292.100   8.07637e-34
      292.200   7.95974e-34
      292.300   7.84457e-34
      292.400   7.73093e-34
      292.500   7.61876e-34
      292.600   7.50793e-34
      292.700   7.39851e-34
      292.800   7.29053e-34
      292.900   7.18395e-34
      293.000   7.07881e-34
      293.100   6.97508e-34
      293.200   6.87266e-34
      293.300   6.77162e-34
      293.400   6.67204e-34
      293.500   6.57372e-34
      293.600   6.47676e-34
      293.700   6.38111e-34
      293.800   6.28678e-34
      293.900   6.19367e-34
      294.000   6.10177e-34
      294.100   6.01115e-34
      294.200   5.92179e-34
      294.300   5.83365e-34
      294.400   5.74663e-34
      294.500   5.66079e-34
      294.600   5.57608e-34
      294.700   5.49261e-34
      294.800   5.41022e-34
      294.900   5.32893e-34
      295.000   5.24882e-34
      295.100   5.16989e-34
      295.200   5.09196e-34
      295.300   5.01505e-34
      295.400   4.93924e-34
      295.500   4.86451e-34
      295.600   4.79074e-34
      295.700   4.71799e-34
      295.800   4.64625e-34
      295.900   4.57544e-34
      296.000   4.50569e-34
      296.100   4.43681e-34
      296.200   4.36897e-34
      296.300   4.30204e-34
      296.400   4.23612e-34
      296.500   4.17103e-34
      296.600   4.10689e-34
      296.700   4.04362e-34
      296.800   3.98125e-34
      296.900   3.91973e-34
      297.000   3.85910e-34
      297.100   3.79929e-34
      297.200   3.74253e-34
      297.300   3.70286e-34
      297.400   3.70350e-34
      297.500   3.70397e-34
      297.600   3.70425e-34
      297.700   3.70436e-34
      297.800   3.70425e-34
      297.900   3.70400e-34
      298.000   3.70353e-34
      298.100   3.70287e-34
      298.200   3.70202e-34
      298.300   3.70100e-34
      298.400   3.69980e-34
      298.500   3.69840e-34
      298.600   3.69684e-34
      298.700   3.69507e-34
      298.800   3.69309e-34
      298.900   3.69091e-34
      299.000   3.68859e-34
      299.100   3.68606e-34
      299.200   3.68335e-34
      299.300   3.68042e-34
      299.400   3.67733e-34
      299.500   3.67406e-34
      299.600   3.67058e-34
      299.700   3.66691e-34
      299.800   3.66308e-34
      299.900   3.65911e-34
      300.000   3.65490e-34
      300.100   3.65049e-34
      300.192   3.64629e-34
      300.285   3.64186e-34
      300.377   3.63732e-34
      300.470   3.63263e-34
      300.562   3.62776e-34
      300.654   3.62273e-34
      300.747   3.61756e-34
      300.839   3.61226e-34
      300.932   3.60670e-34
      301.025   3.60108e-34
      301.117   3.59532e-34
      301.210   3.58929e-34
      301.303   3.58321e-34
      301.395   3.57698e-34
      301.488   3.57053e-34
      301.581   3.56391e-34
      301.674   3.55717e-34
      301.766   3.55033e-34
      301.859   3.54332e-34
      301.952   3.53611e-34
      302.045   3.52878e-34
      302.138   3.62784e-34
      302.231   3.77264e-34
      302.324   3.92424e-34
      302.417   4.08142e-34
      302.510   4.24402e-34
      302.603   4.41221e-34
      302.696   4.58630e-34
      302.789   4.76658e-34
      302.882   4.95299e-34
      302.976   5.14794e-34
      303.069   5.34735e-34
      303.162   5.55353e-34
      303.255   5.76666e-34
      303.349   5.98944e-34
      303.442   6.21722e-34
      303.535   6.45234e-34
      303.629   6.69789e-34
      303.722   6.94893e-34
      303.816   7.21098e-34
      303.909   7.47874e-34
      304.003   7.75798e-34
      304.096   8.04331e-34
      304.190   8.34098e-34
      304.283   8.64472e-34
      304.377   8.96115e-34
      304.471   9.28782e-34
      304.564   9.62106e-34
      304.658   9.96842e-34
      304.752   1.03268e-33
      304.846   1.06958e-33
      304.939   1.10721e-33
      305.033   1.14640e-33
      305.127   1.18677e-33
      305.221   1.22834e-33
      305.315   1.27120e-33
      305.409   1.31528e-33
      305.503   1.36067e-33
      305.597   1.40743e-33
      305.691   1.45550e-33
      305.785   1.50501e-33
      305.879   1.55593e-33
      305.973   1.60825e-33
      306.067   1.66211e-33
      306.161   1.71747e-33
      306.255   1.77439e-33
      306.350   1.83353e-33
      306.444   1.89367e-33
      306.538   1.95549e-33
      306.633   2.01966e-33
      306.727   2.08490e-33
      306.821   2.15191e-33
      306.916   2.22142e-33
      307.010   2.29265e-33
      307.105   2.36705e-33
      307.199   2.44272e-33
      307.294   2.52124e-33
      307.388   2.60098e-33
      307.483   2.68372e-33
      307.577   2.76773e-33
      307.672   2.85486e-33
      307.767   2.94422e-33
      307.861   3.03482e-33
      307.956   3.12885e-33
      308.051   3.22525e-33
      308.146   3.32407e-33
      308.240   3.42421e-33
      308.335   3.52793e-33
      308.430   3.63424e-33
      308.525   3.74327e-33
      308.620   3.85483e-33
      308.715   3.96913e-33
      308.810   4.08619e-33
      308.905   4.20600e-33
      309.000   4.32855e-33
      309.095   4.45406e-33
      309.190   4.58249e-33
      309.285   4.71393e-33
      309.380   4.84836e-33
      309.476   4.98729e-33
      309.571   5.12791e-33
      309.666   5.27182e-33
      309.761   5.41883e-33
      309.857   5.57064e-33
      309.952   5.72417e-33
      310.047   5.88097e-33
      310.143   6.04298e-33
      310.238   6.20674e-33
      310.334   6.37569e-33
      310.429   6.54662e-33
      310.525   6.72272e-33
      310.620   6.90079e-33
      310.716   7.08438e-33
      310.811   7.26990e-33
      310.907   7.46098e-33
      311.003   7.65592e-33
      311.098   7.85279e-33
      311.194   8.05573e-33
      311.290   8.26276e-33
      311.386   8.47371e-33
      311.481   8.68647e-33
      311.577   8.90552e-33
      311.673   9.12899e-33
      311.769   9.35665e-33
      311.865   9.58828e-33
      311.961   9.82795e-33
      312.057   1.00831e-32
      312.153   1.03467e-32
      312.249   1.06158e-32
      312.345   1.08904e-32
      312.441   1.11704e-32
      312.537   1.14558e-32
      312.633   1.17468e-32
      312.730   1.20468e-32
      312.826   1.23495e-32
      312.922   1.26578e-32
      313.018   1.29721e-32
      313.115   1.32958e-32
      313.211   1.36223e-32
      313.307   1.39548e-32
      313.404   1.42970e-32
      313.500   1.46419e-32
      313.597   1.49967e-32
      313.693   1.53539e-32
      313.790   1.57216e-32
      313.886   1.60920e-32
      313.983   1.64730e-32
      314.079   1.68566e-32
      314.176   1.72507e-32
      314.273   1.76518e-32
      314.369   1.80556e-32
      314.466   1.84705e-32
      314.563   1.88924e-32
      314.660   1.93206e-32
      314.756   1.97520e-32
      314.853   2.01947e-32
      314.950   2.06447e-32
      315.047   2.11019e-32
      315.144   2.15666e-32
      315.241   2.20383e-32
      315.338   2.25176e-32
      315.435   2.30041e-32
      315.532   2.34980e-32
      315.629   2.39991e-32
      315.726   2.45079e-32
      315.823   2.50247e-32
      315.921   2.55537e-32
      316.018   2.60855e-32
      316.115   2.66251e-32
      316.212   2.71721e-32
      316.310   2.77325e-32
      316.407   2.82947e-32
      316.504   2.88650e-32
      316.602   2.94490e-32
      316.699   3.00349e-32
      316.796   3.06280e-32
      316.894   3.12355e-32
      316.991   3.18501e-32
      317.089   3.25124e-32
      317.187   3.32021e-32
      317.284   3.38945e-32
      317.382   3.46043e-32
      317.479   3.53172e-32
      317.577   3.60474e-32
      317.675   3.67878e-32
      317.773   3.75394e-32
      317.870   3.82938e-32
      317.968   3.90674e-32
      318.066   3.98510e-32
      318.164   4.06452e-32
      318.262   4.14504e-32
      318.360   4.22667e-32
      318.458   4.30939e-32
      318.556   4.39316e-32
      318.654   4.47802e-32
      318.752   4.56392e-32
      318.850   4.65093e-32
      318.948   4.73910e-32
      319.046   4.82837e-32
      319.144   4.91872e-32
      319.242   5.01012e-32
      319.341   5.10362e-32
      319.439   5.19724e-32
      319.537   5.29198e-32
      319.635   5.38782e-32
      319.734   5.48571e-32
      319.832   5.58372e-32
      319.930   5.68282e-32
      320.029   5.78403e-32
      320.127   5.88531e-32
      320.226   5.98879e-32
      320.324   6.09228e-32
      320.423   6.19788e-32
      320.522   6.30461e-32
      320.620   6.41129e-32
      320.719   6.52014e-32
      320.818   6.63011e-32
      320.916   6.74001e-32
      321.015   6.85214e-32
      321.114   6.96524e-32
      321.213   7.07946e-32
      321.311   7.19354e-32
      321.410   7.30975e-32
      321.509   7.42704e-32
      321.608   7.54526e-32
      321.707   7.66459e-32
      321.806   7.78496e-32
      321.905   7.90621e-32
      322.004   8.02861e-32
      322.103   8.19198e-32
      322.202   8.42623e-32
      322.301   8.69540e-32
      322.401   8.97420e-32
      322.500   9.25721e-32
      322.599   9.54718e-32
      322.698   9.84422e-32
      322.798   1.01519e-31
      322.897   1.04639e-31
      322.996   1.07833e-31
      323.096   1.11138e-31
      323.195   1.14486e-31
      323.294   1.17911e-31
      323.394   1.21452e-31
      323.493   1.25039e-31
      323.593   1.28745e-31
      323.692   1.32496e-31
      323.792   1.36370e-31
      323.892   1.40329e-31
      323.991   1.44336e-31
      324.091   1.48472e-31
      324.191   1.52699e-31
      324.291   1.57012e-31
      324.390   1.61371e-31
      324.490   1.65873e-31
      324.590   1.70461e-31
      324.690   1.75143e-31
      324.790   1.79922e-31
      324.890   1.84796e-31
      324.990   1.89770e-31
      325.090   1.94843e-31
      325.190   2.00008e-31
      325.290   2.05272e-31
      325.390   2.10640e-31
      325.490   2.16106e-31
      325.590   2.21672e-31
      325.690   2.27341e-31
      325.790   2.33112e-31
      325.891   2.39047e-31
      325.991   2.45025e-31
      326.091   2.51110e-31
      326.192   2.57361e-31
      326.292   2.63657e-31
      326.392   2.70055e-31
      326.493   2.76626e-31
      326.593   2.83239e-31
      326.694   2.90020e-31
      326.794   2.96846e-31
      326.895   3.03849e-31
      326.995   3.10892e-31
      327.096   3.18106e-31
      327.197   3.25434e-31
      327.297   3.32820e-31
      327.398   3.40435e-31
      327.499   3.48187e-31
      327.599   3.55979e-31
      327.700   3.63960e-31
      327.801   3.72046e-31
      327.902   3.80247e-31
      328.003   3.88564e-31
      328.104   3.96993e-31
      328.205   4.05533e-31
      328.306   4.14182e-31
      328.407   4.22938e-31
      328.508   4.31803e-31
      328.609   4.40778e-31
      328.710   4.49857e-31
      328.811   4.59047e-31
      328.912   4.68350e-31
      329.013   4.77746e-31
      329.115   4.87351e-31
      329.216   4.96966e-31
      329.317   5.06676e-31
      329.419   5.16587e-31
      329.520   5.26506e-31
      329.621   5.36518e-31
      329.723   5.46741e-31
      329.824   5.56939e-31
      329.926   5.67341e-31
      330.027   5.77742e-31
      330.129   5.88336e-31
      330.230   5.98912e-31
      330.332   6.09688e-31
      330.434   6.20547e-31
      330.535   6.31392e-31
      330.637   6.42423e-31
      330.739   6.53521e-31
      330.840   6.64601e-31
      330.942   6.75874e-31
      331.044   6.87221e-31
      331.146   6.98637e-31
      331.248   7.10125e-31
      331.350   7.21684e-31
      331.452   7.33342e-31
      331.554   7.45754e-31
      331.656   7.59385e-31
      331.758   7.73134e-31
      331.860   7.87008e-31
      331.962   8.00996e-31
      332.064   8.15098e-31
      332.166   8.29316e-31
      332.268   8.43644e-31
      332.371   8.58220e-31
      332.473   8.72756e-31
      332.575   8.86052e-31
      332.677   8.95001e-31
      332.780   9.00474e-31
      332.882   9.05842e-31
      332.985   9.11191e-31
      333.087   9.16426e-31
      333.190   9.21645e-31
      333.292   9.26260e-31
      333.395   9.29557e-31
      333.497   9.32234e-31
      333.600   9.34844e-31
      333.702   9.37337e-31
      333.805   9.39758e-31
      333.908   9.42098e-31
      334.011   9.44341e-31
      334.113   9.46462e-31
      334.216   9.48514e-31
      334.319   9.50471e-31
      334.422   9.52329e-31
      334.525   9.54097e-31
      334.628   9.55769e-31
      334.731   9.57343e-31
      334.834   9.58826e-31
      334.937   9.60214e-31
      335.040   9.61505e-31
      335.143   9.62692e-31
      335.246   9.63787e-31
      335.349   9.64778e-31
      335.452   9.65672e-31
      335.555   9.66472e-31
      335.659   9.67183e-31
      335.762   9.67801e-31
      335.865   9.68313e-31
      335.969   9.68728e-31
      336.072   9.69041e-31
      336.175   9.69258e-31
      336.279   9.69378e-31
      336.382   9.69407e-31
      336.486   9.69336e-31
      336.589   9.69156e-31
      336.693   9.68903e-31
      336.796   9.68536e-31
      336.900   9.68086e-31
      337.004   9.67535e-31
      337.107   9.66889e-31
      337.211   9.66149e-31
      337.315   9.65323e-31
      337.419   9.64392e-31
      337.523   9.63352e-31
      337.626   9.62247e-31
      337.730   9.61049e-31
      337.834   9.59741e-31
      337.938   9.58318e-31
      338.042   9.56693e-31
      338.146   9.55076e-31
      338.250   9.53390e-31
      338.354   9.51624e-31
      338.458   9.49767e-31
      338.562   9.47828e-31
      338.667   9.45786e-31
      338.771   9.43680e-31
      338.875   9.41490e-31
      338.979   9.39218e-31
      339.084   9.36851e-31
      339.188   9.34412e-31
      339.292   9.31920e-31
      339.397   9.29310e-31
      339.501   9.26658e-31
      339.606   9.23898e-31
      339.710   9.21087e-31
      339.815   9.18183e-31
      339.919   9.15232e-31
      340.024   9.12180e-31
      340.128   9.09088e-31
      340.233   9.05897e-31
      340.338   9.02641e-31
      340.442   8.99339e-31
      340.547   8.95948e-31
      340.652   8.92488e-31
      340.757   8.88963e-31
      340.862   8.85377e-31
      340.966   8.81768e-31
      341.071   8.78045e-31
      341.176   8.74276e-31
      341.281   8.70447e-31
      341.386   8.66569e-31
      341.491   8.62623e-31
      341.596   8.58637e-31
      341.702   8.54553e-31
      341.807   8.50442e-31
      341.912   8.46292e-31
      342.017   8.42092e-31
      342.122   8.37839e-31
      342.228   8.33498e-31
      342.333   8.29152e-31
      342.438   8.24767e-31
      342.544   8.20290e-31
      342.649   8.15805e-31
      342.754   8.11298e-31
      342.860   8.06686e-31
      342.965   8.02087e-31
      343.071   7.97408e-31
      343.176   7.92739e-31
      343.282   7.87988e-31
      343.388   7.83204e-31
      343.493   7.78555e-31
      343.599   7.74867e-31
      343.705   7.71258e-31
      343.810   7.67618e-31
      343.916   7.63909e-31
      344.022   7.60166e-31
      344.128   7.56375e-31
      344.234   7.52543e-31
      344.340   7.48674e-31
      344.446   7.44761e-31
      344.552   7.40815e-31
      344.658   7.36850e-31
      344.764   7.32833e-31
      344.870   7.28790e-31
      344.976   7.24709e-31
      345.082   7.20597e-31
      345.188   7.16465e-31
      345.294   7.12289e-31
      345.401   7.08053e-31
      345.507   7.03826e-31
      345.613   6.99574e-31
      345.719   6.95297e-31
      345.826   6.90958e-31
      345.932   6.86631e-31
      346.039   6.82241e-31
      346.145   6.77870e-31
      346.252   6.73440e-31
      346.358   6.69029e-31
      346.465   6.64556e-31
      346.571   6.60114e-31
      346.678   6.55602e-31
      346.785   6.51079e-31
      346.891   6.46583e-31
      346.998   6.42029e-31
      347.105   6.37466e-31
      347.212   6.32889e-31
      347.319   6.28300e-31
      347.425   6.23735e-31
      347.532   6.19127e-31
      347.639   6.14509e-31
      347.746   6.09879e-31
      347.853   6.05247e-31
      347.960   6.00603e-31
      348.067   5.95964e-31
      348.174   5.91314e-31
      348.281   5.86653e-31
      348.389   5.81954e-31
      348.496   5.77279e-31
      348.603   5.72633e-31
      348.710   5.67962e-31
      348.818   5.63261e-31
      348.925   5.58536e-31
      349.032   5.51110e-31
      349.140   5.37169e-31
      349.247   5.23681e-31
      349.355   5.10415e-31
      349.462   4.97588e-31
      349.570   4.84953e-31
      349.677   4.72755e-31
      349.785   4.60739e-31
      349.892   4.49137e-31
      350.000   4.37717e-31
      350.100   4.27398e-31
      350.193   4.18015e-31
      350.287   4.08729e-31
      350.380   3.99750e-31
      350.473   3.90963e-31
      350.567   3.82263e-31
      350.660   3.73850e-31
      350.754   3.65533e-31
      350.847   3.57485e-31
      350.941   3.49523e-31
      351.034   3.41817e-31
      351.128   3.34199e-31
      351.221   3.26828e-31
      351.315   3.19535e-31
      351.409   3.12399e-31
      351.502   3.05499e-31
      351.596   2.98674e-31
      351.690   2.91995e-31
      351.783   2.85539e-31
      351.877   2.79154e-31
      351.971   2.72905e-31
      352.065   2.66795e-31
      352.159   2.60820e-31
      352.252   2.55037e-31
      352.346   2.49316e-31
      352.440   2.43725e-31
      352.534   2.38260e-31
      352.628   2.32911e-31
      352.722   2.27678e-31
      352.816   2.22564e-31
      352.910   2.17562e-31
      353.004   2.12672e-31
      353.098   2.07885e-31
      353.192   2.03206e-31
      353.287   1.98581e-31
      353.381   1.94106e-31
      353.475   1.89735e-31
      353.569   1.85453e-31
      353.663   1.81271e-31
      353.758   1.77139e-31
      353.852   1.73140e-31
      353.946   1.69229e-31
      354.041   1.65364e-31
      354.135   1.61626e-31
      354.229   1.57968e-31
      354.324   1.54357e-31
      354.418   1.50861e-31
      354.513   1.47407e-31
      354.607   1.44070e-31
      354.702   1.40533e-31
      354.796   1.36910e-31
      354.891   1.33321e-31
      354.985   1.29863e-31
      355.080   1.26459e-31
      355.175   1.23140e-31
      355.269   1.19943e-31
      355.364   1.16794e-31
      355.459   1.13728e-31
      355.553   1.10771e-31
      355.648   1.07861e-31
      355.743   1.05028e-31
      355.838   1.02263e-31
      355.933   9.95753e-32
      356.027   9.69825e-32
      356.122   9.44288e-32
      356.217   9.19421e-32
      356.312   8.95220e-32
      356.407   8.71623e-32
      356.502   8.48650e-32
      356.597   8.26266e-32
      356.692   8.04475e-32
      356.787   7.83249e-32
      356.882   7.62560e-32
      356.977   7.42434e-32
      357.073   7.22621e-32
      357.168   7.03510e-32
      357.263   6.84913e-32
      357.358   6.66797e-32
      357.453   6.49158e-32
      357.549   6.31799e-32
      357.644   6.15071e-32
      357.739   5.98788e-32
      357.835   5.82747e-32
      357.930   5.67298e-32
      358.025   5.52253e-32
      358.121   5.37449e-32
      358.216   5.23183e-32
      358.312   5.09144e-32
      358.407   4.95622e-32
      358.503   4.82315e-32
      358.598   4.69499e-32
      358.694   4.56882e-32
      358.790   4.44596e-32
      358.885   4.32759e-32
      358.981   4.21114e-32
      359.076   4.09899e-32
      359.172   3.98866e-32
      359.268   3.88111e-32
      359.364   3.77648e-32
      359.459   3.67578e-32
      359.555   3.57662e-32
      359.651   3.48006e-32
      359.747   3.38609e-32
      359.843   3.29462e-32
      359.939   3.20556e-32
      360.035   3.11891e-32
      360.131   3.03458e-32
      360.227   2.95239e-32
      360.323   2.87248e-32
      360.419   2.81078e-32
      360.515   2.76447e-32
      360.611   2.72147e-32
      360.707   2.67901e-32
      360.803   2.63718e-32
      360.899   2.59585e-32
      360.995   2.55513e-32
      361.092   2.51449e-32
      361.188   2.47480e-32
      361.284   2.43566e-32
      361.380   2.39705e-32
      361.477   2.35855e-32
      361.573   2.32097e-32
      361.669   2.28390e-32
      361.766   2.24693e-32
      361.862   2.21088e-32
      361.959   2.17495e-32
      362.055   2.13982e-32
      362.152   2.10489e-32
      362.248   2.07077e-32
      362.345   2.03676e-32
      362.441   2.00361e-32
      362.538   1.97057e-32
      362.635   1.93800e-32
      362.731   1.90619e-32
      362.828   1.87451e-32
      362.925   1.84329e-32
      363.021   1.81284e-32
      363.118   1.78252e-32
      363.215   1.75261e-32
      363.312   1.72313e-32
      363.409   1.69410e-32
      363.505   1.66577e-32
      363.602   1.63756e-32
      363.699   1.60978e-32
      363.796   1.58239e-32
      363.893   1.55540e-32
      363.990   1.52881e-32
      364.087   1.50262e-32
      364.184   1.47681e-32
      364.281   1.45138e-32
      364.378   1.42635e-32
      364.475   1.40168e-32
      364.573   1.37713e-32
      364.670   1.35320e-32
      364.767   1.32964e-32
      364.864   1.30642e-32
      364.961   1.28356e-32
      365.059   1.26083e-32
      365.156   1.23867e-32
      365.253   1.21685e-32
      365.351   1.19514e-32
      365.448   1.17398e-32
      365.545   1.15317e-32
      365.643   1.13246e-32
      365.740   1.11227e-32
      365.838   1.09220e-32
      365.935   1.07265e-32
      366.033   1.05322e-32
      366.130   1.03428e-32
      366.228   1.01732e-32
      366.326   1.00317e-32
      366.423   9.90106e-33
      366.521   9.77032e-33
      366.618   9.64191e-33
      366.716   9.51334e-33
      366.814   9.38596e-33
      366.912   9.25975e-33
      367.010   9.13463e-33
      367.107   9.01193e-33
      367.205   8.88902e-33
      367.303   8.76730e-33
      367.401   8.64674e-33
      367.499   8.52727e-33
      367.597   8.40899e-33
      367.695   8.29181e-33
      367.793   8.17581e-33
      367.891   8.06097e-33
      367.989   7.94721e-33
      368.087   7.83462e-33
      368.185   7.72311e-33
      368.283   7.61274e-33
      368.381   7.50347e-33
      368.480   7.39424e-33
      368.578   7.28724e-33
      368.676   7.18143e-33
      368.774   7.07673e-33
      368.873   6.97207e-33
      368.971   6.86957e-33
      369.069   6.76816e-33
      369.168   6.66679e-33
      369.266   6.56755e-33
      369.364   6.46945e-33
      369.463   6.37148e-33
      369.561   6.27559e-33
      369.660   6.17977e-33
      369.758   6.08599e-33
      369.857   5.99241e-33
      369.955   5.90085e-33
      370.054   5.80934e-33
      370.153   5.71893e-33
      370.251   5.63054e-33
      370.350   5.54233e-33
      370.449   5.45518e-33
      370.547   5.36990e-33
      370.646   5.28474e-33
      370.745   5.20074e-33
      370.844   5.11773e-33
      370.943   5.03575e-33
      371.041   4.95562e-33
      371.140   4.87563e-33
      371.239   4.79667e-33
      371.338   4.71877e-33
      371.437   4.64184e-33
      371.536   4.56589e-33
      371.635   4.49090e-33
      371.734   4.41694e-33
      371.833   4.34393e-33
      371.932   4.27188e-33
      372.032   4.20009e-33
      372.131   4.15826e-33
      372.230   4.17581e-33
      372.329   4.22290e-33
      372.428   4.26934e-33
      372.528   4.31559e-33
      372.627   4.36074e-33
      372.726   4.40518e-33
      372.826   4.44939e-33
      372.925   4.49245e-33
      373.024   4.53469e-33
      373.124   4.57659e-33
      373.223   4.61722e-33
      373.323   4.65751e-33
      373.422   4.69655e-33
      373.522   4.73506e-33
      373.621   4.77228e-33
      373.721   4.80904e-33
      373.820   4.84444e-33
      373.920   4.87924e-33
      374.020   4.91313e-33
      374.119   4.94563e-33
      374.219   4.97752e-33
      374.319   5.00841e-33
      374.419   5.03821e-33
      374.518   5.06669e-33
      374.618   5.09442e-33
      374.718   5.12107e-33
      374.818   5.14658e-33
      374.918   5.17100e-33
      375.018   5.19438e-33
      375.118   5.21661e-33
      375.218   5.23771e-33
      375.318   5.25773e-33
      375.418   5.27659e-33
      375.518   5.29431e-33
      375.618   5.31087e-33
      375.718   5.32622e-33
      375.818   5.34046e-33
      375.918   5.35354e-33
      376.019   5.36563e-33
      376.119   5.37643e-33
      376.219   5.38599e-33
      376.319   5.39445e-33
      376.420   5.40180e-33
      376.520   5.40789e-33
      376.620   5.41285e-33
      376.721   5.41669e-33
      376.821   5.41932e-33
      376.922   5.42187e-33
      377.022   5.43653e-33
      377.122   5.46479e-33
      377.223   5.49202e-33
      377.323   5.51764e-33
      377.424   5.54219e-33
      377.525   5.56530e-33
      377.625   5.58677e-33
      377.726   5.60708e-33
      377.827   5.62605e-33
      377.927   5.64342e-33
      378.028   5.65954e-33
      378.129   5.67425e-33
      378.230   5.68750e-33
      378.330   5.69914e-33
      378.431   5.70947e-33
      378.532   5.71842e-33
      378.633   5.72594e-33
      378.734   5.73207e-33
      378.835   5.73674e-33
      378.936   5.74007e-33
      379.037   5.74198e-33
      379.138   5.74241e-33
      379.239   5.74156e-33
      379.340   5.73940e-33
      379.441   5.73585e-33
      379.542   5.73090e-33
      379.643   5.72466e-33
      379.745   5.71703e-33
      379.846   5.70815e-33
      379.947   5.69789e-33
      380.048   5.68645e-33
      380.150   5.67362e-33
      380.251   5.65964e-33
      380.352   5.64444e-33
      380.454   5.62787e-33
      380.555   5.61025e-33
      380.656   5.59143e-33
      380.758   5.57130e-33
      380.859   5.55021e-33
      380.961   5.52781e-33
      381.062   5.50452e-33
      381.164   5.47994e-33
      381.266   5.45429e-33
      381.367   5.42787e-33
      381.469   5.40021e-33
      381.570   5.37180e-33
      381.672   5.34214e-33
      381.774   5.31158e-33
      381.876   5.28004e-33
      381.977   5.24934e-33
      382.079   5.22184e-33
      382.181   5.19708e-33
      382.283   5.17134e-33
      382.385   5.14452e-33
      382.487   5.11674e-33
      382.589   5.08797e-33
      382.691   5.05823e-33
      382.793   5.02761e-33
      382.895   4.99612e-33
      382.997   4.96373e-33
      383.099   4.93052e-33
      383.201   4.89649e-33
      383.303   4.86173e-33
      383.405   4.82614e-33
      383.507   4.78978e-33
      383.610   4.75245e-33
      383.712   4.71479e-33
      383.814   4.67648e-33
      383.916   4.63757e-33
      384.019   4.59765e-33
      384.121   4.55756e-33
      384.223   4.51690e-33
      384.326   4.47540e-33
      384.428   4.43361e-33
      384.531   4.39090e-33
      384.633   4.34823e-33
      384.736   4.30471e-33
      384.838   4.26121e-33
      384.941   4.21697e-33
      385.043   4.17281e-33
      385.146   4.12798e-33
      385.249   4.08285e-33
      385.351   4.03792e-33
      385.454   3.99233e-33
      385.557   3.94655e-33
      385.660   3.90060e-33
      385.762   3.85496e-33
      385.865   3.80873e-33
      385.968   3.76239e-33
      386.071   3.71596e-33
      386.174   3.66951e-33
      386.277   3.62301e-33
      386.380   3.57649e-33
      386.483   3.52996e-33
      386.586   3.48352e-33
      386.689   3.43708e-33
      386.792   3.39069e-33
      386.895   3.34440e-33
      386.998   3.29820e-33
      387.101   3.23765e-33
      387.204   3.12819e-33
      387.308   3.00507e-33
      387.411   2.88788e-33
      387.514   2.77525e-33
      387.617   2.66702e-33
      387.721   2.56202e-33
      387.824   2.46206e-33
      387.927   2.36592e-33
      388.031   2.27270e-33
      388.134   2.18398e-33
      388.238   2.09794e-33
      388.341   2.01598e-33
      388.445   1.93650e-33
      388.548   1.86081e-33
      388.652   1.78742e-33
      388.755   1.71758e-33
      388.859   1.64980e-33
      388.962   1.58530e-33
      389.066   1.52269e-33
      389.170   1.46260e-33
      389.274   1.40483e-33
      389.377   1.34985e-33
      389.481   1.29648e-33
      389.585   1.24526e-33
      389.689   1.19603e-33
      389.793   1.14872e-33
      389.897   1.10330e-33
      390.000   1.06005e-33
      390.104   1.01812e-33
      390.208   9.77806e-34
      390.312   9.39097e-34
      390.416   9.01913e-34
      390.520   8.66169e-34
      390.625   8.31500e-34
      390.729   7.98555e-34
      390.833   7.66882e-34
      390.937   7.36464e-34
      391.041   7.07255e-34
      391.145   6.79197e-34
      391.250   6.51978e-34
      391.354   6.26094e-34
      391.458   6.01225e-34
      391.563   5.77107e-34
      391.667   5.54175e-34
      391.771   5.32151e-34
      391.876   5.10791e-34
      391.980   4.90473e-34
      392.085   4.70782e-34
      392.189   4.52054e-34
      392.294   4.33893e-34
      392.398   4.16627e-34
      392.503   3.99886e-34
      392.607   3.83964e-34
      392.712   3.68534e-34
      392.817   3.53709e-34
      392.921   3.39623e-34
      393.026   3.25960e-34
      393.131   3.12851e-34
      393.236   3.00255e-34
      393.340   2.88285e-34
      393.445   2.76683e-34
      393.550   2.65544e-34
      393.655   2.54849e-34
      393.760   2.44586e-34
      393.865   2.34731e-34
      393.970   2.25279e-34
      394.075   2.16197e-34
      394.180   2.07486e-34
      394.285   1.99121e-34
      394.390   1.91094e-34
      394.495   1.83385e-34
      394.600   1.75989e-34
      394.706   1.68824e-34
      394.811   1.62014e-34
      394.916   1.55471e-34
      395.021   1.49195e-34
      395.126   1.43175e-34
      395.232   1.37338e-34
      395.337   1.31790e-34
      395.443   1.26418e-34
      395.548   1.21311e-34
      395.653   1.16410e-34
      395.759   1.11660e-34
      395.864   1.07147e-34
      395.970   1.02775e-34
      396.075   9.86196e-35
      396.181   9.45932e-35
      396.286   9.07649e-35
      396.392   8.70608e-35
      396.498   8.35057e-35
      396.603   8.01237e-35
      396.709   7.68513e-35
      396.815   7.37105e-35
      396.921   7.06966e-35
      397.026   6.78334e-35
      397.132   6.50586e-35
      397.238   6.23988e-35
      397.344   5.98442e-35
      397.450   5.73984e-35
      397.556   5.50479e-35
      397.662   5.27940e-35
      397.768   5.06330e-35
      397.874   4.85587e-35
      397.980   4.65694e-35
      398.086   4.46603e-35
      398.192   4.28305e-35
      398.298   4.10743e-35
      398.404   3.93899e-35
      398.510   3.77741e-35
      398.617   3.62112e-35
      398.723   3.47253e-35
      398.829   3.32994e-35
      398.935   3.19321e-35
      399.042   3.06093e-35
      399.148   2.93514e-35
      399.255   2.81352e-35
      399.361   2.69792e-35
      399.467   2.58693e-35
      399.574   2.47965e-35
      399.680   2.37765e-35
      399.787   2.27892e-35
      399.893       0.00000
      400.000       0.00000
