Filter Ti-poly
observation_date 2019-09-22 22:40:45
wavelength effective area
      1.00000   2.76776e-10
      1.10000   7.88640e-10
      1.20000   2.04569e-09
      1.30000   4.87935e-09
      1.40000   1.10400e-08
      1.50000   2.34773e-08
      1.60000   4.73589e-08
      1.70000   9.15822e-08
      1.80000   1.69778e-07
      1.90000   3.03743e-07
      2.00000   5.25456e-07
      2.10000   8.82863e-07
      2.20000   1.44763e-06
      2.30000   2.31340e-06
      2.40000   3.60955e-06
      2.50000   5.78539e-06
      2.60000   8.95670e-06
      2.70000   1.33532e-05
      2.80000   1.95272e-05
      2.90000   2.82624e-05
      3.00000   4.02674e-05
      3.10000   5.66348e-05
      3.20000   7.87861e-05
      3.30000   0.000108488
      3.40000   0.000147832
      3.50000   0.000199496
      3.60000   0.000267981
      3.70000   0.000356157
      3.80000   0.000471392
      3.90000   0.000620457
      4.00000   0.000811588
      4.10000    0.00105669
      4.20000    0.00137092
      4.30000    0.00177355
      4.40000    0.00228835
      4.50000    0.00294450
      4.60000    0.00377613
      4.70000    0.00484254
      4.80000    0.00620384
      4.90000    0.00784572
      5.00000     0.0101835
      5.10000     0.0130317
      5.20000     0.0167262
      5.30000     0.0212867
      5.40000     0.0270474
      5.50000     0.0344276
      5.60000     0.0424779
      5.70000     0.0552162
      5.80000     0.0647328
      5.90000     0.0988369
      6.00000      0.132861
      6.10000      0.169808
      6.20000      0.208523
      6.30000      0.245446
      6.40000      0.277128
      6.50000      0.300452
      6.60000      0.311002
      6.70000      0.320700
      6.80000      0.321128
      6.90000      0.421297
      7.00000      0.458155
      7.10000      0.484535
      7.20000      0.505486
      7.30000      0.522568
      7.40000      0.535601
      7.50000      0.545967
      7.60000      0.553777
      7.70000      0.557564
      7.80000      0.556249
      7.90000      0.555594
      8.00000      0.803253
      8.10000      0.879011
      8.20000      0.892962
      8.30000      0.902825
      8.40000      0.909211
      8.50000      0.914147
      8.60000      0.917355
      8.70000      0.919436
      8.80000      0.920091
      8.90000      0.919783
      9.00000      0.918448
      9.10000      0.916138
      9.20000      0.913033
      9.30000      0.909055
      9.40000      0.904348
      9.50000      0.898970
      9.60000      0.892874
      9.70000      0.886167
      9.80000      0.878998
      9.90000      0.871393
      10.0000      0.863416
      10.1000      0.855075
      10.2000      0.846397
      10.3000      0.837327
      10.4000      0.827894
      10.5000      0.818120
      10.6000      0.808047
      10.7000      0.797697
      10.8000      0.787082
      10.9000      0.776233
      11.0000      0.765164
      11.1000      0.753909
      11.2000      0.742473
      11.3000      0.730889
      11.4000      0.719152
      11.5000      0.707265
      11.6000      0.695247
      11.7000      0.683046
      11.8000      0.670742
      11.9000      0.658254
      12.0000      0.644904
      12.1000      0.633904
      12.2000      0.634003
      12.3000      0.627397
      12.4000      0.616156
      12.5000      0.604532
      12.6000      0.592773
      12.7000      0.580977
      12.8000      0.569182
      12.9000      0.557399
      13.0000      0.545670
      13.1000      0.534026
      13.2000      0.522482
      13.3000      0.511053
      13.4000      0.499755
      13.5000      0.488719
      13.6000      0.477921
      13.7000      0.467248
      13.8000      0.456696
      13.9000      0.446286
      14.0000      0.436015
      14.1000      0.425869
      14.2000      0.415849
      14.3000      0.405953
      14.4000      0.396170
      14.5000      0.386514
      14.6000      0.376987
      14.7000      0.367579
      14.8000      0.358296
      14.9000      0.349138
      15.0000      0.340110
      15.1000      0.331218
      15.2000      0.322487
      15.3000      0.313899
      15.4000      0.305450
      15.5000      0.297141
      15.6000      0.288991
      15.7000      0.280996
      15.8000      0.273193
      15.9000      0.265553
      16.0000      0.258074
      16.1000      0.250757
      16.2000      0.243642
      16.3000      0.236677
      16.4000      0.229850
      16.5000      0.223155
      16.6000      0.216608
      16.7000      0.210211
      16.8000      0.203938
      16.9000      0.197785
      17.0000      0.191776
      17.1000      0.185911
      17.2000      0.180158
      17.3000      0.174525
      17.4000      0.169138
      17.5000      0.163959
      17.6000      0.158962
      17.7000      0.154175
      17.8000      0.149685
      17.9000      0.145294
      18.0000      0.140971
      18.1000      0.136760
      18.2000      0.132589
      18.3000      0.128450
      18.4000      0.124336
      18.5000      0.120256
      18.6000      0.116196
      18.7000      0.112141
      18.8000      0.108198
      18.9000      0.104336
      19.0000      0.100592
      19.1000     0.0969685
      19.2000     0.0934337
      19.3000     0.0900400
      19.4000     0.0867597
      19.5000     0.0835646
      19.6000     0.0805308
      19.7000     0.0775813
      19.8000     0.0747079
      19.9000     0.0719764
      20.0000     0.0693038
      20.1000     0.0667113
      20.2000     0.0642064
      20.3000     0.0617522
      20.4000     0.0593937
      20.5000     0.0570933
      20.6000     0.0548458
      20.7000     0.0526908
      20.8000     0.0505763
      20.9000     0.0485343
      21.0000     0.0466471
      21.1000     0.0448794
      21.2000     0.0434669
      21.3000     0.0421571
      21.4000     0.0410685
      21.5000     0.0402296
      21.6000     0.0396420
      21.7000     0.0390255
      21.8000     0.0383991
      21.9000     0.0376921
      22.0000     0.0369365
      22.1000     0.0360602
      22.2000     0.0349691
      22.3000     0.0336932
      22.4000     0.0317377
      22.5000     0.0295760
      22.6000     0.0249095
      22.7000     0.0220883
      22.8000     0.0282763
      22.9000     0.0359244
      23.0000     0.0451323
      23.1000     0.0506655
      23.2000     0.0528339
      23.3000     0.0526588
      23.4000     0.0513237
      23.5000     0.0499577
      23.6000     0.0485892
      23.7000     0.0471370
      23.8000     0.0456857
      23.9000     0.0442726
      24.0000     0.0428685
      24.1000     0.0414855
      24.2000     0.0401192
      24.3000     0.0387986
      24.4000     0.0374958
      24.5000     0.0362308
      24.6000     0.0349889
      24.7000     0.0337904
      24.8000     0.0326151
      24.9000     0.0314785
      25.0000     0.0303668
      25.1000     0.0292951
      25.2000     0.0282466
      25.3000     0.0272357
      25.4000     0.0262476
      25.5000     0.0252987
      25.6000     0.0243704
      25.7000     0.0234817
      25.8000     0.0226099
      25.9000     0.0217780
      26.0000     0.0209590
      26.1000     0.0201804
      26.2000     0.0194106
      26.3000     0.0186840
      26.4000     0.0179617
      26.5000     0.0172834
      26.6000     0.0166086
      26.7000     0.0159733
      26.8000     0.0153463
      26.9000     0.0147500
      27.0000     0.0141653
      27.1000     0.0136027
      27.2000     0.0130552
      27.3000     0.0562831
      27.4000      0.154004
      27.5000      0.225105
      27.6000      0.221412
      27.7000      0.217730
      27.8000      0.213972
      27.9000      0.210231
      28.0000      0.206563
      28.1000      0.202921
      28.2000      0.199340
      28.3000      0.195801
      28.4000      0.192306
      28.5000      0.188875
      28.6000      0.185468
      28.7000      0.182169
      28.8000      0.178887
      28.9000      0.175672
      29.0000      0.172487
      29.1000      0.169348
      29.2000      0.166256
      29.3000      0.163189
      29.4000      0.160194
      29.5000      0.157214
      29.6000      0.154300
      29.7000      0.151413
      29.8000      0.148569
      29.9000      0.145776
      30.0000      0.143000
      30.1000      0.140298
      30.2000      0.137611
      30.3000      0.140281
      30.4000      0.145991
      30.5000      0.149885
      30.6000      0.147145
      30.7000      0.144420
      30.8000      0.141758
      30.9000      0.139123
      31.0000      0.136523
      31.1000      0.133982
      31.2000      0.131455
      31.3000      0.128991
      31.4000      0.126552
      31.5000      0.124149
      31.6000      0.121808
      31.7000      0.119481
      31.8000      0.117208
      31.9000      0.114959
      32.0000      0.112720
      32.1000      0.110489
      32.2000      0.108270
      32.3000      0.106106
      32.4000      0.103973
      32.5000      0.101861
      32.6000     0.0998348
      32.7000     0.0978198
      32.8000     0.0958455
      32.9000     0.0939110
      33.0000     0.0919879
      33.1000     0.0901779
      33.2000     0.0883910
      33.3000     0.0866261
      33.4000     0.0849106
      33.5000     0.0832061
      33.6000     0.0815416
      33.7000     0.0799083
      33.8000     0.0782840
      33.9000     0.0767127
      34.0000     0.0751565
      34.1000     0.0736275
      34.2000     0.0721420
      34.3000     0.0706645
      34.4000     0.0692153
      34.5000     0.0678007
      34.6000     0.0663937
      34.7000     0.0650179
      34.8000     0.0636610
      34.9000     0.0623112
      35.0000     0.0610106
      35.1000     0.0597215
      35.2000     0.0584475
      35.3000     0.0572503
      35.4000     0.0560597
      35.5000     0.0548870
      35.6000     0.0537498
      35.7000     0.0526187
      35.8000     0.0515112
      35.9000     0.0504319
      36.0000     0.0493583
      36.1000     0.0483129
      36.2000     0.0472897
      36.3000     0.0462719
      36.4000     0.0452852
      36.5000     0.0443155
      36.6000     0.0433509
      36.7000     0.0424199
      36.8000     0.0415022
      36.9000     0.0405894
      37.0000     0.0397112
      37.1000     0.0388435
      37.2000     0.0379803
      37.3000     0.0371523
      37.4000     0.0363329
      37.5000     0.0355177
      37.6000     0.0347368
      37.7000     0.0339634
      37.8000     0.0331941
      37.9000     0.0324577
      38.0000     0.0317289
      38.1000     0.0310039
      38.2000     0.0303094
      38.3000     0.0296231
      38.4000     0.0289404
      38.5000     0.0282854
      38.6000     0.0276398
      38.7000     0.0269977
      38.8000     0.0263799
      38.9000     0.0257733
      39.0000     0.0251699
      39.1000     0.0245871
      39.2000     0.0240178
      39.3000     0.0234516
      39.4000     0.0229015
      39.5000     0.0223678
      39.6000     0.0218370
      39.7000     0.0213178
      39.8000     0.0208182
      39.9000     0.0203214
      40.0000     0.0198312
      40.1000     0.0193647
      40.2000     0.0189007
      40.3000     0.0184393
      40.4000     0.0180023
      40.5000     0.0175689
      40.6000     0.0171378
      40.7000     0.0167251
      40.8000     0.0163206
      40.9000     0.0159184
      41.0000     0.0155282
      41.1000     0.0151512
      41.2000     0.0147763
      41.3000     0.0144074
      41.4000     0.0140570
      41.5000     0.0137085
      41.6000     0.0133620
      41.7000     0.0130338
      41.8000     0.0127097
      41.9000     0.0123875
      42.0000     0.0120771
      42.1000     0.0117765
      42.2000     0.0114776
      42.3000     0.0111833
      42.4000     0.0109047
      42.5000     0.0106275
      42.6000     0.0103519
      42.7000     0.0100903
      42.8000    0.00983343
      42.9000    0.00957801
      43.0000    0.00932971
      43.1000    0.00909220
      43.2000    0.00885600
      43.3000    0.00862118
      43.4000     0.0262970
      43.5000     0.0496371
      43.6000     0.0784413
      43.7000      0.100142
      43.8000      0.104908
      43.9000      0.103482
      44.0000      0.102060
      44.1000      0.100683
      44.2000     0.0993112
      44.3000     0.0979429
      44.4000     0.0965956
      44.5000     0.0952749
      44.6000     0.0939576
      44.7000     0.0926436
      44.8000     0.0913718
      44.9000     0.0901086
      45.0000     0.0888487
      45.1000     0.0876036
      45.2000     0.0863895
      45.3000     0.0851785
      45.4000     0.0839705
      45.5000     0.0827923
      45.6000     0.0816295
      45.7000     0.0804697
      45.8000     0.0793142
      45.9000     0.0781982
      46.0000     0.0770849
      46.1000     0.0759745
      46.2000     0.0749141
      46.3000     0.0739374
      46.4000     0.0729633
      46.5000     0.0719916
      46.6000     0.0710552
      46.7000     0.0701373
      46.8000     0.0692218
      46.9000     0.0683086
      47.0000     0.0674437
      47.1000     0.0665839
      47.2000     0.0657263
      47.3000     0.0648765
      47.4000     0.0640545
      47.5000     0.0632345
      47.6000     0.0624167
      47.7000     0.0616146
      47.8000     0.0608363
      47.9000     0.0600598
      48.0000     0.0592854
      48.1000     0.0585283
      48.2000     0.0577850
      48.3000     0.0570436
      48.4000     0.0563041
      48.5000     0.0555911
      48.6000     0.0548897
      48.7000     0.0541900
      48.8000     0.0534921
      48.9000     0.0528174
      49.0000     0.0521486
      49.1000     0.0514815
      49.2000     0.0508161
      49.3000     0.0501734
      49.4000     0.0495339
      49.5000     0.0488961
      49.6000     0.0482598
      49.7000     0.0476462
      49.8000     0.0470347
      49.9000     0.0464247
      50.0000     0.0458169
      50.1000     0.0452278
      50.2000     0.0446523
      50.3000     0.0440835
      50.4000     0.0435209
      50.5000     0.0429643
      50.6000     0.0424143
      50.7000     0.0418708
      50.8000     0.0413334
      50.9000     0.0408026
      51.0000     0.0402783
      51.1000     0.0397604
      51.2000     0.0392483
      51.3000     0.0387429
      51.4000     0.0382443
      51.5000     0.0377500
      51.6000     0.0372611
      51.7000     0.0367772
      51.8000     0.0362939
      51.9000     0.0358158
      52.0000     0.0353428
      52.1000     0.0348754
      52.2000     0.0344130
      52.3000     0.0339553
      52.4000     0.0335045
      52.5000     0.0330588
      52.6000     0.0326078
      52.7000     0.0321516
      52.8000     0.0317004
      52.9000     0.0312554
      53.0000     0.0308163
      53.1000     0.0303820
      53.2000     0.0299537
      53.3000     0.0295305
      53.4000     0.0291120
      53.5000     0.0286990
      53.6000     0.0282912
      53.7000     0.0278879
      53.8000     0.0274898
      53.9000     0.0270965
      54.0000     0.0267086
      54.1000     0.0263267
      54.2000     0.0259491
      54.3000     0.0255754
      54.4000     0.0252066
      54.5000     0.0248422
      54.6000     0.0244826
      54.7000     0.0241286
      54.8000     0.0237792
      54.9000     0.0234339
      55.0000     0.0230929
      55.1000     0.0227556
      55.2000     0.0224122
      55.3000     0.0220648
      55.4000     0.0217220
      55.5000     0.0213833
      55.6000     0.0210493
      55.7000     0.0207200
      55.8000     0.0203947
      55.9000     0.0200744
      56.0000     0.0197615
      56.1000     0.0194491
      56.2000     0.0191374
      56.3000     0.0188303
      56.4000     0.0185272
      56.5000     0.0182282
      56.6000     0.0179339
      56.7000     0.0176438
      56.8000     0.0173575
      56.9000     0.0170758
      57.0000     0.0168050
      57.1000     0.0165422
      57.2000     0.0162830
      57.3000     0.0160273
      57.4000     0.0157749
      57.5000     0.0155260
      57.6000     0.0152804
      57.7000     0.0150382
      57.8000     0.0147999
      57.9000     0.0145653
      58.0000     0.0143339
      58.1000     0.0141052
      58.2000     0.0138799
      58.3000     0.0136577
      58.4000     0.0134385
      58.5000     0.0132226
      58.6000     0.0130102
      58.7000     0.0128007
      58.8000     0.0125940
      58.9000     0.0123902
      59.0000     0.0121893
      59.1000     0.0119913
      59.2000     0.0117962
      59.3000     0.0116041
      59.4000     0.0114148
      59.5000     0.0112282
      59.6000     0.0110444
      59.7000     0.0108631
      59.8000     0.0106844
      59.9000     0.0105082
      60.0000     0.0103349
      60.1000     0.0101641
      60.2000    0.00999576
      60.3000    0.00982997
      60.4000    0.00966674
      60.5000    0.00950604
      60.6000    0.00934748
      60.7000    0.00919105
      60.8000    0.00903686
      60.9000    0.00888477
      61.0000    0.00873510
      61.1000    0.00858791
      61.2000    0.00844294
      61.3000    0.00830013
      61.4000    0.00815949
      61.5000    0.00802099
      61.6000    0.00788447
      61.7000    0.00775041
      61.8000    0.00762072
      61.9000    0.00749381
      62.0000    0.00736878
      62.1000    0.00724561
      62.2000    0.00712449
      62.3000    0.00700519
      62.4000    0.00688757
      62.5000    0.00677166
      62.6000    0.00665749
      62.7000    0.00654546
      62.8000    0.00644023
      62.9000    0.00633668
      63.0000    0.00623469
      63.1000    0.00613419
      63.2000    0.00603506
      63.3000    0.00593730
      63.4000    0.00584101
      63.5000    0.00574623
      63.6000    0.00565276
      63.7000    0.00556063
      63.8000    0.00546995
      63.9000    0.00538068
      64.0000    0.00529271
      64.1000    0.00520606
      64.2000    0.00512080
      64.3000    0.00503687
      64.4000    0.00495411
      64.5000    0.00487247
      64.6000    0.00479200
      64.7000    0.00471270
      64.8000    0.00463456
      64.9000    0.00455759
      65.0000    0.00448185
      65.1000    0.00440743
      65.2000    0.00433417
      65.3000    0.00426195
      65.4000    0.00419075
      65.5000    0.00412059
      65.6000    0.00405141
      65.7000    0.00398331
      65.8000    0.00391631
      65.9000    0.00385043
      66.0000    0.00378564
      66.1000    0.00372190
      66.2000    0.00365910
      66.3000    0.00359725
      66.4000    0.00353632
      66.5000    0.00347628
      66.6000    0.00341711
      66.7000    0.00335888
      66.8000    0.00330164
      66.9000    0.00324570
      67.0000    0.00319096
      67.1000    0.00313710
      67.2000    0.00308407
      67.3000    0.00303189
      67.4000    0.00298049
      67.5000    0.00292985
      67.6000    0.00287999
      67.7000    0.00283092
      67.8000    0.00278256
      67.9000    0.00273476
      68.0000    0.00268769
      68.1000    0.00264143
      68.2000    0.00259590
      68.3000    0.00255110
      68.4000    0.00250701
      68.5000    0.00246363
      68.6000    0.00242097
      68.7000    0.00237899
      68.8000    0.00233768
      68.9000    0.00229761
      69.0000    0.00226138
      69.1000    0.00222867
      69.2000    0.00219695
      69.3000    0.00216605
      69.4000    0.00213638
      69.5000    0.00210616
      69.6000    0.00207504
      69.7000    0.00204520
      69.8000    0.00201680
      69.9000    0.00198880
      70.0000    0.00196110
      70.1000    0.00193321
      70.2000    0.00190669
      70.3000    0.00188155
      70.4000    0.00185649
      70.5000    0.00183209
      70.6000    0.00180829
      70.7000    0.00178481
      70.8000    0.00176159
      70.9000    0.00173783
      71.0000    0.00171361
      71.1000    0.00169051
      71.2000    0.00166851
      71.3000    0.00164521
      71.4000    0.00162030
      71.5000    0.00159735
      71.6000    0.00157724
      71.7000    0.00155700
      71.8000    0.00153610
      71.9000    0.00151593
      72.0000    0.00149727
      72.1000    0.00147821
      72.2000    0.00145638
      72.3000    0.00143493
      72.4000    0.00141610
      72.5000    0.00139756
      72.6000    0.00137927
      72.7000    0.00136123
      72.8000    0.00134341
      72.9000    0.00132582
      73.0000    0.00130887
      73.1000    0.00129234
      73.2000    0.00127602
      73.3000    0.00125990
      73.4000    0.00124414
      73.5000    0.00122884
      73.6000    0.00121374
      73.7000    0.00119883
      73.8000    0.00118411
      73.9000    0.00116955
      74.0000    0.00115525
      74.1000    0.00114226
      74.2000    0.00112974
      74.3000    0.00111623
      74.4000    0.00110200
      74.5000    0.00108819
      74.6000    0.00107506
      74.7000    0.00106209
      74.8000    0.00104935
      74.9000    0.00103687
      75.0000    0.00102446
      75.1000    0.00101214
      75.2000   0.000999944
      75.3000   0.000987881
      75.4000   0.000976071
      75.5000   0.000964652
      75.6000   0.000953370
      75.7000   0.000942222
      75.8000   0.000931222
      75.9000   0.000920491
      76.0000   0.000910008
      76.1000   0.000900316
      76.2000   0.000890822
      76.3000   0.000881441
      76.4000   0.000872328
      76.5000   0.000863324
      76.6000   0.000854400
      76.7000   0.000845560
      76.8000   0.000836805
      76.9000   0.000828144
      77.0000   0.000819580
      77.1000   0.000811114
      77.2000   0.000802742
      77.3000   0.000794454
      77.4000   0.000786243
      77.5000   0.000778088
      77.6000   0.000769834
      77.7000   0.000761662
      77.8000   0.000753565
      77.9000   0.000745541
      78.0000   0.000737484
      78.1000   0.000729192
      78.2000   0.000721007
      78.3000   0.000713616
      78.4000   0.000706555
      78.5000   0.000699489
      78.6000   0.000692272
      78.7000   0.000685126
      78.8000   0.000677777
      78.9000   0.000670433
      79.0000   0.000663163
      79.1000   0.000655964
      79.2000   0.000648855
      79.3000   0.000642038
      79.4000   0.000635372
      79.5000   0.000628708
      79.6000   0.000621884
      79.7000   0.000615122
      79.8000   0.000608311
      79.9000   0.000601511
      80.0000   0.000594751
      80.1000   0.000587798
      80.2000   0.000580904
      80.3000   0.000573799
      80.4000   0.000566504
      80.5000   0.000559280
      80.6000   0.000552145
      80.7000   0.000545095
      80.8000   0.000538170
      80.9000   0.000531429
      81.0000   0.000524762
      81.1000   0.000518178
      81.2000   0.000511673
      81.3000   0.000505257
      81.4000   0.000499424
      81.5000   0.000493687
      81.6000   0.000488159
      81.7000   0.000482995
      81.8000   0.000477900
      81.9000   0.000473061
      82.0000   0.000468379
      82.1000   0.000463759
      82.2000   0.000459022
      82.3000   0.000454335
      82.4000   0.000449804
      82.5000   0.000445486
      82.6000   0.000441197
      82.7000   0.000436812
      82.8000   0.000432311
      82.9000   0.000427843
      83.0000   0.000423467
      83.1000   0.000419155
      83.2000   0.000414886
      83.3000   0.000410661
      83.4000   0.000406486
      83.5000   0.000402372
      83.6000   0.000398407
      83.7000   0.000394480
      83.8000   0.000390562
      83.9000   0.000386609
      84.0000   0.000382690
      84.1000   0.000378871
      84.2000   0.000375181
      84.3000   0.000371524
      84.4000   0.000367853
      84.5000   0.000364181
      84.6000   0.000360544
      84.7000   0.000357012
      84.8000   0.000353556
      84.9000   0.000350136
      85.0000   0.000346653
      85.1000   0.000343174
      85.2000   0.000339733
      85.3000   0.000336477
      85.4000   0.000333276
      85.5000   0.000330107
      85.6000   0.000326892
      85.7000   0.000323701
      85.8000   0.000320538
      85.9000   0.000317401
      86.0000   0.000314291
      86.1000   0.000311210
      86.2000   0.000308255
      86.3000   0.000305330
      86.4000   0.000302432
      86.5000   0.000299558
      86.6000   0.000296709
      86.7000   0.000293885
      86.8000   0.000290858
      86.9000   0.000287853
      87.0000   0.000284881
      87.1000   0.000281989
      87.2000   0.000279132
      87.3000   0.000276305
      87.4000   0.000273426
      87.5000   0.000270558
      87.6000   0.000267715
      87.7000   0.000264946
      87.8000   0.000262213
      87.9000   0.000259503
      88.0000   0.000256818
      88.1000   0.000254158
      88.2000   0.000251526
      88.3000   0.000248979
      88.4000   0.000246513
      88.5000   0.000244078
      88.6000   0.000241648
      88.7000   0.000239210
      88.8000   0.000236799
      88.9000   0.000234408
      89.0000   0.000232030
      89.1000   0.000229675
      89.2000   0.000227355
      89.3000   0.000225090
      89.4000   0.000222890
      89.5000   0.000220710
      89.6000   0.000218551
      89.7000   0.000216409
      89.8000   0.000214283
      89.9000   0.000212174
      90.0000   0.000210084
      90.1000   0.000208014
      90.2000   0.000205913
      90.3000   0.000203718
      90.4000   0.000201544
      90.5000   0.000199396
      90.6000   0.000197310
      90.7000   0.000195237
      90.8000   0.000193163
      90.9000   0.000191064
      91.0000   0.000188974
      91.1000   0.000186905
      91.2000   0.000184827
      91.3000   0.000182723
      91.4000   0.000180635
      91.5000   0.000178569
      91.6000   0.000176525
      91.7000   0.000174687
      91.8000   0.000173155
      91.9000   0.000171978
      92.0000   0.000170597
      92.1000   0.000169183
      92.2000   0.000167665
      92.3000   0.000166058
      92.4000   0.000164405
      92.5000   0.000162771
      92.6000   0.000161152
      92.7000   0.000159549
      92.8000   0.000157962
      92.9000   0.000156411
      93.0000   0.000154923
      93.1000   0.000153447
      93.2000   0.000151985
      93.3000   0.000150596
      93.4000   0.000149240
      93.5000   0.000147895
      93.6000   0.000146558
      93.7000   0.000145223
      93.8000   0.000143886
      93.9000   0.000142560
      94.0000   0.000141245
      94.1000   0.000139939
      94.2000   0.000138646
      94.3000   0.000137377
      94.4000   0.000136159
      94.5000   0.000134956
      94.6000   0.000133764
      94.7000   0.000132584
      94.8000   0.000131414
      94.9000   0.000130253
      95.0000   0.000129101
      95.1000   0.000127961
      95.2000   0.000126826
      95.3000   0.000125700
      95.4000   0.000124586
      95.5000   0.000123502
      95.6000   0.000122426
      95.7000   0.000121359
      95.8000   0.000120285
      95.9000   0.000119213
      96.0000   0.000118147
      96.1000   0.000117089
      96.2000   0.000116038
      96.3000   0.000114998
      96.4000   0.000113967
      96.5000   0.000112944
      96.6000   0.000111935
      96.7000   0.000110936
      96.8000   0.000109943
      96.9000   0.000108956
      97.0000   0.000107978
      97.1000   0.000107012
      97.2000   0.000106053
      97.3000   0.000105087
      97.4000   0.000104117
      97.5000   0.000103157
      97.6000   0.000102207
      97.7000   0.000101272
      97.8000   0.000100349
      97.9000   9.94349e-05
      98.0000   9.85268e-05
      98.1000   9.76249e-05
      98.2000   9.67306e-05
      98.3000   9.59170e-05
      98.4000   9.51449e-05
      98.5000   9.44021e-05
      98.6000   9.36651e-05
      98.7000   9.29331e-05
      98.8000   9.22058e-05
      98.9000   9.14834e-05
      99.0000   9.07689e-05
      99.1000   9.00601e-05
      99.2000   8.93513e-05
      99.3000   8.86208e-05
      99.4000   8.78968e-05
      99.5000   8.71787e-05
      99.6000   8.64724e-05
      99.7000   8.58119e-05
      99.8000   8.51743e-05
      99.9000   8.47027e-05
      100.000   8.44828e-05
      100.100   8.42339e-05
      100.200   8.39845e-05
      100.300   8.37348e-05
      100.400   8.34852e-05
      100.500   8.32472e-05
      100.600   8.30078e-05
      100.700   8.27681e-05
      100.800   8.25279e-05
      100.900   8.22876e-05
      101.000   8.20476e-05
      101.100   8.18084e-05
      101.200   8.15703e-05
      101.300   8.13331e-05
      101.400   8.10970e-05
      101.500   8.08339e-05
      101.600   8.05360e-05
      101.700   8.02469e-05
      101.800   7.99610e-05
      101.900   7.96752e-05
      102.000   7.93913e-05
      102.100   7.91202e-05
      102.200   7.88552e-05
      102.300   7.85904e-05
      102.400   7.83260e-05
      102.500   7.80615e-05
      102.600   7.77966e-05
      102.700   7.75313e-05
      102.800   7.72659e-05
      102.900   7.70004e-05
      103.000   7.67350e-05
      103.100   7.64700e-05
      103.200   7.62058e-05
      103.300   7.59424e-05
      103.400   7.56797e-05
      103.500   7.54176e-05
      103.600   7.51561e-05
      103.700   7.48937e-05
      103.800   7.46139e-05
      103.900   7.43135e-05
      104.000   7.40125e-05
      104.100   7.37129e-05
      104.200   7.34226e-05
      104.300   7.31869e-05
      104.400   7.29536e-05
      104.500   7.27209e-05
      104.600   7.24879e-05
      104.700   7.22381e-05
      104.800   7.19814e-05
      104.900   7.17247e-05
      105.000   7.14686e-05
      105.100   7.12249e-05
      105.200   7.10115e-05
      105.300   7.07991e-05
      105.400   7.05868e-05
      105.500   7.03749e-05
      105.600   7.01702e-05
      105.700   6.99671e-05
      105.800   6.97637e-05
      105.900   6.95607e-05
      106.000   6.93678e-05
      106.100   6.91963e-05
      106.200   6.90262e-05
      106.300   6.88557e-05
      106.400   6.86848e-05
      106.500   6.85138e-05
      106.600   6.83427e-05
      106.700   6.81717e-05
      106.800   6.80007e-05
      106.900   6.78299e-05
      107.000   6.76592e-05
      107.100   6.74886e-05
      107.200   6.73182e-05
      107.300   6.71481e-05
      107.400   6.69771e-05
      107.500   6.68055e-05
      107.600   6.66346e-05
      107.700   6.64642e-05
      107.800   6.62947e-05
      107.900   6.61211e-05
      108.000   6.59475e-05
      108.100   6.57737e-05
      108.200   6.55992e-05
      108.300   6.54232e-05
      108.400   6.52414e-05
      108.500   6.50588e-05
      108.600   6.48757e-05
      108.700   6.46915e-05
      108.800   6.44909e-05
      108.900   6.42670e-05
      109.000   6.40428e-05
      109.100   6.38185e-05
      109.200   6.35945e-05
      109.300   6.33708e-05
      109.400   6.31476e-05
      109.500   6.29249e-05
      109.600   6.27030e-05
      109.700   6.24818e-05
      109.800   6.22616e-05
      109.900   6.20426e-05
      110.000   6.18246e-05
      110.100   6.16076e-05
      110.200   6.13911e-05
      110.300   6.11853e-05
      110.400   6.09806e-05
      110.500   6.07760e-05
      110.600   6.05714e-05
      110.700   6.03664e-05
      110.800   6.01611e-05
      110.900   5.99555e-05
      111.000   5.97495e-05
      111.100   5.95432e-05
      111.200   5.93377e-05
      111.300   5.91526e-05
      111.400   5.89676e-05
      111.500   5.87822e-05
      111.600   5.85967e-05
      111.700   5.84120e-05
      111.800   5.82402e-05
      111.900   5.80689e-05
      112.000   5.78979e-05
      112.100   5.77271e-05
      112.200   5.75568e-05
      112.300   5.73739e-05
      112.400   5.71913e-05
      112.500   5.70095e-05
      112.600   5.68284e-05
      112.700   5.66502e-05
      112.800   5.64850e-05
      112.900   5.62892e-05
      113.000   5.61042e-05
      113.100   5.59240e-05
      113.200   5.57376e-05
      113.300   5.55580e-05
      113.400   5.53077e-05
      113.500   5.50399e-05
      113.600   5.48338e-05
      113.700   5.46090e-05
      113.800   5.43427e-05
      113.900   5.41371e-05
      114.000   5.39314e-05
      114.100   5.36826e-05
      114.200   5.34557e-05
      114.300   5.32636e-05
      114.400   5.30627e-05
      114.500   5.28524e-05
      114.600   5.26876e-05
      114.700   5.24891e-05
      114.800   5.23138e-05
      114.900   5.21919e-05
      115.000   5.20317e-05
      115.100   5.18491e-05
      115.200   5.16643e-05
      115.300   5.15279e-05
      115.400   5.13454e-05
      115.500   5.11857e-05
      115.600   5.10067e-05
      115.700   5.07987e-05
      115.800   5.06296e-05
      115.900   5.04400e-05
      116.000   5.02841e-05
      116.100   5.01801e-05
      116.200   5.00717e-05
      116.300   4.99536e-05
      116.400   4.98185e-05
      116.500   4.97204e-05
      116.600   4.96104e-05
      116.700   4.95094e-05
      116.800   4.93972e-05
      116.900   4.92391e-05
      117.000   4.91324e-05
      117.100   4.91735e-05
      117.200   4.93190e-05
      117.300   4.93622e-05
      117.400   4.93985e-05
      117.500   4.94364e-05
      117.600   4.94140e-05
      117.700   4.93678e-05
      117.800   4.92900e-05
      117.900   4.91958e-05
      118.000   4.90713e-05
      118.100   4.89176e-05
      118.200   4.87869e-05
      118.300   4.86660e-05
      118.400   4.84299e-05
      118.500   4.82032e-05
      118.600   4.80296e-05
      118.700   4.78372e-05
      118.800   4.76192e-05
      118.900   4.74189e-05
      119.000   4.71561e-05
      119.100   4.68229e-05
      119.200   4.65527e-05
      119.300   4.63350e-05
      119.400   4.61466e-05
      119.500   4.59713e-05
      119.600   4.57545e-05
      119.700   4.54896e-05
      119.800   4.51288e-05
      119.900   4.46411e-05
      120.000   4.41953e-05
      120.100   4.37831e-05
      120.200   4.35294e-05
      120.300   4.33671e-05
      120.400   4.32037e-05
      120.500   4.29119e-05
      120.600   4.25226e-05
      120.700   4.21026e-05
      120.800   4.17039e-05
      120.900   4.14743e-05
      121.000   4.15081e-05
      121.100   4.14947e-05
      121.200   4.13490e-05
      121.300   4.11090e-05
      121.400   4.07972e-05
      121.500   4.04315e-05
      121.600   3.98555e-05
      121.700   3.93646e-05
      121.800   3.88000e-05
      121.900   3.82269e-05
      122.000   3.76044e-05
      122.100   3.70214e-05
      122.200   3.64466e-05
      122.300   3.60521e-05
      122.400   3.58526e-05
      122.500   3.56948e-05
      122.600   3.55121e-05
      122.700   3.53278e-05
      122.800   3.50993e-05
      122.900   3.48967e-05
      123.000   3.49225e-05
      123.100   3.53457e-05
      123.200   3.57966e-05
      123.300   3.64539e-05
      123.400   3.72830e-05
      123.500   3.83582e-05
      123.600   3.92972e-05
      123.700   3.98265e-05
      123.800   4.02398e-05
      123.900   4.07728e-05
      124.000   4.14996e-05
      124.100   4.28559e-05
      124.200   4.55556e-05
      124.300   4.95715e-05
      124.400   5.34638e-05
      124.500   5.46752e-05
      124.600   5.46400e-05
      124.700   5.44609e-05
      124.800   5.42965e-05
      124.900   5.41311e-05
      125.000   5.39640e-05
      125.100   5.37830e-05
      125.200   5.36005e-05
      125.300   5.34180e-05
      125.400   5.32357e-05
      125.500   5.30537e-05
      125.600   5.28717e-05
      125.700   5.26902e-05
      125.800   5.25089e-05
      125.900   5.23282e-05
      126.000   5.21479e-05
      126.100   5.19683e-05
      126.200   5.17893e-05
      126.300   5.16108e-05
      126.400   5.14330e-05
      126.500   5.12556e-05
      126.600   5.10788e-05
      126.700   5.09025e-05
      126.800   5.07267e-05
      126.900   5.05511e-05
      127.000   5.03744e-05
      127.100   5.01929e-05
      127.200   5.00092e-05
      127.300   4.98250e-05
      127.400   4.96410e-05
      127.500   4.94570e-05
      127.600   4.92731e-05
      127.700   4.90894e-05
      127.800   4.89056e-05
      127.900   4.87220e-05
      128.000   4.85385e-05
      128.100   4.83551e-05
      128.200   4.81718e-05
      128.300   4.79887e-05
      128.400   4.78057e-05
      128.500   4.76229e-05
      128.600   4.74402e-05
      128.700   4.72579e-05
      128.800   4.70758e-05
      128.900   4.68939e-05
      129.000   4.67126e-05
      129.100   4.65307e-05
      129.200   4.63464e-05
      129.300   4.61626e-05
      129.400   4.59794e-05
      129.500   4.57970e-05
      129.600   4.56152e-05
      129.700   4.54340e-05
      129.800   4.52536e-05
      129.900   4.50737e-05
      130.000   4.48946e-05
      130.100   4.47161e-05
      130.200   4.45380e-05
      130.300   4.43606e-05
      130.400   4.41836e-05
      130.500   4.40070e-05
      130.600   4.38308e-05
      130.700   4.36550e-05
      130.800   4.34796e-05
      130.900   4.33046e-05
      131.000   4.31299e-05
      131.100   4.29555e-05
      131.200   4.27811e-05
      131.300   4.26062e-05
      131.400   4.24316e-05
      131.500   4.22574e-05
      131.600   4.20835e-05
      131.700   4.19100e-05
      131.800   4.17367e-05
      131.900   4.15638e-05
      132.000   4.13911e-05
      132.100   4.12188e-05
      132.200   4.10468e-05
      132.300   4.08752e-05
      132.400   4.07040e-05
      132.500   4.05332e-05
      132.600   4.03629e-05
      132.700   4.01930e-05
      132.800   4.00237e-05
      132.900   3.98548e-05
      133.000   3.96865e-05
      133.100   3.95187e-05
      133.200   3.93514e-05
      133.300   3.91844e-05
      133.400   3.90176e-05
      133.500   3.88511e-05
      133.600   3.86851e-05
      133.700   3.85196e-05
      133.800   3.83545e-05
      133.900   3.81900e-05
      134.000   3.80259e-05
      134.100   3.78622e-05
      134.200   3.76991e-05
      134.300   3.75364e-05
      134.400   3.73742e-05
      134.500   3.72126e-05
      134.600   3.70514e-05
      134.700   3.68908e-05
      134.800   3.67308e-05
      134.900   3.65712e-05
      135.000   3.64122e-05
      135.100   3.62536e-05
      135.200   3.60956e-05
      135.300   3.59382e-05
      135.400   3.57812e-05
      135.500   3.56244e-05
      135.600   3.54676e-05
      135.700   3.53112e-05
      135.800   3.51553e-05
      135.900   3.49999e-05
      136.000   3.48450e-05
      136.100   3.46906e-05
      136.200   3.45368e-05
      136.300   3.43834e-05
      136.400   3.42305e-05
      136.500   3.40781e-05
      136.600   3.39262e-05
      136.700   3.37747e-05
      136.800   3.36237e-05
      136.900   3.34732e-05
      137.000   3.33231e-05
      137.100   3.31733e-05
      137.200   3.30239e-05
      137.300   3.28750e-05
      137.400   3.27265e-05
      137.500   3.25783e-05
      137.600   3.24365e-05
      137.700   3.23097e-05
      137.800   3.21945e-05
      137.900   3.20793e-05
      138.000   3.19644e-05
      138.100   3.18497e-05
      138.200   3.17353e-05
      138.300   3.16211e-05
      138.400   3.15072e-05
      138.500   3.13937e-05
      138.600   3.12804e-05
      138.700   3.11674e-05
      138.800   3.10547e-05
      138.900   3.09424e-05
      139.000   3.08305e-05
      139.100   3.07189e-05
      139.200   3.06076e-05
      139.300   3.04967e-05
      139.400   3.03862e-05
      139.500   3.02760e-05
      139.600   3.01661e-05
      139.700   3.00566e-05
      139.800   2.99474e-05
      139.900   2.98385e-05
      140.000   2.97296e-05
      140.100   2.96211e-05
      140.200   2.95128e-05
      140.300   2.94048e-05
      140.400   2.92971e-05
      140.500   2.91897e-05
      140.600   2.90824e-05
      140.700   2.89754e-05
      140.800   2.88686e-05
      140.900   2.87618e-05
      141.000   2.86552e-05
      141.100   2.85487e-05
      141.200   2.84423e-05
      141.300   2.83361e-05
      141.400   2.82299e-05
      141.500   2.81239e-05
      141.600   2.80179e-05
      141.700   2.79121e-05
      141.800   2.78064e-05
      141.900   2.77009e-05
      142.000   2.75956e-05
      142.100   2.75015e-05
      142.200   2.74391e-05
      142.300   2.74040e-05
      142.400   2.73686e-05
      142.500   2.73329e-05
      142.600   2.72970e-05
      142.700   2.72609e-05
      142.800   2.72247e-05
      142.900   2.71882e-05
      143.000   2.71516e-05
      143.100   2.71148e-05
      143.200   2.70778e-05
      143.300   2.70407e-05
      143.400   2.70035e-05
      143.500   2.69662e-05
      143.600   2.69288e-05
      143.700   2.68913e-05
      143.800   2.68537e-05
      143.900   2.68161e-05
      144.000   2.67783e-05
      144.100   2.67403e-05
      144.200   2.67023e-05
      144.300   2.66642e-05
      144.400   2.66289e-05
      144.500   2.66333e-05
      144.600   2.66501e-05
      144.700   2.66678e-05
      144.800   2.66851e-05
      144.900   2.67019e-05
      145.000   2.67182e-05
      145.100   2.67340e-05
      145.200   2.67492e-05
      145.300   2.67638e-05
      145.400   2.67779e-05
      145.500   2.67914e-05
      145.600   2.68043e-05
      145.700   2.68166e-05
      145.800   2.68283e-05
      145.900   2.68395e-05
      146.000   2.68500e-05
      146.100   2.68599e-05
      146.200   2.68694e-05
      146.300   2.68782e-05
      146.400   2.68865e-05
      146.500   2.68941e-05
      146.600   2.69013e-05
      146.700   2.69080e-05
      146.800   2.69125e-05
      146.900   2.69141e-05
      147.000   2.69152e-05
      147.100   2.69159e-05
      147.200   2.69161e-05
      147.300   2.69159e-05
      147.400   2.69153e-05
      147.500   2.69144e-05
      147.600   2.69131e-05
      147.700   2.69114e-05
      147.800   2.69094e-05
      147.900   2.69071e-05
      148.000   2.69043e-05
      148.100   2.69013e-05
      148.200   2.68981e-05
      148.300   2.68946e-05
      148.400   2.68907e-05
      148.500   2.68865e-05
      148.600   2.68820e-05
      148.700   2.68772e-05
      148.800   2.68719e-05
      148.900   2.68663e-05
      149.000   2.68604e-05
      149.100   2.68540e-05
      149.200   2.68471e-05
      149.300   2.68396e-05
      149.400   2.68318e-05
      149.500   2.68234e-05
      149.600   2.68145e-05
      149.700   2.68052e-05
      149.800   2.67954e-05
      149.900   2.67852e-05
      150.000   2.67745e-05
      150.100   2.67634e-05
      150.200   2.67515e-05
      150.300   2.67393e-05
      150.400   2.67266e-05
      150.500   2.67134e-05
      150.600   2.66998e-05
      150.700   2.66857e-05
      150.800   2.66710e-05
      150.900   2.66558e-05
      151.000   2.66401e-05
      151.100   2.66241e-05
      151.200   2.66075e-05
      151.300   2.65905e-05
      151.400   2.65731e-05
      151.500   2.65552e-05
      151.600   2.65372e-05
      151.700   2.65192e-05
      151.800   2.65008e-05
      151.900   2.64821e-05
      152.000   2.64629e-05
      152.100   2.64434e-05
      152.200   2.64236e-05
      152.300   2.64034e-05
      152.400   2.63828e-05
      152.500   2.63620e-05
      152.600   2.63408e-05
      152.700   2.63194e-05
      152.800   2.62975e-05
      152.900   2.62754e-05
      153.000   2.62530e-05
      153.100   2.62302e-05
      153.200   2.62072e-05
      153.300   2.61838e-05
      153.400   2.61601e-05
      153.500   2.61360e-05
      153.600   2.61116e-05
      153.700   2.60870e-05
      153.800   2.60619e-05
      153.900   2.60364e-05
      154.000   2.60010e-05
      154.100   2.59539e-05
      154.200   2.59051e-05
      154.300   2.58559e-05
      154.400   2.58064e-05
      154.500   2.57566e-05
      154.600   2.57065e-05
      154.700   2.56561e-05
      154.800   2.56055e-05
      154.900   2.55544e-05
      155.000   2.55031e-05
      155.100   2.54515e-05
      155.200   2.53996e-05
      155.300   2.53473e-05
      155.400   2.52948e-05
      155.500   2.52420e-05
      155.600   2.51888e-05
      155.700   2.51353e-05
      155.800   2.50817e-05
      155.900   2.50276e-05
      156.000   2.49733e-05
      156.100   2.49187e-05
      156.200   2.48638e-05
      156.300   2.48087e-05
      156.400   2.47533e-05
      156.500   2.46944e-05
      156.600   2.46268e-05
      156.700   2.45585e-05
      156.800   2.44901e-05
      156.900   2.44214e-05
      157.000   2.43527e-05
      157.100   2.42837e-05
      157.200   2.42145e-05
      157.300   2.41452e-05
      157.400   2.40758e-05
      157.500   2.40062e-05
      157.600   2.39364e-05
      157.700   2.38664e-05
      157.800   2.37964e-05
      157.900   2.37260e-05
      158.000   2.36555e-05
      158.100   2.35849e-05
      158.200   2.35140e-05
      158.300   2.34431e-05
      158.400   2.33720e-05
      158.500   2.33007e-05
      158.600   2.32292e-05
      158.700   2.31576e-05
      158.800   2.30859e-05
      158.900   2.30140e-05
      159.000   2.29420e-05
      159.100   2.28697e-05
      159.200   2.27973e-05
      159.300   2.27247e-05
      159.400   2.26520e-05
      159.500   2.25792e-05
      159.600   2.25064e-05
      159.700   2.24334e-05
      159.800   2.23604e-05
      159.900   2.22873e-05
      160.000   2.22141e-05
      160.100   2.21408e-05
      160.200   2.20674e-05
      160.300   2.19940e-05
      160.400   2.19206e-05
      160.500   2.18471e-05
      160.600   2.17736e-05
      160.700   2.17001e-05
      160.800   2.16265e-05
      160.900   2.15529e-05
      161.000   2.14792e-05
      161.100   2.14056e-05
      161.200   2.13320e-05
      161.300   2.12583e-05
      161.400   2.11846e-05
      161.500   2.11109e-05
      161.600   2.10371e-05
      161.700   2.09632e-05
      161.800   2.08891e-05
      161.900   2.08152e-05
      162.000   2.07411e-05
      162.100   2.06670e-05
      162.200   2.05929e-05
      162.300   2.05188e-05
      162.400   2.04446e-05
      162.500   2.03703e-05
      162.600   2.02960e-05
      162.700   2.02217e-05
      162.800   2.01473e-05
      162.900   2.00728e-05
      163.000   1.99983e-05
      163.100   1.99238e-05
      163.200   1.98491e-05
      163.300   1.97744e-05
      163.400   1.96996e-05
      163.500   1.96248e-05
      163.600   1.95499e-05
      163.700   1.94749e-05
      163.800   1.94000e-05
      163.900   1.93250e-05
      164.000   1.92500e-05
      164.100   1.91750e-05
      164.200   1.91000e-05
      164.300   1.90261e-05
      164.400   1.89522e-05
      164.500   1.88784e-05
      164.600   1.88046e-05
      164.700   1.87308e-05
      164.800   1.86570e-05
      164.900   1.85833e-05
      165.000   1.85097e-05
      165.100   1.84361e-05
      165.200   1.83626e-05
      165.300   1.82892e-05
      165.400   1.82160e-05
      165.500   1.81428e-05
      165.600   1.80697e-05
      165.700   1.79967e-05
      165.800   1.79239e-05
      165.900   1.78511e-05
      166.000   1.77786e-05
      166.100   1.77061e-05
      166.200   1.76338e-05
      166.300   1.75617e-05
      166.400   1.74897e-05
      166.500   1.74178e-05
      166.600   1.73461e-05
      166.700   1.72745e-05
      166.800   1.72017e-05
      166.900   1.71221e-05
      167.000   1.70365e-05
      167.100   1.69509e-05
      167.200   1.68655e-05
      167.300   1.67803e-05
      167.400   1.66955e-05
      167.500   1.66108e-05
      167.600   1.65263e-05
      167.700   1.64421e-05
      167.800   1.63581e-05
      167.900   1.62742e-05
      168.000   1.61906e-05
      168.100   1.61072e-05
      168.200   1.60239e-05
      168.300   1.59408e-05
      168.400   1.58579e-05
      168.500   1.57752e-05
      168.600   1.56927e-05
      168.700   1.56103e-05
      168.800   1.55281e-05
      168.900   1.54461e-05
      169.000   1.53643e-05
      169.100   1.52826e-05
      169.200   1.52011e-05
      169.300   1.51198e-05
      169.400   1.50387e-05
      169.500   1.49537e-05
      169.600   1.48508e-05
      169.700   1.47302e-05
      169.800   1.46090e-05
      169.900   1.44885e-05
      170.000   1.43685e-05
      170.100   1.42491e-05
      170.200   1.41303e-05
      170.300   1.85902e-05
      170.400   4.03010e-05
      170.500   7.69595e-05
      170.600   0.000114171
      170.700   0.000144515
      170.800   0.000159328
      170.900   0.000160914
      171.000   0.000159211
      171.100   0.000157515
      171.200   0.000155826
      171.300   0.000154144
      171.400   0.000152471
      171.500   0.000150805
      171.600   0.000149149
      171.700   0.000147503
      171.800   0.000145868
      171.900   0.000144246
      172.000   0.000142639
      172.100   0.000141047
      172.200   0.000139471
      172.300   0.000137908
      172.400   0.000136335
      172.500   0.000134775
      172.600   0.000133232
      172.700   0.000131709
      172.800   0.000130204
      172.900   0.000128716
      173.000   0.000127248
      173.100   0.000125797
      173.200   0.000124364
      173.300   0.000122949
      173.400   0.000121551
      173.500   0.000120170
      173.600   0.000118807
      173.700   0.000117460
      173.800   0.000116128
      173.900   0.000114814
      174.000   0.000113514
      174.100   0.000112229
      174.200   0.000110959
      174.300   0.000109704
      174.400   0.000108463
      174.500   0.000107236
      174.600   0.000106021
      174.700   0.000104820
      174.800   0.000103632
      174.900   0.000102456
      175.000   0.000101292
      175.100   0.000100140
      175.200   9.90034e-05
      175.300   9.78777e-05
      175.400   9.67633e-05
      175.500   9.56608e-05
      175.600   9.45693e-05
      175.700   9.34893e-05
      175.800   9.24200e-05
      175.900   9.13619e-05
      176.000   9.03147e-05
      176.100   8.92788e-05
      176.200   8.82535e-05
      176.300   8.72385e-05
      176.400   8.62349e-05
      176.500   8.52414e-05
      176.600   8.42584e-05
      176.700   8.32857e-05
      176.800   8.23233e-05
      176.900   8.13714e-05
      177.000   8.04293e-05
      177.100   7.94970e-05
      177.200   7.85750e-05
      177.300   7.76628e-05
      177.400   7.67597e-05
      177.500   7.58661e-05
      177.600   7.49819e-05
      177.700   7.41071e-05
      177.800   7.32415e-05
      177.900   7.23840e-05
      178.000   7.15402e-05
      178.100   7.07056e-05
      178.200   6.98793e-05
      178.300   6.90616e-05
      178.400   6.82526e-05
      178.500   6.74519e-05
      178.600   6.66593e-05
      178.700   6.58747e-05
      178.800   6.50985e-05
      178.900   6.43305e-05
      179.000   6.35704e-05
      179.100   6.28181e-05
      179.200   6.20739e-05
      179.300   6.13377e-05
      179.400   6.06095e-05
      179.500   5.98894e-05
      179.600   5.91770e-05
      179.700   5.84729e-05
      179.800   5.77764e-05
      179.900   5.70878e-05
      180.000   5.64068e-05
      180.100   5.57339e-05
      180.200   5.50689e-05
      180.300   5.44116e-05
      180.400   5.37619e-05
      180.500   5.31201e-05
      180.600   5.24859e-05
      180.700   5.18594e-05
      180.800   5.12269e-05
      180.900   5.05865e-05
      181.000   4.99501e-05
      181.100   4.93218e-05
      181.200   4.87014e-05
      181.300   4.80887e-05
      181.400   4.74840e-05
      181.500   4.68868e-05
      181.600   4.62972e-05
      181.700   4.57148e-05
      181.800   4.51398e-05
      181.900   4.45719e-05
      182.000   4.40113e-05
      182.100   4.34576e-05
      182.200   4.29109e-05
      182.300   4.23708e-05
      182.400   4.18376e-05
      182.500   4.13108e-05
      182.600   4.07903e-05
      182.700   4.02762e-05
      182.800   3.97684e-05
      182.900   3.92665e-05
      183.000   3.87709e-05
      183.100   3.82813e-05
      183.200   3.77976e-05
      183.300   3.73194e-05
      183.400   3.68471e-05
      183.500   3.63806e-05
      183.600   3.59196e-05
      183.700   3.54394e-05
      183.800   3.48687e-05
      183.900   3.42886e-05
      184.000   3.37177e-05
      184.100   3.31555e-05
      184.200   3.26024e-05
      184.300   3.20574e-05
      184.400   3.15211e-05
      184.500   3.09933e-05
      184.600   3.04734e-05
      184.700   2.99616e-05
      184.800   2.94578e-05
      184.900   2.89617e-05
      185.000   2.84734e-05
      185.100   2.79925e-05
      185.200   2.75191e-05
      185.300   2.70532e-05
      185.400   2.65945e-05
      185.500   2.61429e-05
      185.600   2.56983e-05
      185.700   2.52604e-05
      185.800   2.48297e-05
      185.900   2.44060e-05
      186.000   2.39885e-05
      186.100   2.35775e-05
      186.200   2.31730e-05
      186.300   2.27746e-05
      186.400   2.23824e-05
      186.500   2.19962e-05
      186.600   2.16159e-05
      186.700   2.12415e-05
      186.800   2.08727e-05
      186.900   2.05096e-05
      187.000   2.01520e-05
      187.100   1.97999e-05
      187.200   1.94534e-05
      187.300   1.91124e-05
      187.400   1.87768e-05
      187.500   1.84465e-05
      187.600   1.81213e-05
      187.700   1.78012e-05
      187.800   1.74860e-05
      187.900   1.71758e-05
      188.000   1.68707e-05
      188.100   1.65704e-05
      188.200   1.62748e-05
      188.300   1.59838e-05
      188.400   1.56976e-05
      188.500   1.54160e-05
      188.600   1.51392e-05
      188.700   1.48671e-05
      188.800   1.45994e-05
      188.900   1.43363e-05
      189.000   1.40775e-05
      189.100   1.38229e-05
      189.200   1.35726e-05
      189.300   1.33265e-05
      189.400   1.30846e-05
      189.500   1.28468e-05
      189.600   1.26128e-05
      189.700   1.23815e-05
      189.800   1.21455e-05
      189.900   1.19141e-05
      190.000   1.16867e-05
      190.100   1.14635e-05
      190.200   1.12443e-05
      190.300   1.10290e-05
      190.400   1.08174e-05
      190.500   1.06097e-05
      190.600   1.04059e-05
      190.700   1.02056e-05
      190.800   1.00089e-05
      190.900   9.81583e-06
      191.000   9.62630e-06
      191.100   9.44043e-06
      191.200   9.25784e-06
      191.300   9.07857e-06
      191.400   8.90256e-06
      191.500   8.72967e-06
      191.600   8.55994e-06
      191.700   8.39329e-06
      191.800   8.22956e-06
      191.900   8.06887e-06
      192.000   7.91115e-06
      192.100   7.75644e-06
      192.200   7.60467e-06
      192.300   7.45562e-06
      192.400   7.30923e-06
      192.500   7.16551e-06
      192.600   7.02445e-06
      192.700   6.88347e-06
      192.800   6.73192e-06
      192.900   6.55996e-06
      193.000   6.39208e-06
      193.100   6.22824e-06
      193.200   6.06838e-06
      193.300   5.91228e-06
      193.400   5.75991e-06
      193.500   5.61107e-06
      193.600   5.46566e-06
      193.700   5.32368e-06
      193.800   5.18511e-06
      193.900   5.04985e-06
      194.000   4.91775e-06
      194.100   4.78894e-06
      194.200   4.66344e-06
      194.300   4.54092e-06
      194.400   4.42131e-06
      194.500   4.30455e-06
      194.600   4.19057e-06
      194.700   4.07937e-06
      194.800   3.97088e-06
      194.900   3.86496e-06
      195.000   3.76164e-06
      195.100   3.66104e-06
      195.200   3.56292e-06
      195.300   3.46720e-06
      195.400   3.37379e-06
      195.500   3.28263e-06
      195.600   3.19368e-06
      195.700   3.10694e-06
      195.800   3.02230e-06
      195.900   2.93975e-06
      196.000   2.85886e-06
      196.100   2.77998e-06
      196.200   2.70306e-06
      196.300   2.62806e-06
      196.400   2.55491e-06
      196.500   2.48357e-06
      196.600   2.41404e-06
      196.700   2.34626e-06
      196.800   2.28027e-06
      196.900   2.21604e-06
      197.000   2.15346e-06
      197.100   2.09247e-06
      197.200   2.03303e-06
      197.300   1.97508e-06
      197.400   1.91859e-06
      197.500   1.86357e-06
      197.600   1.80997e-06
      197.700   1.75792e-06
      197.800   1.70725e-06
      197.900   1.65785e-06
      198.000   1.60975e-06
      198.100   1.56291e-06
      198.200   1.51729e-06
      198.300   1.47284e-06
      198.400   1.42960e-06
      198.500   1.38762e-06
      198.600   1.34679e-06
      198.700   1.30704e-06
      198.800   1.26835e-06
      198.900   1.23070e-06
      199.000   1.19484e-06
      199.100   1.16229e-06
      199.200   1.13385e-06
      199.300   1.10611e-06
      199.400   1.07902e-06
      199.500   1.05255e-06
      199.600   1.02666e-06
      199.700   1.00136e-06
      199.800   9.76625e-07
      199.900   9.52460e-07
      200.000   9.28840e-07
      200.100   9.05855e-07
      200.200   8.83367e-07
      200.300   8.61405e-07
      200.400   8.39952e-07
      200.500   8.18996e-07
      200.600   7.98525e-07
      200.700   7.78535e-07
      200.800   7.59001e-07
      200.900   7.39926e-07
      201.000   7.21325e-07
      201.100   7.03165e-07
      201.200   6.85430e-07
      201.300   6.68117e-07
      201.400   6.51220e-07
      201.500   6.34707e-07
      201.600   6.18592e-07
      201.700   6.02861e-07
      201.800   5.87495e-07
      201.900   5.72513e-07
      202.000   5.57909e-07
      202.100   5.43641e-07
      202.200   5.29721e-07
      202.300   5.16409e-07
      202.400   5.03795e-07
      202.500   4.91531e-07
      202.600   4.79543e-07
      202.700   4.67830e-07
      202.800   4.56395e-07
      202.900   4.45232e-07
      203.000   4.34331e-07
      203.100   4.23683e-07
      203.200   4.13278e-07
      203.300   4.03111e-07
      203.400   3.93181e-07
      203.500   3.83485e-07
      203.600   3.74013e-07
      203.700   3.64761e-07
      203.800   3.55740e-07
      203.900   3.46934e-07
      204.000   3.38334e-07
      204.100   3.29938e-07
      204.200   3.21742e-07
      204.300   3.13735e-07
      204.400   3.05920e-07
      204.500   2.98290e-07
      204.600   2.90839e-07
      204.700   2.83566e-07
      204.800   2.76476e-07
      204.900   2.69556e-07
      205.000   2.62801e-07
      205.100   2.56211e-07
      205.200   2.49773e-07
      205.300   2.43493e-07
      205.400   2.37363e-07
      205.500   2.31377e-07
      205.600   2.25559e-07
      205.700   2.19903e-07
      205.800   2.14381e-07
      205.900   2.08996e-07
      206.000   2.03746e-07
      206.100   1.98617e-07
      206.200   1.93609e-07
      206.300   1.88723e-07
      206.400   1.83954e-07
      206.500   1.79295e-07
      206.600   1.74750e-07
      206.700   1.70313e-07
      206.800   1.65978e-07
      206.900   1.61748e-07
      207.000   1.57622e-07
      207.100   1.53596e-07
      207.200   1.49669e-07
      207.300   1.45837e-07
      207.400   1.42094e-07
      207.500   1.38441e-07
      207.600   1.34877e-07
      207.700   1.31396e-07
      207.800   1.27999e-07
      207.900   1.24685e-07
      208.000   1.21450e-07
      208.100   1.18293e-07
      208.200   1.15213e-07
      208.300   1.12207e-07
      208.400   1.09278e-07
      208.500   1.06421e-07
      208.600   1.03632e-07
      208.700   1.00910e-07
      208.800   9.82508e-08
      208.900   9.54930e-08
      209.000   9.25904e-08
      209.100   8.97704e-08
      209.200   8.70300e-08
      209.300   8.43661e-08
      209.400   8.17795e-08
      209.500   7.92657e-08
      209.600   7.68230e-08
      209.700   7.44521e-08
      209.800   7.21535e-08
      209.900   6.99187e-08
      210.000   6.77492e-08
      210.100   6.56428e-08
      210.200   6.35968e-08
      210.300   6.16108e-08
      210.400   5.96826e-08
      210.500   5.78102e-08
      210.600   5.59929e-08
      210.700   5.42295e-08
      210.800   5.25175e-08
      210.900   5.08559e-08
      211.000   4.92434e-08
      211.100   4.76795e-08
      211.200   4.61616e-08
      211.300   4.46910e-08
      211.400   4.32656e-08
      211.500   4.18816e-08
      211.600   4.05394e-08
      211.700   3.92382e-08
      211.800   3.79751e-08
      211.900   3.67503e-08
      212.000   3.55634e-08
      212.100   3.44121e-08
      212.200   3.32634e-08
      212.300   3.16657e-08
      212.400   2.98495e-08
      212.500   2.81294e-08
      212.600   2.65020e-08
      212.700   2.49612e-08
      212.800   2.35036e-08
      212.900   2.21256e-08
      213.000   2.08230e-08
      213.100   1.95938e-08
      213.200   1.84317e-08
      213.300   1.73343e-08
      213.400   1.62970e-08
      213.500   1.53175e-08
      213.600   1.43929e-08
      213.700   1.35206e-08
      213.800   1.26969e-08
      213.900   1.19206e-08
      214.000   1.11884e-08
      214.100   1.04979e-08
      214.200   9.84756e-09
      214.300   9.23462e-09
      214.400   8.65713e-09
      214.500   8.11343e-09
      214.600   7.60191e-09
      214.700   7.12040e-09
      214.800   6.66737e-09
      214.900   6.24161e-09
      215.000   5.84097e-09
      215.100   5.46468e-09
      215.200   5.11166e-09
      215.300   4.78033e-09
      215.400   4.46889e-09
      215.500   4.17654e-09
      215.600   3.90237e-09
      215.700   3.64491e-09
      215.800   3.40341e-09
      215.900   3.17709e-09
      216.000   2.96481e-09
      216.100   2.76583e-09
      216.200   2.57950e-09
      216.300   2.40500e-09
      216.400   2.24160e-09
      216.500   2.08859e-09
      216.600   1.94548e-09
      216.700   1.81162e-09
      216.800   1.68640e-09
      216.900   1.56939e-09
      217.000   1.46004e-09
      217.100   1.35781e-09
      217.200   1.26241e-09
      217.300   1.17331e-09
      217.400   1.09012e-09
      217.500   1.01255e-09
      217.600   9.40146e-10
      217.700   8.72633e-10
      217.800   8.09696e-10
      217.900   7.51118e-10
      218.000   6.96575e-10
      218.100   6.45784e-10
      218.200   5.98506e-10
      218.300   5.54524e-10
      218.400   5.13586e-10
      218.500   4.75491e-10
      218.600   4.40100e-10
      218.700   4.07183e-10
      218.800   3.76597e-10
      218.900   3.48207e-10
      219.000   3.21826e-10
      219.100   2.97578e-10
      219.200   2.77053e-10
      219.300   2.60876e-10
      219.400   2.45589e-10
      219.500   2.31161e-10
      219.600   2.17539e-10
      219.700   2.04679e-10
      219.800   1.92548e-10
      219.900   1.81099e-10
      220.000   1.70294e-10
      220.100   1.60103e-10
      220.200   1.50495e-10
      220.300   1.41439e-10
      220.400   1.32898e-10
      220.500   1.24850e-10
      220.600   1.17270e-10
      220.700   1.10125e-10
      220.800   1.03392e-10
      220.900   9.70577e-11
      221.000   9.10906e-11
      221.100   8.54717e-11
      221.200   8.01869e-11
      221.300   7.52126e-11
      221.400   7.05318e-11
      221.500   6.61308e-11
      221.600   6.19911e-11
      221.700   5.80976e-11
      221.800   5.44376e-11
      221.900   5.09994e-11
      222.000   4.77686e-11
      222.100   4.47315e-11
      222.200   4.18813e-11
      222.300   3.92036e-11
      222.400   3.66892e-11
      222.500   3.43284e-11
      222.600   3.21146e-11
      222.700   3.00362e-11
      222.800   2.80865e-11
      222.900   2.62593e-11
      223.000   2.45448e-11
      223.100   2.29373e-11
      223.200   2.14305e-11
      223.300   2.00191e-11
      223.400   1.86965e-11
      223.500   1.74568e-11
      223.600   1.62969e-11
      223.700   1.52102e-11
      223.800   1.41927e-11
      223.900   1.32415e-11
      224.000   1.23505e-11
      224.100   1.15169e-11
      224.200   1.07374e-11
      224.300   1.00087e-11
      224.400   9.32707e-12
      224.500   8.69005e-12
      224.600   8.09454e-12
      224.700   7.53872e-12
      224.800   7.01930e-12
      224.900   6.53396e-12
      225.000   6.08107e-12
      225.100   5.65814e-12
      225.200   5.26341e-12
      225.300   4.89542e-12
      225.400   4.55189e-12
      225.500   4.23145e-12
      225.600   3.93271e-12
      225.700   3.65437e-12
      225.800   3.39481e-12
      225.900   3.15299e-12
      226.000   2.92784e-12
      226.100   2.71801e-12
      226.200   2.52262e-12
      226.300   2.34102e-12
      226.400   2.17208e-12
      226.500   2.01474e-12
      226.600   1.86833e-12
      226.700   1.73224e-12
      226.800   1.60560e-12
      226.900   1.48782e-12
      227.000   1.37844e-12
      227.100   1.27675e-12
      227.200   1.18229e-12
      227.300   1.09456e-12
      227.400   1.01312e-12
      227.500   9.37489e-13
      227.600   8.67308e-13
      227.700   8.02186e-13
      227.800   7.41791e-13
      227.900   6.85784e-13
      228.000   6.33846e-13
      228.100   5.85703e-13
      228.200   5.41079e-13
      228.300   4.99740e-13
      228.400   4.61459e-13
      228.500   4.25995e-13
      228.600   3.93171e-13
      228.700   3.62785e-13
      228.800   3.34662e-13
      228.900   3.08657e-13
      229.000   2.84593e-13
      229.100   2.62343e-13
      229.200   2.41777e-13
      229.300   2.22770e-13
      229.400   2.05206e-13
      229.500   1.88981e-13
      229.600   1.73995e-13
      229.700   1.60161e-13
      229.800   1.47386e-13
      229.900   1.35644e-13
      230.000   1.25166e-13
      230.100   1.16149e-13
      230.200   1.07761e-13
      230.300   9.99653e-14
      230.400   9.27127e-14
      230.500   8.59752e-14
      230.600   7.97202e-14
      230.700   7.39045e-14
      230.800   6.85012e-14
      230.900   6.34819e-14
      231.000   5.88171e-14
      231.100   5.44855e-14
      231.200   5.04624e-14
      231.300   4.67284e-14
      231.400   4.32637e-14
      231.500   4.00459e-14
      231.600   3.70598e-14
      231.700   3.42905e-14
      231.800   3.17221e-14
      231.900   2.93402e-14
      232.000   2.71315e-14
      232.100   2.50837e-14
      232.200   2.31861e-14
      232.300   2.14278e-14
      232.400   1.97985e-14
      232.500   1.82890e-14
      232.600   1.68916e-14
      232.700   1.55977e-14
      232.800   1.43998e-14
      232.900   1.32911e-14
      233.000   1.22651e-14
      233.100   1.13162e-14
      233.200   1.04381e-14
      233.300   9.62629e-15
      233.400   8.87586e-15
      233.500   8.18337e-15
      233.600   7.54416e-15
      233.700   6.95323e-15
      233.800   6.40211e-15
      233.900   5.89292e-15
      234.000   5.42270e-15
      234.100   4.98908e-15
      234.200   4.58913e-15
      234.300   4.22026e-15
      234.400   3.88017e-15
      234.500   3.56671e-15
      234.600   3.27777e-15
      234.700   3.01161e-15
      234.800   2.76648e-15
      234.900   2.54065e-15
      235.000   2.33269e-15
      235.100   2.14130e-15
      235.200   1.96514e-15
      235.300   1.80305e-15
      235.400   1.65394e-15
      235.500   1.51679e-15
      235.600   1.39071e-15
      235.700   1.27488e-15
      235.800   1.16878e-15
      235.900   1.07126e-15
      236.000   9.81643e-16
      236.100   8.99301e-16
      236.200   8.23670e-16
      236.300   7.54205e-16
      236.400   6.90444e-16
      236.500   6.31910e-16
      236.600   5.78202e-16
      236.700   5.28926e-16
      236.800   4.83720e-16
      236.900   4.42273e-16
      237.000   4.04275e-16
      237.100   3.69438e-16
      237.200   3.37529e-16
      237.300   3.08287e-16
      237.400   2.81629e-16
      237.500   2.58345e-16
      237.600   2.38911e-16
      237.700   2.20953e-16
      237.800   2.04306e-16
      237.900   1.88878e-16
      238.000   1.74588e-16
      238.100   1.61343e-16
      238.200   1.49077e-16
      238.300   1.37716e-16
      238.400   1.27197e-16
      238.500   1.17457e-16
      238.600   1.08443e-16
      238.700   1.00104e-16
      238.800   9.23859e-17
      238.900   8.52463e-17
      239.000   7.86423e-17
      239.100   7.25362e-17
      239.200   6.68922e-17
      239.300   6.16888e-17
      239.400   5.68911e-17
      239.500   5.24551e-17
      239.600   4.83551e-17
      239.700   4.45681e-17
      239.800   4.10681e-17
      239.900   3.78355e-17
      240.000   3.48505e-17
      240.100   3.20936e-17
      240.200   2.95486e-17
      240.300   2.72002e-17
      240.400   2.50323e-17
      240.500   2.30335e-17
      240.600   2.11895e-17
      240.700   1.94892e-17
      240.800   1.79260e-17
      240.900   1.64887e-17
      241.000   1.51636e-17
      241.100   1.39420e-17
      241.200   1.28162e-17
      241.300   1.18334e-17
      241.400   1.10243e-17
      241.500   1.03208e-17
      241.600   9.66093e-18
      241.700   9.04208e-18
      241.800   8.46184e-18
      241.900   7.91781e-18
      242.000   7.40790e-18
      242.100   6.92998e-18
      242.200   6.48341e-18
      242.300   6.06580e-18
      242.400   5.67432e-18
      242.500   5.30746e-18
      242.600   4.96370e-18
      242.700   4.64157e-18
      242.800   4.33987e-18
      242.900   4.05726e-18
      243.000   3.79257e-18
      243.100   3.54473e-18
      243.200   3.31257e-18
      243.300   3.09527e-18
      243.400   2.89193e-18
      243.500   2.70208e-18
      243.600   2.52495e-18
      243.700   2.35905e-18
      243.800   2.20376e-18
      243.900   2.05850e-18
      244.000   1.92250e-18
      244.100   1.79528e-18
      244.200   1.67627e-18
      244.300   1.56491e-18
      244.400   1.46079e-18
      244.500   1.36340e-18
      244.600   1.27234e-18
      244.700   1.18740e-18
      244.800   1.10829e-18
      244.900   1.03434e-18
      245.000   9.65165e-19
      245.100   9.00503e-19
      245.200   8.40088e-19
      245.300   7.83617e-19
      245.400   7.30825e-19
      245.500   6.81522e-19
      245.600   6.35453e-19
      245.700   5.92406e-19
      245.800   5.52190e-19
      245.900   5.14827e-19
      246.000   4.79998e-19
      246.100   4.47457e-19
      246.200   4.17069e-19
      246.300   3.88686e-19
      246.400   3.62192e-19
      246.500   3.37453e-19
      246.600   3.14359e-19
      246.700   2.92809e-19
      246.800   2.72688e-19
      246.900   2.53916e-19
      247.000   2.36487e-19
      247.100   2.20261e-19
      247.200   2.05121e-19
      247.300   1.90996e-19
      247.400   1.77815e-19
      247.500   1.65520e-19
      247.600   1.54053e-19
      247.700   1.43359e-19
      247.800   1.33388e-19
      247.900   1.24090e-19
      248.000   1.15425e-19
      248.100   1.07414e-19
      248.200   9.99408e-20
      248.300   9.29741e-20
      248.400   8.64803e-20
      248.500   8.04253e-20
      248.600   7.47833e-20
      248.700   6.95279e-20
      248.800   6.46311e-20
      248.900   6.00705e-20
      249.000   5.58227e-20
      249.100   5.18928e-20
      249.200   4.86733e-20
      249.300   4.61028e-20
      249.400   4.37720e-20
      249.500   4.15567e-20
      249.600   3.94501e-20
      249.700   3.74481e-20
      249.800   3.55454e-20
      249.900   3.37365e-20
      250.000   3.20183e-20
      250.100   3.03910e-20
      250.200   2.88467e-20
      250.300   2.73803e-20
      250.400   2.59869e-20
      250.500   2.46632e-20
      250.600   2.34057e-20
      250.700   2.22109e-20
      250.800   2.10759e-20
      250.900   1.99977e-20
      251.000   1.89738e-20
      251.100   1.80011e-20
      251.200   1.70789e-20
      251.300   1.62052e-20
      251.400   1.53752e-20
      251.500   1.45867e-20
      251.600   1.38380e-20
      251.700   1.31273e-20
      251.800   1.24522e-20
      251.900   1.18111e-20
      252.000   1.12023e-20
      252.100   1.06246e-20
      252.200   1.00759e-20
      252.300   9.55580e-21
      252.400   9.06295e-21
      252.500   8.59530e-21
      252.600   8.15119e-21
      252.700   7.72968e-21
      252.800   7.32957e-21
      252.900   6.94972e-21
      253.000   6.58923e-21
      253.100   6.24714e-21
      253.200   5.95049e-21
      253.300   5.78608e-21
      253.400   5.65292e-21
      253.500   5.52296e-21
      253.600   5.39605e-21
      253.700   5.27200e-21
      253.800   5.15082e-21
      253.900   5.03237e-21
      254.000   4.91662e-21
      254.100   4.80348e-21
      254.200   4.69291e-21
      254.300   4.58485e-21
      254.400   4.47925e-21
      254.500   4.37608e-21
      254.600   4.27519e-21
      254.700   4.17666e-21
      254.800   4.08048e-21
      254.900   3.98645e-21
      255.000   3.89457e-21
      255.100   3.80473e-21
      255.200   3.71697e-21
      255.300   3.63118e-21
      255.400   3.54734e-21
      255.500   3.46542e-21
      255.600   3.38534e-21
      255.700   3.30708e-21
      255.800   3.23059e-21
      255.900   3.15583e-21
      256.000   3.08275e-21
      256.100   3.01141e-21
      256.200   2.94168e-21
      256.300   2.87355e-21
      256.400   2.80701e-21
      256.500   2.74193e-21
      256.600   2.67834e-21
      256.700   2.61619e-21
      256.800   2.55546e-21
      256.900   2.49610e-21
      257.000   2.43809e-21
      257.100   2.38139e-21
      257.200   2.32601e-21
      257.300   2.27187e-21
      257.400   2.21942e-21
      257.500   2.16832e-21
      257.600   2.11844e-21
      257.700   2.06968e-21
      257.800   2.02201e-21
      257.900   1.97544e-21
      258.000   1.92991e-21
      258.100   1.88539e-21
      258.200   1.84190e-21
      258.300   1.79938e-21
      258.400   1.75782e-21
      258.500   1.71718e-21
      258.600   1.67749e-21
      258.700   1.63868e-21
      258.800   1.60075e-21
      258.900   1.56370e-21
      259.000   1.52747e-21
      259.100   1.49206e-21
      259.200   1.45748e-21
      259.300   1.42371e-21
      259.400   1.39070e-21
      259.500   1.35843e-21
      259.600   1.32691e-21
      259.700   1.29611e-21
      259.800   1.26600e-21
      259.900   1.23657e-21
      260.000   1.20782e-21
      260.100   1.17973e-21
      260.200   1.15228e-21
      260.300   1.12546e-21
      260.400   1.09925e-21
      260.500   1.07365e-21
      260.600   1.04862e-21
      260.700   1.02418e-21
      260.800   1.00030e-21
      260.900   9.76959e-22
      261.000   9.54169e-22
      261.100   9.31922e-22
      261.200   9.10169e-22
      261.300   8.88923e-22
      261.400   8.68171e-22
      261.500   8.47916e-22
      261.600   8.28198e-22
      261.700   8.08938e-22
      261.800   7.90128e-22
      261.900   7.71741e-22
      262.000   7.53779e-22
      262.100   7.36227e-22
      262.200   7.19089e-22
      262.300   7.02340e-22
      262.400   6.85981e-22
      262.500   6.69995e-22
      262.600   6.54376e-22
      262.700   6.39121e-22
      262.800   6.24218e-22
      262.900   6.09649e-22
      263.000   5.95438e-22
      263.100   5.81548e-22
      263.200   5.67988e-22
      263.300   5.54739e-22
      263.400   5.41796e-22
      263.500   5.29155e-22
      263.600   5.16810e-22
      263.700   5.04748e-22
      263.800   4.92964e-22
      263.900   4.81464e-22
      264.000   4.70224e-22
      264.100   4.59243e-22
      264.200   4.48514e-22
      264.300   4.38042e-22
      264.400   4.27813e-22
      264.500   4.17818e-22
      264.600   4.08057e-22
      264.700   3.98525e-22
      264.800   3.89210e-22
      264.900   3.80118e-22
      265.000   3.71236e-22
      265.100   3.62557e-22
      265.200   3.54084e-22
      265.300   3.45807e-22
      265.400   3.37728e-22
      265.500   3.29832e-22
      265.600   3.22124e-22
      265.700   3.15486e-22
      265.800   3.12772e-22
      265.900   3.10205e-22
      266.000   3.07658e-22
      266.100   3.05134e-22
      266.200   3.02630e-22
      266.300   3.00147e-22
      266.400   2.97687e-22
      266.500   2.95246e-22
      266.600   2.92826e-22
      266.700   2.90421e-22
      266.800   2.88043e-22
      266.900   2.85684e-22
      267.000   2.83344e-22
      267.100   2.81025e-22
      267.200   2.78726e-22
      267.300   2.76445e-22
      267.400   2.74182e-22
      267.500   2.71940e-22
      267.600   2.69717e-22
      267.700   2.67514e-22
      267.800   2.65326e-22
      267.900   2.63159e-22
      268.000   2.61012e-22
      268.100   2.58883e-22
      268.200   2.56772e-22
      268.300   2.54681e-22
      268.400   2.52604e-22
      268.500   2.50545e-22
      268.600   2.48503e-22
      268.700   2.46483e-22
      268.800   2.44478e-22
      268.900   2.42490e-22
      269.000   2.40520e-22
      269.100   2.38564e-22
      269.200   2.36628e-22
      269.300   2.34708e-22
      269.400   2.32803e-22
      269.500   2.30915e-22
      269.600   2.29045e-22
      269.700   2.27186e-22
      269.800   2.25347e-22
      269.900   2.23523e-22
      270.000   2.21716e-22
      270.100   2.19931e-22
      270.200   2.18163e-22
      270.300   2.16412e-22
      270.400   2.14673e-22
      270.500   2.12950e-22
      270.600   2.11238e-22
      270.700   2.09546e-22
      270.800   2.07865e-22
      270.900   2.06198e-22
      271.000   2.04547e-22
      271.100   2.02907e-22
      271.200   2.01282e-22
      271.300   1.99670e-22
      271.400   1.98072e-22
      271.500   1.96488e-22
      271.600   1.94916e-22
      271.700   1.93356e-22
      271.800   1.91810e-22
      271.900   1.90276e-22
      272.000   1.88755e-22
      272.100   1.87247e-22
      272.200   1.85750e-22
      272.300   1.84264e-22
      272.400   1.82791e-22
      272.500   1.81330e-22
      272.600   1.79882e-22
      272.700   1.78444e-22
      272.800   1.77017e-22
      272.900   1.75603e-22
      273.000   1.74199e-22
      273.100   1.72806e-22
      273.200   1.71425e-22
      273.300   1.70055e-22
      273.400   1.68695e-22
      273.500   1.67344e-22
      273.600   1.66006e-22
      273.700   1.64677e-22
      273.800   1.63358e-22
      273.900   1.62050e-22
      274.000   1.60753e-22
      274.100   1.59465e-22
      274.200   1.58186e-22
      274.300   1.56918e-22
      274.400   1.55620e-22
      274.500   1.54247e-22
      274.600   1.52868e-22
      274.700   1.51500e-22
      274.800   1.50144e-22
      274.900   1.48799e-22
      275.000   1.47465e-22
      275.100   1.46142e-22
      275.200   1.44830e-22
      275.300   1.43528e-22
      275.400   1.42238e-22
      275.500   1.40959e-22
      275.600   1.39690e-22
      275.700   1.38431e-22
      275.800   1.37183e-22
      275.900   1.35946e-22
      276.000   1.34719e-22
      276.100   1.33502e-22
      276.200   1.32294e-22
      276.300   1.31096e-22
      276.400   1.29909e-22
      276.500   1.28731e-22
      276.600   1.27564e-22
      276.700   1.26405e-22
      276.800   1.25256e-22
      276.900   1.24116e-22
      277.000   1.22986e-22
      277.100   1.21865e-22
      277.200   1.20753e-22
      277.300   1.19651e-22
      277.400   1.18558e-22
      277.500   1.17472e-22
      277.600   1.16397e-22
      277.700   1.15328e-22
      277.800   1.14269e-22
      277.900   1.13220e-22
      278.000   1.12180e-22
      278.100   1.11147e-22
      278.200   1.10123e-22
      278.300   1.09108e-22
      278.400   1.08101e-22
      278.500   1.07101e-22
      278.600   1.06110e-22
      278.700   1.05128e-22
      278.800   1.04196e-22
      278.900   1.03468e-22
      279.000   1.02749e-22
      279.100   1.02034e-22
      279.200   1.01321e-22
      279.300   1.00614e-22
      279.400   9.99097e-23
      279.500   9.92087e-23
      279.600   9.85125e-23
      279.700   9.78195e-23
      279.800   9.71308e-23
      279.900   9.64464e-23
      280.000   9.57650e-23
      280.100   9.50868e-23
      280.200   9.44131e-23
      280.300   9.37429e-23
      280.400   9.30769e-23
      280.500   9.24144e-23
      280.600   9.17557e-23
      280.700   9.11010e-23
      280.800   9.04493e-23
      280.900   8.98013e-23
      281.000   8.91573e-23
      281.100   8.85168e-23
      281.200   8.78800e-23
      281.300   8.72469e-23
      281.400   8.66179e-23
      281.500   8.59923e-23
      281.600   8.53693e-23
      281.700   8.47504e-23
      281.800   8.41361e-23
      281.900   8.35250e-23
      282.000   8.29168e-23
      282.100   8.23128e-23
      282.200   8.17130e-23
      282.300   8.11154e-23
      282.400   8.05217e-23
      282.500   7.99312e-23
      282.600   7.93452e-23
      282.700   7.87627e-23
      282.800   7.81827e-23
      282.900   7.76077e-23
      283.000   7.70357e-23
      283.100   7.64662e-23
      283.200   7.59014e-23
      283.300   7.54935e-23
      283.400   7.59239e-23
      283.500   7.64571e-23
      283.600   7.69918e-23
      283.700   7.75295e-23
      283.800   7.80687e-23
      283.900   7.86095e-23
      284.000   7.91525e-23
      284.100   7.96972e-23
      284.200   8.02451e-23
      284.300   8.07956e-23
      284.400   8.13471e-23
      284.500   8.19008e-23
      284.600   8.24576e-23
      284.700   8.30157e-23
      284.800   8.35760e-23
      284.900   8.41392e-23
      285.000   8.47040e-23
      285.100   8.52709e-23
      285.200   8.58393e-23
      285.300   8.64110e-23
      285.400   8.69856e-23
      285.500   8.75607e-23
      285.600   8.81395e-23
      285.700   8.87194e-23
      285.800   8.93023e-23
      285.900   8.98875e-23
      286.000   9.04737e-23
      286.100   9.10640e-23
      286.200   9.16566e-23
      286.300   9.22517e-23
      286.400   9.28476e-23
      286.500   9.34467e-23
      286.600   9.40480e-23
      286.700   9.46516e-23
      286.800   9.52580e-23
      286.900   9.58673e-23
      287.000   9.64781e-23
      287.100   9.70915e-23
      287.200   9.77075e-23
      287.300   9.83249e-23
      287.400   9.89455e-23
      287.500   9.95692e-23
      287.600   1.00195e-22
      287.700   1.00824e-22
      287.800   1.01455e-22
      287.900   1.02090e-22
      288.000   1.02727e-22
      288.100   1.03368e-22
      288.200   1.04011e-22
      288.300   1.04657e-22
      288.400   1.05308e-22
      288.500   1.05959e-22
      288.600   1.06614e-22
      288.700   1.07272e-22
      288.800   1.07932e-22
      288.900   1.08594e-22
      289.000   1.09261e-22
      289.100   1.09929e-22
      289.200   1.10599e-22
      289.300   1.11272e-22
      289.400   1.11950e-22
      289.500   1.12630e-22
      289.600   1.13312e-22
      289.700   1.13998e-22
      289.800   1.14686e-22
      289.900   1.15376e-22
      290.000   1.16072e-22
      290.100   1.16768e-22
      290.200   1.17469e-22
      290.300   1.18172e-22
      290.400   1.18878e-22
      290.500   1.19588e-22
      290.600   1.20299e-22
      290.700   1.21014e-22
      290.800   1.21732e-22
      290.900   1.22454e-22
      291.000   1.23178e-22
      291.100   1.23906e-22
      291.200   1.24635e-22
      291.300   1.25369e-22
      291.400   1.26105e-22
      291.500   1.26844e-22
      291.600   1.27587e-22
      291.700   1.28331e-22
      291.800   1.29080e-22
      291.900   1.29832e-22
      292.000   1.30588e-22
      292.100   1.31347e-22
      292.200   1.32108e-22
      292.300   1.32872e-22
      292.400   1.33639e-22
      292.500   1.34410e-22
      292.600   1.35181e-22
      292.700   1.35953e-22
      292.800   1.36728e-22
      292.900   1.37504e-22
      293.000   1.38285e-22
      293.100   1.39070e-22
      293.200   1.39856e-22
      293.300   1.40644e-22
      293.400   1.41438e-22
      293.500   1.42233e-22
      293.600   1.43032e-22
      293.700   1.43835e-22
      293.800   1.44641e-22
      293.900   1.45448e-22
      294.000   1.46258e-22
      294.100   1.47072e-22
      294.200   1.47889e-22
      294.300   1.48708e-22
      294.400   1.49532e-22
      294.500   1.50356e-22
      294.600   1.51183e-22
      294.700   1.52015e-22
      294.800   1.52849e-22
      294.900   1.53684e-22
      295.000   1.54525e-22
      295.100   1.55369e-22
      295.200   1.56214e-22
      295.300   1.57061e-22
      295.400   1.57912e-22
      295.500   1.58765e-22
      295.600   1.59621e-22
      295.700   1.60479e-22
      295.800   1.61340e-22
      295.900   1.62203e-22
      296.000   1.63071e-22
      296.100   1.63939e-22
      296.200   1.64811e-22
      296.300   1.65685e-22
      296.400   1.66562e-22
      296.500   1.67440e-22
      296.600   1.68322e-22
      296.700   1.69205e-22
      296.800   1.70091e-22
      296.900   1.70980e-22
      297.000   1.71872e-22
      297.100   1.72765e-22
      297.200   1.73764e-22
      297.300   1.75550e-22
      297.400   1.79273e-22
      297.500   1.83068e-22
      297.600   1.86939e-22
      297.700   1.90891e-22
      297.800   1.94916e-22
      297.900   1.99018e-22
      298.000   2.03194e-22
      298.100   2.07450e-22
      298.200   2.11785e-22
      298.300   2.16201e-22
      298.400   2.20701e-22
      298.500   2.25285e-22
      298.600   2.29956e-22
      298.700   2.34709e-22
      298.800   2.39551e-22
      298.900   2.44490e-22
      299.000   2.49522e-22
      299.100   2.54645e-22
      299.200   2.59864e-22
      299.300   2.65174e-22
      299.400   2.70584e-22
      299.500   2.76092e-22
      299.600   2.81695e-22
      299.700   2.87399e-22
      299.800   2.93210e-22
      299.900   2.99124e-22
      300.000   3.05140e-22
      300.100   3.11274e-22
      300.192   3.17013e-22
      300.285   3.22909e-22
      300.377   3.28837e-22
      300.470   3.34930e-22
      300.562   3.41050e-22
      300.654   3.47271e-22
      300.747   3.53670e-22
      300.839   3.60097e-22
      300.932   3.66698e-22
      301.025   3.73414e-22
      301.117   3.80159e-22
      301.210   3.87083e-22
      301.303   3.94130e-22
      301.395   4.01198e-22
      301.488   4.08470e-22
      301.581   4.15843e-22
      301.674   4.23346e-22
      301.766   4.30880e-22
      301.859   4.38625e-22
      301.952   4.46482e-22
      302.045   4.54471e-22
      302.138   4.76586e-22
      302.231   5.05533e-22
      302.324   5.36374e-22
      302.417   5.69035e-22
      302.510   6.03570e-22
      302.603   6.40061e-22
      302.696   6.78662e-22
      302.789   7.19498e-22
      302.882   7.62652e-22
      302.976   8.08755e-22
      303.069   8.56965e-22
      303.162   9.07899e-22
      303.255   9.61710e-22
      303.349   1.01918e-21
      303.442   1.07925e-21
      303.535   1.14261e-21
      303.629   1.21024e-21
      303.722   1.28091e-21
      303.816   1.35630e-21
      303.909   1.43505e-21
      304.003   1.51900e-21
      304.096   1.60668e-21
      304.190   1.70016e-21
      304.283   1.79770e-21
      304.377   1.90156e-21
      304.471   2.01119e-21
      304.564   2.12552e-21
      304.658   2.24731e-21
      304.752   2.37581e-21
      304.846   2.51108e-21
      304.939   2.65214e-21
      305.033   2.80233e-21
      305.127   2.96050e-21
      305.221   3.12707e-21
      305.315   3.30262e-21
      305.409   3.48731e-21
      305.503   3.68178e-21
      305.597   3.88658e-21
      305.691   4.10199e-21
      305.785   4.32884e-21
      305.879   4.56742e-21
      305.973   4.81818e-21
      306.067   5.08219e-21
      306.161   5.35969e-21
      306.255   5.65150e-21
      306.350   5.96163e-21
      306.444   6.28425e-21
      306.538   6.62346e-21
      306.633   6.98353e-21
      306.727   7.35817e-21
      306.821   7.75173e-21
      306.916   8.16942e-21
      307.010   8.60583e-21
      307.105   9.07099e-21
      307.199   9.55484e-21
      307.294   1.00686e-20
      307.388   1.06024e-20
      307.483   1.11688e-20
      307.577   1.17575e-20
      307.672   1.23821e-20
      307.767   1.30376e-20
      307.861   1.37180e-20
      307.956   1.44402e-20
      308.051   1.51980e-20
      308.146   1.59929e-20
      308.240   1.68176e-20
      308.335   1.76916e-20
      308.430   1.86086e-20
      308.525   1.95707e-20
      308.620   2.05785e-20
      308.715   2.16355e-20
      308.810   2.27433e-20
      308.905   2.39042e-20
      309.000   2.51200e-20
      309.095   2.63943e-20
      309.190   2.77290e-20
      309.285   2.91274e-20
      309.380   3.05917e-20
      309.476   3.21409e-20
      309.571   3.37467e-20
      309.666   3.54288e-20
      309.761   3.71883e-20
      309.857   3.90488e-20
      309.952   4.09760e-20
      310.047   4.29912e-20
      310.143   4.51231e-20
      310.238   4.73299e-20
      310.334   4.96619e-20
      310.429   5.20775e-20
      310.525   5.46272e-20
      310.620   5.72670e-20
      310.716   6.00553e-20
      310.811   6.29400e-20
      310.907   6.59840e-20
      311.003   6.91658e-20
      311.098   7.24573e-20
      311.194   7.59322e-20
      311.290   7.95629e-20
      311.386   8.33540e-20
      311.481   8.72721e-20
      311.577   9.14040e-20
      311.673   9.57218e-20
      311.769   1.00230e-19
      311.865   1.04931e-19
      311.961   1.09862e-19
      312.057   1.15054e-19
      312.153   1.20485e-19
      312.249   1.26157e-19
      312.345   1.32078e-19
      312.441   1.38259e-19
      312.537   1.44707e-19
      312.633   1.51435e-19
      312.730   1.58534e-19
      312.826   1.65861e-19
      312.922   1.73503e-19
      313.018   1.81475e-19
      313.115   1.89876e-19
      313.211   1.98552e-19
      313.307   2.07594e-19
      313.404   2.17119e-19
      313.500   2.26948e-19
      313.597   2.37298e-19
      313.693   2.47967e-19
      313.790   2.59209e-19
      313.886   2.70802e-19
      313.983   2.83009e-19
      314.079   2.95595e-19
      314.176   3.08833e-19
      314.273   3.22627e-19
      314.369   3.36844e-19
      314.466   3.51801e-19
      314.563   3.67377e-19
      314.660   3.83577e-19
      314.756   4.00282e-19
      314.853   4.17839e-19
      314.950   4.36114e-19
      315.047   4.55130e-19
      315.144   4.74923e-19
      315.241   4.95508e-19
      315.338   5.16929e-19
      315.435   5.39201e-19
      315.532   5.62363e-19
      315.629   5.86442e-19
      315.726   6.11482e-19
      315.823   6.37534e-19
      315.921   6.64866e-19
      316.018   6.93012e-19
      316.115   7.22259e-19
      316.212   7.52652e-19
      316.310   7.84553e-19
      316.407   8.17355e-19
      316.504   8.51449e-19
      316.602   8.87219e-19
      316.699   9.23998e-19
      316.796   9.62164e-19
      316.894   1.00222e-18
      316.991   1.04343e-18
      317.089   1.08696e-18
      317.187   1.13233e-18
      317.284   1.17896e-18
      317.382   1.22787e-18
      317.479   1.27814e-18
      317.577   1.33084e-18
      317.675   1.38552e-18
      317.773   1.44232e-18
      317.870   1.50066e-18
      317.968   1.56186e-18
      318.066   1.62533e-18
      318.164   1.69118e-18
      318.262   1.75950e-18
      318.360   1.83039e-18
      318.458   1.90391e-18
      318.556   1.98012e-18
      318.654   2.05917e-18
      318.752   2.14111e-18
      318.850   2.22606e-18
      318.948   2.31417e-18
      319.046   2.40549e-18
      319.144   2.50014e-18
      319.242   2.59819e-18
      319.341   2.70086e-18
      319.439   2.80616e-18
      319.537   2.91524e-18
      319.635   3.02825e-18
      319.734   3.14647e-18
      319.832   3.26770e-18
      319.930   3.39324e-18
      320.029   3.52455e-18
      320.127   3.65913e-18
      320.226   3.79992e-18
      320.324   3.94423e-18
      320.423   4.09509e-18
      320.522   4.25122e-18
      320.620   4.41113e-18
      320.719   4.57832e-18
      320.818   4.75135e-18
      320.916   4.92853e-18
      321.015   5.11374e-18
      321.114   5.30525e-18
      321.213   5.50339e-18
      321.311   5.70617e-18
      321.410   5.91788e-18
      321.509   6.13692e-18
      321.608   6.36323e-18
      321.707   6.59730e-18
      321.806   6.83931e-18
      321.905   7.08927e-18
      322.004   7.34784e-18
      322.103   7.65264e-18
      322.202   8.03456e-18
      322.301   8.46269e-18
      322.401   8.91655e-18
      322.500   9.38810e-18
      322.599   9.88257e-18
      322.698   1.04010e-17
      322.798   1.09506e-17
      322.897   1.15212e-17
      322.996   1.21188e-17
      323.096   1.27520e-17
      323.195   1.34087e-17
      323.294   1.40965e-17
      323.394   1.48242e-17
      323.493   1.55790e-17
      323.593   1.63774e-17
      323.692   1.72048e-17
      323.792   1.80796e-17
      323.892   1.89953e-17
      323.991   1.99443e-17
      324.091   2.09468e-17
      324.191   2.19963e-17
      324.291   2.30934e-17
      324.390   2.42286e-17
      324.490   2.54290e-17
      324.590   2.66825e-17
      324.690   2.79926e-17
      324.790   2.93624e-17
      324.890   3.07933e-17
      324.990   3.22890e-17
      325.090   3.38516e-17
      325.190   3.54819e-17
      325.290   3.71839e-17
      325.390   3.89624e-17
      325.490   4.08174e-17
      325.590   4.27528e-17
      325.690   4.47731e-17
      325.790   4.68803e-17
      325.891   4.91006e-17
      325.991   5.13931e-17
      326.091   5.37844e-17
      326.192   5.63021e-17
      326.292   5.89008e-17
      326.392   6.16077e-17
      326.493   6.44578e-17
      326.593   6.73979e-17
      326.694   7.04889e-17
      326.794   7.36783e-17
      326.895   7.70330e-17
      326.995   8.04917e-17
      327.096   8.41256e-17
      327.197   8.79099e-17
      327.297   9.18158e-17
      327.398   9.59327e-17
      327.499   1.00224e-16
      327.599   1.04647e-16
      327.700   1.09293e-16
      327.801   1.14124e-16
      327.902   1.19147e-16
      328.003   1.24373e-16
      328.104   1.29806e-16
      328.205   1.35453e-16
      328.306   1.41321e-16
      328.407   1.47416e-16
      328.508   1.53751e-16
      328.609   1.60330e-16
      328.710   1.67161e-16
      328.811   1.74256e-16
      328.912   1.81623e-16
      329.013   1.89266e-16
      329.115   1.97281e-16
      329.216   2.05519e-16
      329.317   2.14062e-16
      329.419   2.23012e-16
      329.520   2.32209e-16
      329.621   2.41745e-16
      329.723   2.51737e-16
      329.824   2.61978e-16
      329.926   2.72705e-16
      330.027   2.83720e-16
      330.129   2.95245e-16
      330.230   3.07062e-16
      330.332   3.19434e-16
      330.434   3.32243e-16
      330.535   3.45383e-16
      330.637   3.59120e-16
      330.739   3.73330e-16
      330.840   3.87902e-16
      330.942   4.03137e-16
      331.044   4.18900e-16
      331.146   4.35207e-16
      331.248   4.52077e-16
      331.350   4.69525e-16
      331.452   4.87583e-16
      331.554   5.06517e-16
      331.656   5.26554e-16
      331.758   5.47290e-16
      331.860   5.68766e-16
      331.962   5.90986e-16
      332.064   6.13976e-16
      332.166   6.37755e-16
      332.268   6.62364e-16
      332.371   6.88055e-16
      332.473   7.14373e-16
      332.575   7.40452e-16
      332.677   7.63588e-16
      332.780   7.84526e-16
      332.882   8.05759e-16
      332.985   8.27690e-16
      333.087   8.49927e-16
      333.190   8.72896e-16
      333.292   8.95897e-16
      333.395   9.18932e-16
      333.497   9.41939e-16
      333.600   9.65665e-16
      333.702   9.89651e-16
      333.805   1.01436e-15
      333.908   1.03962e-15
      334.011   1.06539e-15
      334.113   1.09142e-15
      334.216   1.11826e-15
      334.319   1.14564e-15
      334.422   1.17357e-15
      334.525   1.20208e-15
      334.628   1.23116e-15
      334.731   1.26080e-15
      334.834   1.29105e-15
      334.937   1.32191e-15
      335.040   1.35339e-15
      335.143   1.38545e-15
      335.246   1.41815e-15
      335.349   1.45148e-15
      335.452   1.48544e-15
      335.555   1.52006e-15
      335.659   1.55570e-15
      335.762   1.59169e-15
      335.865   1.62832e-15
      335.969   1.66603e-15
      336.072   1.70408e-15
      336.175   1.74280e-15
      336.279   1.78264e-15
      336.382   1.82283e-15
      336.486   1.86418e-15
      336.589   1.90584e-15
      336.693   1.94869e-15
      336.796   1.99186e-15
      336.900   2.03629e-15
      337.004   2.08153e-15
      337.107   2.12706e-15
      337.211   2.17391e-15
      337.315   2.22156e-15
      337.419   2.27006e-15
      337.523   2.31937e-15
      337.626   2.36907e-15
      337.730   2.42014e-15
      337.834   2.47206e-15
      337.938   2.52477e-15
      338.042   2.57803e-15
      338.146   2.63213e-15
      338.250   2.68712e-15
      338.354   2.74305e-15
      338.458   2.79991e-15
      338.562   2.85770e-15
      338.667   2.91699e-15
      338.771   2.97670e-15
      338.875   3.03734e-15
      338.979   3.09898e-15
      339.084   3.16219e-15
      339.188   3.22577e-15
      339.292   3.29042e-15
      339.397   3.35671e-15
      339.501   3.42338e-15
      339.606   3.49181e-15
      339.710   3.56056e-15
      339.815   3.63111e-15
      339.919   3.70200e-15
      340.024   3.77475e-15
      340.128   3.84779e-15
      340.233   3.92277e-15
      340.338   3.99880e-15
      340.442   4.07526e-15
      340.547   4.15361e-15
      340.652   4.23314e-15
      340.757   4.31382e-15
      340.862   4.39572e-15
      340.966   4.47799e-15
      341.071   4.56220e-15
      341.176   4.64769e-15
      341.281   4.73441e-15
      341.386   4.82235e-15
      341.491   4.91159e-15
      341.596   5.00208e-15
      341.702   5.09474e-15
      341.807   5.18774e-15
      341.912   5.28209e-15
      342.017   5.37779e-15
      342.122   5.47478e-15
      342.228   5.57395e-15
      342.333   5.67361e-15
      342.438   5.77465e-15
      342.544   5.87796e-15
      342.649   5.98167e-15
      342.754   6.08678e-15
      342.860   6.19429e-15
      342.965   6.30230e-15
      343.071   6.41258e-15
      343.176   6.52339e-15
      343.282   6.63674e-15
      343.388   6.75150e-15
      343.493   6.86737e-15
      343.599   6.99168e-15
      343.705   7.11847e-15
      343.810   7.24570e-15
      343.916   7.37590e-15
      344.022   7.50800e-15
      344.128   7.64182e-15
      344.234   7.77759e-15
      344.340   7.91513e-15
      344.446   8.05457e-15
      344.552   8.19590e-15
      344.658   8.33927e-15
      344.764   8.48427e-15
      344.870   8.63146e-15
      344.976   8.78040e-15
      345.082   8.93143e-15
      345.188   9.08440e-15
      345.294   9.23940e-15
      345.401   9.39792e-15
      345.507   9.55695e-15
      345.613   9.71798e-15
      345.719   9.88115e-15
      345.826   1.00480e-14
      345.932   1.02153e-14
      346.039   1.03864e-14
      346.145   1.05580e-14
      346.252   1.07333e-14
      346.358   1.09092e-14
      346.465   1.10889e-14
      346.571   1.12692e-14
      346.678   1.14534e-14
      346.785   1.16399e-14
      346.891   1.18267e-14
      346.998   1.20176e-14
      347.105   1.22109e-14
      347.212   1.24065e-14
      347.319   1.26045e-14
      347.425   1.28029e-14
      347.532   1.30056e-14
      347.639   1.32105e-14
      347.746   1.34179e-14
      347.853   1.36280e-14
      347.960   1.38401e-14
      348.067   1.40549e-14
      348.174   1.42720e-14
      348.281   1.44915e-14
      348.389   1.47158e-14
      348.496   1.49402e-14
      348.603   1.51674e-14
      348.710   1.53969e-14
      348.818   1.56314e-14
      348.925   1.58645e-14
      349.032   1.60213e-14
      349.140   1.59886e-14
      349.247   1.59560e-14
      349.355   1.59232e-14
      349.462   1.58906e-14
      349.570   1.58576e-14
      349.677   1.58249e-14
      349.785   1.57919e-14
      349.892   1.57592e-14
      350.000   1.57262e-14
      350.100   1.56956e-14
      350.193   1.56672e-14
      350.287   1.56384e-14
      350.380   1.56098e-14
      350.473   1.55814e-14
      350.567   1.55525e-14
      350.660   1.55239e-14
      350.754   1.54951e-14
      350.847   1.54665e-14
      350.941   1.54375e-14
      351.034   1.54089e-14
      351.128   1.53801e-14
      351.221   1.53514e-14
      351.315   1.53225e-14
      351.409   1.52936e-14
      351.502   1.52649e-14
      351.596   1.52359e-14
      351.690   1.52069e-14
      351.783   1.51783e-14
      351.877   1.51494e-14
      351.971   1.51203e-14
      352.065   1.50913e-14
      352.159   1.50624e-14
      352.252   1.50337e-14
      352.346   1.50046e-14
      352.440   1.49755e-14
      352.534   1.49465e-14
      352.628   1.49176e-14
      352.722   1.48885e-14
      352.816   1.48594e-14
      352.910   1.48303e-14
      353.004   1.48013e-14
      353.098   1.47722e-14
      353.192   1.47431e-14
      353.287   1.47137e-14
      353.381   1.46846e-14
      353.475   1.46556e-14
      353.569   1.46265e-14
      353.663   1.45973e-14
      353.758   1.45680e-14
      353.852   1.45389e-14
      353.946   1.45098e-14
      354.041   1.44803e-14
      354.135   1.44512e-14
      354.229   1.44220e-14
      354.324   1.43926e-14
      354.418   1.43633e-14
      354.513   1.43338e-14
      354.607   1.43048e-14
      354.702   1.42533e-14
      354.796   1.41886e-14
      354.891   1.41222e-14
      354.985   1.40568e-14
      355.080   1.39910e-14
      355.175   1.39254e-14
      355.269   1.38608e-14
      355.364   1.37958e-14
      355.459   1.37311e-14
      355.553   1.36673e-14
      355.648   1.36031e-14
      355.743   1.35393e-14
      355.838   1.34755e-14
      355.933   1.34122e-14
      356.027   1.33498e-14
      356.122   1.32869e-14
      356.217   1.32243e-14
      356.312   1.31620e-14
      356.407   1.30999e-14
      356.502   1.30380e-14
      356.597   1.29764e-14
      356.692   1.29151e-14
      356.787   1.28541e-14
      356.882   1.27932e-14
      356.977   1.27327e-14
      357.073   1.26717e-14
      357.168   1.26116e-14
      357.263   1.25517e-14
      357.358   1.24921e-14
      357.453   1.24328e-14
      357.549   1.23730e-14
      357.644   1.23142e-14
      357.739   1.22555e-14
      357.835   1.21965e-14
      357.930   1.21383e-14
      358.025   1.20804e-14
      358.121   1.20220e-14
      358.216   1.19645e-14
      358.312   1.19066e-14
      358.407   1.18496e-14
      358.503   1.17922e-14
      358.598   1.17356e-14
      358.694   1.16786e-14
      358.790   1.16219e-14
      358.885   1.15659e-14
      358.981   1.15097e-14
      359.076   1.14541e-14
      359.172   1.13983e-14
      359.268   1.13426e-14
      359.364   1.12872e-14
      359.459   1.12326e-14
      359.555   1.11776e-14
      359.651   1.11227e-14
      359.747   1.10681e-14
      359.843   1.10138e-14
      359.939   1.09596e-14
      360.035   1.09056e-14
      360.131   1.08519e-14
      360.227   1.07983e-14
      360.323   1.07450e-14
      360.419   1.07537e-14
      360.515   1.08174e-14
      360.611   1.08917e-14
      360.707   1.09663e-14
      360.803   1.10408e-14
      360.899   1.11156e-14
      360.995   1.11906e-14
      361.092   1.12665e-14
      361.188   1.13418e-14
      361.284   1.14172e-14
      361.380   1.14927e-14
      361.477   1.15691e-14
      361.573   1.16450e-14
      361.669   1.17208e-14
      361.766   1.17976e-14
      361.862   1.18737e-14
      361.959   1.19507e-14
      362.055   1.20270e-14
      362.152   1.21042e-14
      362.248   1.21807e-14
      362.345   1.22582e-14
      362.441   1.23348e-14
      362.538   1.24124e-14
      362.635   1.24900e-14
      362.731   1.25669e-14
      362.828   1.26446e-14
      362.925   1.27224e-14
      363.021   1.27995e-14
      363.118   1.28774e-14
      363.215   1.29553e-14
      363.312   1.30333e-14
      363.409   1.31113e-14
      363.505   1.31885e-14
      363.602   1.32666e-14
      363.699   1.33448e-14
      363.796   1.34229e-14
      363.893   1.35009e-14
      363.990   1.35790e-14
      364.087   1.36571e-14
      364.184   1.37351e-14
      364.281   1.38132e-14
      364.378   1.38914e-14
      364.475   1.39693e-14
      364.573   1.40482e-14
      364.670   1.41261e-14
      364.767   1.42040e-14
      364.864   1.42819e-14
      364.961   1.43596e-14
      365.059   1.44382e-14
      365.156   1.45158e-14
      365.253   1.45935e-14
      365.351   1.46718e-14
      365.448   1.47492e-14
      365.545   1.48266e-14
      365.643   1.49047e-14
      365.740   1.49819e-14
      365.838   1.50597e-14
      365.935   1.51366e-14
      366.033   1.52143e-14
      366.130   1.52910e-14
      366.228   1.53968e-14
      366.326   1.55426e-14
      366.423   1.57001e-14
      366.521   1.58602e-14
      366.618   1.60194e-14
      366.716   1.61809e-14
      366.814   1.63431e-14
      366.912   1.65061e-14
      367.010   1.66700e-14
      367.107   1.68328e-14
      367.205   1.69981e-14
      367.303   1.71639e-14
      367.401   1.73305e-14
      367.499   1.74978e-14
      367.597   1.76658e-14
      367.695   1.78343e-14
      367.793   1.80035e-14
      367.891   1.81734e-14
      367.989   1.83441e-14
      368.087   1.85153e-14
      368.185   1.86869e-14
      368.283   1.88594e-14
      368.381   1.90325e-14
      368.480   1.92077e-14
      368.578   1.93819e-14
      368.676   1.95566e-14
      368.774   1.97318e-14
      368.873   1.99095e-14
      368.971   2.00858e-14
      369.069   2.02627e-14
      369.168   2.04419e-14
      369.266   2.06196e-14
      369.364   2.07979e-14
      369.463   2.09787e-14
      369.561   2.11580e-14
      369.660   2.13394e-14
      369.758   2.15194e-14
      369.857   2.17018e-14
      369.955   2.18828e-14
      370.054   2.20660e-14
      370.153   2.22495e-14
      370.251   2.24316e-14
      370.350   2.26159e-14
      370.449   2.28005e-14
      370.547   2.29836e-14
      370.646   2.31690e-14
      370.745   2.33546e-14
      370.844   2.35405e-14
      370.943   2.37267e-14
      371.041   2.39112e-14
      371.140   2.40979e-14
      371.239   2.42850e-14
      371.338   2.44722e-14
      371.437   2.46596e-14
      371.536   2.48470e-14
      371.635   2.50348e-14
      371.734   2.52228e-14
      371.833   2.54109e-14
      371.932   2.55991e-14
      372.032   2.57895e-14
      372.131   2.61582e-14
      372.230   2.69125e-14
      372.329   2.78809e-14
      372.428   2.88766e-14
      372.528   2.99102e-14
      372.627   3.09619e-14
      372.726   3.20425e-14
      372.826   3.31641e-14
      372.925   3.43049e-14
      373.024   3.54757e-14
      373.124   3.66898e-14
      373.223   3.79221e-14
      373.323   3.92001e-14
      373.422   4.04981e-14
      373.522   4.18422e-14
      373.621   4.32054e-14
      373.721   4.46178e-14
      373.820   4.60495e-14
      373.920   4.75311e-14
      374.020   4.90500e-14
      374.119   5.05873e-14
      374.219   5.21788e-14
      374.319   5.38066e-14
      374.419   5.54710e-14
      374.518   5.71578e-14
      374.618   5.88999e-14
      374.718   6.06822e-14
      374.818   6.25015e-14
      374.918   6.43605e-14
      375.018   6.62621e-14
      375.118   6.82029e-14
      375.218   7.01859e-14
      375.318   7.22104e-14
      375.418   7.42775e-14
      375.518   7.63851e-14
      375.618   7.85355e-14
      375.718   8.07292e-14
      375.818   8.29660e-14
      375.918   8.52468e-14
      376.019   8.75951e-14
      376.119   8.99658e-14
      376.219   9.23789e-14
      376.319   9.48391e-14
      376.420   9.73679e-14
      376.520   9.99173e-14
      376.620   1.02512e-13
      376.721   1.05181e-13
      376.821   1.07868e-13
      376.922   1.10651e-13
      377.022   1.13736e-13
      377.122   1.17193e-13
      377.223   1.20762e-13
      377.323   1.24369e-13
      377.424   1.28091e-13
      377.525   1.31887e-13
      377.625   1.35722e-13
      377.726   1.39672e-13
      377.827   1.43703e-13
      377.927   1.47772e-13
      378.028   1.51958e-13
      378.129   1.56226e-13
      378.230   1.60575e-13
      378.330   1.64959e-13
      378.431   1.69467e-13
      378.532   1.74054e-13
      378.633   1.78726e-13
      378.734   1.83480e-13
      378.835   1.88312e-13
      378.936   1.93227e-13
      379.037   1.98224e-13
      379.138   2.03301e-13
      379.239   2.08463e-13
      379.340   2.13704e-13
      379.441   2.19029e-13
      379.542   2.24436e-13
      379.643   2.29922e-13
      379.745   2.35548e-13
      379.846   2.41202e-13
      379.947   2.46932e-13
      380.048   2.52744e-13
      380.150   2.58699e-13
      380.251   2.64675e-13
      380.352   2.70729e-13
      380.454   2.76922e-13
      380.555   2.83137e-13
      380.656   2.89429e-13
      380.758   2.95864e-13
      380.859   3.02311e-13
      380.961   3.08898e-13
      381.062   3.15498e-13
      381.164   3.22244e-13
      381.266   3.29065e-13
      381.367   3.35893e-13
      381.469   3.42863e-13
      381.570   3.49834e-13
      381.672   3.56947e-13
      381.774   3.64138e-13
      381.876   3.71395e-13
      381.977   3.78750e-13
      382.079   3.86577e-13
      382.181   3.94766e-13
      382.283   4.03039e-13
      382.385   4.11399e-13
      382.487   4.19851e-13
      382.589   4.28375e-13
      382.691   4.36981e-13
      382.793   4.45668e-13
      382.895   4.54438e-13
      382.997   4.63286e-13
      383.099   4.72208e-13
      383.201   4.81200e-13
      383.303   4.90276e-13
      383.405   4.99415e-13
      383.507   5.08620e-13
      383.610   5.17989e-13
      383.712   5.27339e-13
      383.814   5.36744e-13
      383.916   5.46216e-13
      384.019   5.55846e-13
      384.121   5.65444e-13
      384.223   5.75091e-13
      384.326   5.84897e-13
      384.428   5.94649e-13
      384.531   6.04547e-13
      384.633   6.14404e-13
      384.736   6.24406e-13
      384.838   6.34355e-13
      384.941   6.44448e-13
      385.043   6.54486e-13
      385.146   6.64664e-13
      385.249   6.74879e-13
      385.351   6.85035e-13
      385.454   6.95329e-13
      385.557   7.05648e-13
      385.660   7.16009e-13
      385.762   7.26291e-13
      385.865   7.36701e-13
      385.968   7.47142e-13
      386.071   7.57606e-13
      386.174   7.68093e-13
      386.277   7.78592e-13
      386.380   7.89108e-13
      386.483   7.99642e-13
      386.586   8.10187e-13
      386.689   8.20746e-13
      386.792   8.31314e-13
      386.895   8.41886e-13
      386.998   8.52463e-13
      387.101   8.59120e-13
      387.204   8.52275e-13
      387.308   8.40866e-13
      387.411   8.29721e-13
      387.514   8.18724e-13
      387.617   8.07879e-13
      387.721   7.97077e-13
      387.824   7.86520e-13
      387.927   7.76097e-13
      388.031   7.65721e-13
      388.134   7.55585e-13
      388.238   7.45491e-13
      388.341   7.35620e-13
      388.445   7.25790e-13
      388.548   7.16179e-13
      388.652   7.06611e-13
      388.755   6.97262e-13
      388.859   6.87945e-13
      388.962   6.78842e-13
      389.066   6.69769e-13
      389.170   6.60826e-13
      389.274   6.51996e-13
      389.377   6.43366e-13
      389.481   6.34764e-13
      389.585   6.26285e-13
      389.689   6.17915e-13
      389.793   6.09653e-13
      389.897   6.01508e-13
      390.000   5.93543e-13
      390.104   5.85611e-13
      390.208   5.77779e-13
      390.312   5.70054e-13
      390.416   5.62429e-13
      390.520   5.54896e-13
      390.625   5.47391e-13
      390.729   5.40064e-13
      390.833   5.32830e-13
      390.937   5.25693e-13
      391.041   5.18653e-13
      391.145   5.11706e-13
      391.250   5.04783e-13
      391.354   4.98015e-13
      391.458   4.91333e-13
      391.563   4.84677e-13
      391.667   4.78176e-13
      391.771   4.71762e-13
      391.876   4.65371e-13
      391.980   4.59126e-13
      392.085   4.52908e-13
      392.189   4.46833e-13
      392.294   4.40781e-13
      392.398   4.34870e-13
      392.503   4.28981e-13
      392.607   4.23227e-13
      392.712   4.17499e-13
      392.817   4.11843e-13
      392.921   4.06323e-13
      393.026   4.00821e-13
      393.131   3.95398e-13
      393.236   3.90042e-13
      393.340   3.84813e-13
      393.445   3.79607e-13
      393.550   3.74470e-13
      393.655   3.69402e-13
      393.760   3.64405e-13
      393.865   3.59473e-13
      393.970   3.54613e-13
      394.075   3.49815e-13
      394.180   3.45085e-13
      394.285   3.40418e-13
      394.390   3.35816e-13
      394.495   3.31273e-13
      394.600   3.26794e-13
      394.706   3.22336e-13
      394.811   3.17980e-13
      394.916   3.13680e-13
      395.021   3.09440e-13
      395.126   3.05261e-13
      395.232   3.01096e-13
      395.337   2.97027e-13
      395.443   2.92978e-13
      395.548   2.89021e-13
      395.653   2.85118e-13
      395.759   2.81231e-13
      395.864   2.77434e-13
      395.970   2.73654e-13
      396.075   2.69960e-13
      396.181   2.66281e-13
      396.286   2.62685e-13
      396.392   2.59109e-13
      396.498   2.55581e-13
      396.603   2.52130e-13
      396.709   2.48697e-13
      396.815   2.45309e-13
      396.921   2.41966e-13
      397.026   2.38703e-13
      397.132   2.35452e-13
      397.238   2.32248e-13
      397.344   2.29083e-13
      397.450   2.25968e-13
      397.556   2.22890e-13
      397.662   2.19854e-13
      397.768   2.16860e-13
      397.874   2.13906e-13
      397.980   2.10992e-13
      398.086   2.08116e-13
      398.192   2.05282e-13
      398.298   2.02485e-13
      398.404   1.99726e-13
      398.510   1.97004e-13
      398.617   1.94297e-13
      398.723   1.91649e-13
      398.829   1.89037e-13
      398.935   1.86460e-13
      399.042   1.83896e-13
      399.148   1.81388e-13
      399.255   1.78894e-13
      399.361   1.76455e-13
      399.467   1.74047e-13
      399.574   1.71653e-13
      399.680   1.69312e-13
      399.787   1.66980e-13
      399.893       0.00000
      400.000       0.00000
