Filter Al-poly
observation_date 22-Sept-2021 22:45:45
wavelength effective area 
      1.00000   2.78456e-10
      1.10000   7.94911e-10
      1.20000   2.06646e-09
      1.30000   4.94129e-09
      1.40000   1.12121e-08
      1.50000   2.39195e-08
      1.60000   4.84222e-08
      1.70000   9.40046e-08
      1.80000   1.75010e-07
      1.90000   3.14546e-07
      2.00000   5.46835e-07
      2.10000   9.23632e-07
      2.20000   1.52298e-06
      2.30000   2.44821e-06
      2.40000   3.84359e-06
      2.50000   5.87406e-06
      2.60000   8.96445e-06
      2.70000   1.33654e-05
      2.80000   1.95458e-05
      2.90000   2.82907e-05
      3.00000   4.03094e-05
      3.10000   5.66961e-05
      3.20000   7.88748e-05
      3.30000   0.000108614
      3.40000   0.000148011
      3.50000   0.000199746
      3.60000   0.000268329
      3.70000   0.000356637
      3.80000   0.000472050
      3.90000   0.000621355
      4.00000   0.000812808
      4.10000    0.00105834
      4.20000    0.00137315
      4.30000    0.00177656
      4.40000    0.00229242
      4.50000    0.00294999
      4.60000    0.00378351
      4.70000    0.00485250
      4.80000    0.00621732
      4.90000    0.00786372
      5.00000     0.0102083
      5.10000     0.0130653
      5.20000     0.0167722
      5.30000     0.0213490
      5.40000     0.0271320
      5.50000     0.0345428
      5.60000     0.0426300
      5.70000     0.0554278
      5.80000     0.0649997
      5.90000     0.0992748
      6.00000      0.133493
      6.10000      0.170677
      6.20000      0.209683
      6.30000      0.246929
      6.40000      0.278937
      6.50000      0.302567
      6.60000      0.313355
      6.70000      0.323310
      6.80000      0.323924
      6.90000      0.425216
      7.00000      0.462707
      7.10000      0.489682
      7.20000      0.511235
      7.30000      0.528963
      7.40000      0.542639
      7.50000      0.553652
      7.60000      0.562109
      7.70000      0.566516
      7.80000      0.565760
      7.90000      0.565697
      8.00000      0.954837
      8.10000       1.05067
      8.20000       1.07348
      8.30000       1.09166
      8.40000       1.10581
      8.50000       1.11840
      8.60000       1.12908
      8.70000       1.13856
      8.80000       1.14646
      8.90000       1.15333
      9.00000       1.15907
      9.10000       1.16372
      9.20000       1.16749
      9.30000       1.17027
      9.40000       1.17221
      9.50000       1.17337
      9.60000       1.17369
      9.70000       1.17326
      9.80000       1.17224
      9.90000       1.17064
      10.0000       1.16853
      10.1000       1.16591
      10.2000       1.16282
      10.3000       1.15919
      10.4000       1.15504
      10.5000       1.15041
      10.6000       1.14534
      10.7000       1.13983
      10.8000       1.13390
      10.9000       1.12758
      11.0000       1.12088
      11.1000       1.11383
      11.2000       1.10643
      11.3000       1.09872
      11.4000       1.09068
      11.5000       1.08230
      11.6000       1.07360
      11.7000       1.06448
      11.8000       1.05506
      11.9000       1.04514
      12.0000       1.03362
      12.1000       1.02574
      12.2000       1.03576
      12.3000       1.03494
      12.4000       1.02643
      12.5000       1.01712
      12.6000       1.00741
      12.7000      0.997445
      12.8000      0.987287
      12.9000      0.976946
      13.0000      0.966479
      13.1000      0.955921
      13.2000      0.945298
      13.3000      0.934628
      13.4000      0.923938
      13.5000      0.913387
      13.6000      0.902943
      13.7000      0.892500
      13.8000      0.882046
      13.9000      0.871620
      14.0000      0.861216
      14.1000      0.850808
      14.2000      0.840395
      14.3000      0.829970
      14.4000      0.819503
      14.5000      0.809006
      14.6000      0.798462
      14.7000      0.787881
      14.8000      0.777276
      14.9000      0.766652
      15.0000      0.756023
      15.1000      0.745414
      15.2000      0.734824
      15.3000      0.724259
      15.4000      0.713720
      15.5000      0.703220
      15.6000      0.692805
      15.7000      0.682431
      15.8000      0.672155
      15.9000      0.661968
      16.0000      0.651867
      16.1000      0.641867
      16.2000      0.631983
      16.3000      0.622169
      16.4000      0.612424
      16.5000      0.602745
      16.6000      0.593125
      16.7000      0.583564
      16.8000      0.574059
      16.9000      0.564612
      17.0000      0.555229
      17.1000      0.545904
      17.2000      0.536632
      17.3000      0.527423
      17.4000      0.518429
      17.5000      0.509648
      17.6000      0.501044
      17.7000      0.492692
      17.8000      0.484676
      17.9000      0.476754
      18.0000      0.468842
      18.1000      0.460977
      18.2000      0.453100
      18.3000      0.445181
      18.4000      0.437178
      18.5000      0.429118
      18.6000      0.420992
      18.7000      0.412734
      18.8000      0.404540
      18.9000      0.396409
      19.0000      0.388340
      19.1000      0.380376
      19.2000      0.372505
      19.3000      0.364750
      19.4000      0.357119
      19.5000      0.349596
      19.6000      0.342241
      19.7000      0.334988
      19.8000      0.327832
      19.9000      0.320815
      20.0000      0.313876
      20.1000      0.307021
      20.2000      0.300234
      20.3000      0.293514
      20.4000      0.286880
      20.5000      0.280300
      20.6000      0.273774
      20.7000      0.267324
      20.8000      0.260930
      20.9000      0.254576
      21.0000      0.248289
      21.1000      0.242076
      21.2000      0.235861
      21.3000      0.229700
      21.4000      0.223608
      21.5000      0.217518
      21.6000      0.211425
      21.7000      0.205339
      21.8000      0.199286
      21.9000      0.193010
      22.0000      0.186722
      22.1000      0.180315
      22.2000      0.173521
      22.3000      0.166408
      22.4000      0.156616
      22.5000      0.146068
      22.6000      0.124447
      22.7000      0.114879
      22.8000      0.156625
      22.9000      0.206050
      23.0000      0.265066
      23.1000      0.301980
      23.2000      0.319884
      23.3000      0.323739
      23.4000      0.320666
      23.5000      0.317158
      23.6000      0.313561
      23.7000      0.309102
      23.8000      0.304599
      23.9000      0.299978
      24.0000      0.295352
      24.1000      0.290519
      24.2000      0.285709
      24.3000      0.280895
      24.4000      0.276089
      24.5000      0.271256
      24.6000      0.266457
      24.7000      0.261697
      24.8000      0.256969
      24.9000      0.252272
      25.0000      0.247618
      25.1000      0.243018
      25.2000      0.238457
      25.3000      0.233944
      25.4000      0.229479
      25.5000      0.225081
      25.6000      0.220740
      25.7000      0.216468
      25.8000      0.212245
      25.9000      0.208088
      26.0000      0.203972
      26.1000      0.199917
      26.2000      0.195900
      26.3000      0.191960
      26.4000      0.188052
      26.5000      0.184211
      26.6000      0.180402
      26.7000      0.176670
      26.8000      0.172982
      26.9000      0.169346
      27.0000      0.165746
      27.1000      0.162167
      27.2000      0.158614
      27.3000      0.155458
      27.4000      0.152781
      27.5000      0.150003
      27.6000      0.146897
      27.7000      0.143817
      27.8000      0.140711
      27.9000      0.137633
      28.0000      0.134627
      28.1000      0.131657
      28.2000      0.128753
      28.3000      0.125901
      28.4000      0.123097
      28.5000      0.120356
      28.6000      0.117648
      28.7000      0.115052
      28.8000      0.112482
      28.9000      0.109973
      29.0000      0.107498
      29.1000      0.105069
      29.2000      0.102687
      29.3000      0.100336
      29.4000     0.0980473
      29.5000     0.0957820
      29.6000     0.0935750
      29.7000     0.0913990
      29.8000     0.0892652
      29.9000     0.0871780
      30.0000     0.0851147
      30.1000     0.0831132
      30.2000     0.0811326
      30.3000     0.0824038
      30.4000     0.0854944
      30.5000     0.0874699
      30.6000     0.0854578
      30.7000     0.0834673
      30.8000     0.0815294
      30.9000     0.0796214
      31.0000     0.0777464
      31.1000     0.0759184
      31.2000     0.0741106
      31.3000     0.0723546
      31.4000     0.0706245
      31.5000     0.0689259
      31.6000     0.0672713
      31.7000     0.0656353
      31.8000     0.0640475
      31.9000     0.0624850
      32.0000     0.0609494
      32.1000     0.0594581
      32.2000     0.0579838
      32.3000     0.0565517
      32.4000     0.0551471
      32.5000     0.0537660
      32.6000     0.0524576
      32.7000     0.0511639
      32.8000     0.0499017
      32.9000     0.0486701
      33.0000     0.0474525
      33.1000     0.0463166
      33.2000     0.0452001
      33.3000     0.0441026
      33.4000     0.0430393
      33.5000     0.0419883
      33.6000     0.0409659
      33.7000     0.0399668
      33.8000     0.0389787
      33.9000     0.0380257
      34.0000     0.0370867
      34.1000     0.0361671
      34.2000     0.0352734
      34.3000     0.0343896
      34.4000     0.0335266
      34.5000     0.0326875
      34.6000     0.0318576
      34.7000     0.0310379
      34.8000     0.0302278
      34.9000     0.0294267
      35.0000     0.0286578
      35.1000     0.0278999
      35.2000     0.0271533
      35.3000     0.0264369
      35.4000     0.0257285
      35.5000     0.0250351
      35.6000     0.0243664
      35.7000     0.0237053
      35.8000     0.0230618
      35.9000     0.0224382
      36.0000     0.0218219
      36.1000     0.0212252
      36.2000     0.0206445
      36.3000     0.0200705
      36.4000     0.0195175
      36.5000     0.0189772
      36.6000     0.0184433
      36.7000     0.0179310
      36.8000     0.0174290
      36.9000     0.0169331
      37.0000     0.0164587
      37.1000     0.0159929
      37.2000     0.0155328
      37.3000     0.0150939
      37.4000     0.0146623
      37.5000     0.0142360
      37.6000     0.0138299
      37.7000     0.0134304
      37.8000     0.0130359
      37.9000     0.0126604
      38.0000     0.0122912
      38.1000     0.0119267
      38.2000     0.0115795
      38.3000     0.0112387
      38.4000     0.0109023
      38.5000     0.0105814
      38.6000     0.0102671
      38.7000    0.00995696
      38.8000    0.00966037
      38.9000    0.00937109
      39.0000    0.00908557
      39.1000    0.00881153
      39.2000    0.00854565
      39.3000    0.00828323
      39.4000    0.00802998
      39.5000    0.00778583
      39.6000    0.00754491
      39.7000    0.00731088
      39.8000    0.00708718
      39.9000    0.00686642
      40.0000    0.00665021
      40.1000    0.00644545
      40.2000    0.00624338
      40.3000    0.00604399
      40.4000    0.00585640
      40.5000    0.00567172
      40.6000    0.00548949
      40.7000    0.00531616
      40.8000    0.00514755
      40.9000    0.00498126
      41.0000    0.00482104
      41.1000    0.00466733
      41.2000    0.00451579
      41.3000    0.00436777
      41.4000    0.00422813
      41.5000    0.00409042
      41.6000    0.00395455
      41.7000    0.00382676
      41.8000    0.00370161
      41.9000    0.00357818
      42.0000    0.00346012
      42.1000    0.00334670
      42.2000    0.00323489
      42.3000    0.00312566
      42.4000    0.00302294
      42.5000    0.00292169
      42.6000    0.00282180
      42.7000    0.00272771
      42.8000    0.00263613
      42.9000    0.00254582
      43.0000    0.00245869
      43.1000    0.00237602
      43.2000    0.00229456
      43.3000    0.00221420
      43.4000    0.00700089
      43.5000     0.0186483
      43.6000     0.0395514
      43.7000     0.0624950
      43.8000     0.0725773
      43.9000     0.0713301
      44.0000     0.0700871
      44.1000     0.0688929
      44.2000     0.0677042
      44.3000     0.0665195
      44.4000     0.0653585
      44.5000     0.0642274
      44.6000     0.0630998
      44.7000     0.0619760
      44.8000     0.0608949
      44.9000     0.0598226
      45.0000     0.0587539
      45.1000     0.0577016
      45.2000     0.0566832
      45.3000     0.0556681
      45.4000     0.0546564
      45.5000     0.0536766
      45.6000     0.0527131
      45.7000     0.0517529
      45.8000     0.0507975
      45.9000     0.0498846
      46.0000     0.0489745
      46.1000     0.0480675
      46.2000     0.0472182
      46.3000     0.0464655
      46.4000     0.0457152
      46.5000     0.0449675
      46.6000     0.0442563
      46.7000     0.0435641
      46.8000     0.0428743
      46.9000     0.0421867
      47.0000     0.0415476
      47.1000     0.0409135
      47.2000     0.0402815
      47.3000     0.0396568
      47.4000     0.0390576
      47.5000     0.0384604
      47.6000     0.0378652
      47.7000     0.0372808
      47.8000     0.0367120
      47.9000     0.0361450
      48.0000     0.0355801
      48.1000     0.0350295
      48.2000     0.0344903
      48.3000     0.0339528
      48.4000     0.0334172
      48.5000     0.0328982
      48.6000     0.0323867
      48.7000     0.0318769
      48.8000     0.0313689
      48.9000     0.0308797
      49.0000     0.0303956
      49.1000     0.0299131
      49.2000     0.0294323
      49.3000     0.0289713
      49.4000     0.0285133
      49.5000     0.0280570
      49.6000     0.0276021
      49.7000     0.0271673
      49.8000     0.0267343
      49.9000     0.0263028
      50.0000     0.0258732
      50.1000     0.0254591
      50.2000     0.0250565
      50.3000     0.0246588
      50.4000     0.0242670
      50.5000     0.0238811
      50.6000     0.0235009
      50.7000     0.0231260
      50.8000     0.0227557
      50.9000     0.0223914
      51.0000     0.0220331
      51.1000     0.0216805
      51.2000     0.0213327
      51.3000     0.0209899
      51.4000     0.0206528
      51.5000     0.0203202
      51.6000     0.0199921
      51.7000     0.0196683
      51.8000     0.0193471
      51.9000     0.0190304
      52.0000     0.0187185
      52.1000     0.0184115
      52.2000     0.0181085
      52.3000     0.0178095
      52.4000     0.0175156
      52.5000     0.0172261
      52.6000     0.0169403
      52.7000     0.0166581
      52.8000     0.0163799
      52.9000     0.0161062
      53.0000     0.0158367
      53.1000     0.0155712
      53.2000     0.0153099
      53.3000     0.0150522
      53.4000     0.0147985
      53.5000     0.0145486
      53.6000     0.0143021
      53.7000     0.0140592
      53.8000     0.0138202
      53.9000     0.0135848
      54.0000     0.0133533
      54.1000     0.0131259
      54.2000     0.0129014
      54.3000     0.0126799
      54.4000     0.0124620
      54.5000     0.0122476
      54.6000     0.0120365
      54.7000     0.0118288
      54.8000     0.0116243
      54.9000     0.0114230
      55.0000     0.0112249
      55.1000     0.0110297
      55.2000     0.0108280
      55.3000     0.0106208
      55.4000     0.0104169
      55.5000     0.0102162
      55.6000     0.0100193
      55.7000    0.00982573
      55.8000    0.00963536
      55.9000    0.00944837
      56.0000    0.00926583
      56.1000    0.00908292
      56.2000    0.00890025
      56.3000    0.00872116
      56.4000    0.00854516
      56.5000    0.00837206
      56.6000    0.00820197
      56.7000    0.00803515
      56.8000    0.00787130
      56.9000    0.00771067
      57.0000    0.00755328
      57.1000    0.00739875
      57.2000    0.00724674
      57.3000    0.00709722
      57.4000    0.00695069
      57.5000    0.00680700
      57.6000    0.00666588
      57.7000    0.00652726
      57.8000    0.00639144
      57.9000    0.00625815
      58.0000    0.00612729
      58.1000    0.00599880
      58.2000    0.00587298
      58.3000    0.00574953
      58.4000    0.00562826
      58.5000    0.00550915
      58.6000    0.00539245
      58.7000    0.00527812
      58.8000    0.00516598
      58.9000    0.00505587
      59.0000    0.00494778
      59.1000    0.00484183
      59.2000    0.00473786
      59.3000    0.00463594
      59.4000    0.00453611
      59.5000    0.00443838
      59.6000    0.00434252
      59.7000    0.00424834
      59.8000    0.00415590
      59.9000    0.00406526
      60.0000    0.00397663
      60.1000    0.00388974
      60.2000    0.00380456
      60.3000    0.00372103
      60.4000    0.00363911
      60.5000    0.00355896
      60.6000    0.00348033
      60.7000    0.00340321
      60.8000    0.00332762
      60.9000    0.00325350
      61.0000    0.00318090
      61.1000    0.00310978
      61.2000    0.00304011
      61.3000    0.00297189
      61.4000    0.00290507
      61.5000    0.00283960
      61.6000    0.00277548
      61.7000    0.00271266
      61.8000    0.00265146
      61.9000    0.00259165
      62.0000    0.00253308
      62.1000    0.00247576
      62.2000    0.00241974
      62.3000    0.00236484
      62.4000    0.00231103
      62.5000    0.00225830
      62.6000    0.00220662
      62.7000    0.00215600
      62.8000    0.00210664
      62.9000    0.00205835
      63.0000    0.00201109
      63.1000    0.00196482
      63.2000    0.00191951
      63.3000    0.00187511
      63.4000    0.00183163
      63.5000    0.00178912
      63.6000    0.00174753
      63.7000    0.00170683
      63.8000    0.00166703
      63.9000    0.00162809
      64.0000    0.00158997
      64.1000    0.00155267
      64.2000    0.00151620
      64.3000    0.00148053
      64.4000    0.00144564
      64.5000    0.00141150
      64.6000    0.00137808
      64.7000    0.00134538
      64.8000    0.00131336
      64.9000    0.00128203
      65.0000    0.00125140
      65.1000    0.00122150
      65.2000    0.00119228
      65.3000    0.00116371
      65.4000    0.00113575
      65.5000    0.00110838
      65.6000    0.00108159
      65.7000    0.00105540
      65.8000    0.00102981
      65.9000    0.00100481
      66.0000   0.000980404
      66.1000   0.000956590
      66.2000   0.000933310
      66.3000   0.000910539
      66.4000   0.000888255
      66.5000   0.000866459
      66.6000   0.000845153
      66.7000   0.000824345
      66.8000   0.000804031
      66.9000   0.000784313
      67.0000   0.000765152
      67.1000   0.000746435
      67.2000   0.000728138
      67.3000   0.000710269
      67.4000   0.000692803
      67.5000   0.000675741
      67.6000   0.000659075
      67.7000   0.000642793
      67.8000   0.000626861
      67.9000   0.000611256
      68.0000   0.000596075
      68.1000   0.000581308
      68.2000   0.000566882
      68.3000   0.000552800
      68.4000   0.000539055
      68.5000   0.000525637
      68.6000   0.000512528
      68.7000   0.000499715
      68.8000   0.000487191
      68.9000   0.000475082
      69.0000   0.000463987
      69.1000   0.000454567
      69.2000   0.000446135
      69.3000   0.000437942
      69.4000   0.000430061
      69.5000   0.000422124
      69.6000   0.000414056
      69.7000   0.000406291
      69.8000   0.000398868
      69.9000   0.000391580
      70.0000   0.000384414
      70.1000   0.000377270
      70.2000   0.000370726
      70.3000   0.000364764
      70.4000   0.000358874
      70.5000   0.000353134
      70.6000   0.000347529
      70.7000   0.000342011
      70.8000   0.000336571
      70.9000   0.000331060
      71.0000   0.000325497
      71.1000   0.000320181
      71.2000   0.000315103
      71.3000   0.000309807
      71.4000   0.000304234
      71.5000   0.000299051
      71.6000   0.000294419
      71.7000   0.000289783
      71.8000   0.000285050
      71.9000   0.000280482
      72.0000   0.000276220
      72.1000   0.000271912
      72.2000   0.000267118
      72.3000   0.000262421
      72.4000   0.000258226
      72.5000   0.000254102
      72.6000   0.000250038
      72.7000   0.000246035
      72.8000   0.000242095
      72.9000   0.000238221
      73.0000   0.000234485
      73.1000   0.000230846
      73.2000   0.000227266
      73.3000   0.000223741
      73.4000   0.000220297
      73.5000   0.000216951
      73.6000   0.000213654
      73.7000   0.000210404
      73.8000   0.000207200
      73.9000   0.000204043
      74.0000   0.000200951
      74.1000   0.000198105
      74.2000   0.000195360
      74.3000   0.000192457
      74.4000   0.000189448
      74.5000   0.000186524
      74.6000   0.000183729
      74.7000   0.000180973
      74.8000   0.000178255
      74.9000   0.000175574
      75.0000   0.000172911
      75.1000   0.000170282
      75.2000   0.000167693
      75.3000   0.000165142
      75.4000   0.000162649
      75.5000   0.000160234
      75.6000   0.000157854
      75.7000   0.000155507
      75.8000   0.000153195
      75.9000   0.000150937
      76.0000   0.000148721
      76.1000   0.000146539
      76.2000   0.000144389
      76.3000   0.000142276
      76.4000   0.000140224
      76.5000   0.000138202
      76.6000   0.000136207
      76.7000   0.000134236
      76.8000   0.000132291
      76.9000   0.000130371
      77.0000   0.000128478
      77.1000   0.000126614
      77.2000   0.000124777
      77.3000   0.000122969
      77.4000   0.000121188
      77.5000   0.000119432
      77.6000   0.000117673
      77.7000   0.000115937
      77.8000   0.000114223
      77.9000   0.000112530
      78.0000   0.000110843
      78.1000   0.000109131
      78.2000   0.000107447
      78.3000   0.000105893
      78.4000   0.000104400
      78.5000   0.000102918
      78.6000   0.000101426
      78.7000   9.99564e-05
      78.8000   9.84669e-05
      78.9000   9.69869e-05
      79.0000   9.55264e-05
      79.1000   9.40851e-05
      79.2000   9.26666e-05
      79.3000   9.13000e-05
      79.4000   8.99650e-05
      79.5000   8.86402e-05
      79.6000   8.73031e-05
      79.7000   8.59849e-05
      79.8000   8.46702e-05
      79.9000   8.33669e-05
      80.0000   8.20789e-05
      80.1000   8.07724e-05
      80.2000   7.94821e-05
      80.3000   7.81714e-05
      80.4000   7.68446e-05
      80.5000   7.55376e-05
      80.6000   7.42531e-05
      80.7000   7.29900e-05
      80.8000   7.17532e-05
      80.9000   7.05500e-05
      81.0000   6.93661e-05
      81.1000   6.82028e-05
      81.2000   6.70589e-05
      81.3000   6.59344e-05
      81.4000   6.48933e-05
      81.5000   6.38715e-05
      81.6000   6.28840e-05
      81.7000   6.19508e-05
      81.8000   6.10340e-05
      81.9000   6.01576e-05
      82.0000   5.93074e-05
      82.1000   5.84708e-05
      82.2000   5.76247e-05
      82.3000   5.67923e-05
      82.4000   5.60044e-05
      82.5000   5.52940e-05
      82.6000   5.45908e-05
      82.7000   5.38795e-05
      82.8000   5.31575e-05
      82.9000   5.24435e-05
      83.0000   5.17449e-05
      83.1000   5.10582e-05
      83.2000   5.03811e-05
      83.3000   4.97130e-05
      83.4000   4.90544e-05
      83.5000   4.84063e-05
      83.6000   4.77787e-05
      83.7000   4.71587e-05
      83.8000   4.65428e-05
      83.9000   4.59263e-05
      84.0000   4.53173e-05
      84.1000   4.47235e-05
      84.2000   4.41487e-05
      84.3000   4.35808e-05
      84.4000   4.30146e-05
      84.5000   4.24515e-05
      84.6000   4.18957e-05
      84.7000   4.13551e-05
      84.8000   4.08260e-05
      84.9000   4.03039e-05
      85.0000   3.97766e-05
      85.1000   3.92527e-05
      85.2000   3.87358e-05
      85.3000   3.82429e-05
      85.4000   3.77592e-05
      85.5000   3.72821e-05
      85.6000   3.68024e-05
      85.7000   3.63281e-05
      85.8000   3.58594e-05
      85.9000   3.53964e-05
      86.0000   3.49389e-05
      86.1000   3.44873e-05
      86.2000   3.40522e-05
      86.3000   3.36225e-05
      86.4000   3.31976e-05
      86.5000   3.27774e-05
      86.6000   3.23622e-05
      86.7000   3.19521e-05
      86.8000   3.15227e-05
      86.9000   3.10982e-05
      87.0000   3.06795e-05
      87.1000   3.02716e-05
      87.2000   2.98696e-05
      87.3000   2.94730e-05
      87.4000   2.90734e-05
      87.5000   2.86773e-05
      87.6000   2.82860e-05
      87.7000   2.79046e-05
      87.8000   2.75289e-05
      87.9000   2.71575e-05
      88.0000   2.67905e-05
      88.1000   2.64279e-05
      88.2000   2.60702e-05
      88.3000   2.57233e-05
      88.4000   2.53868e-05
      88.5000   2.50557e-05
      88.6000   2.47268e-05
      88.7000   2.43989e-05
      88.8000   2.40755e-05
      88.9000   2.37559e-05
      89.0000   2.34397e-05
      89.1000   2.31278e-05
      89.2000   2.28193e-05
      89.3000   2.25139e-05
      89.4000   2.22112e-05
      89.5000   2.19123e-05
      89.6000   2.16172e-05
      89.7000   2.13255e-05
      89.8000   2.10372e-05
      89.9000   2.07525e-05
      90.0000   2.04716e-05
      90.1000   2.01948e-05
      90.2000   1.99167e-05
      90.3000   1.96314e-05
      90.4000   1.93499e-05
      90.5000   1.90726e-05
      90.6000   1.88034e-05
      90.7000   1.85329e-05
      90.8000   1.82605e-05
      90.9000   1.79856e-05
      91.0000   1.77132e-05
      91.1000   1.74447e-05
      91.2000   1.71770e-05
      91.3000   1.69088e-05
      91.4000   1.66439e-05
      91.5000   1.63835e-05
      91.6000   1.61272e-05
      91.7000   1.58917e-05
      91.8000   1.56855e-05
      91.9000   1.55128e-05
      92.0000   1.53233e-05
      92.1000   1.51320e-05
      92.2000   1.49325e-05
      92.3000   1.47262e-05
      92.4000   1.45173e-05
      92.5000   1.43115e-05
      92.6000   1.41083e-05
      92.7000   1.39077e-05
      92.8000   1.37098e-05
      92.9000   1.35165e-05
      93.0000   1.33302e-05
      93.1000   1.31463e-05
      93.2000   1.29650e-05
      93.3000   1.27916e-05
      93.4000   1.26225e-05
      93.5000   1.24556e-05
      93.6000   1.22903e-05
      93.7000   1.21265e-05
      93.8000   1.19640e-05
      93.9000   1.18033e-05
      94.0000   1.16444e-05
      94.1000   1.14873e-05
      94.2000   1.13322e-05
      94.3000   1.11802e-05
      94.4000   1.10333e-05
      94.5000   1.08885e-05
      94.6000   1.07458e-05
      94.7000   1.06053e-05
      94.8000   1.04667e-05
      94.9000   1.03299e-05
      95.0000   1.01949e-05
      95.1000   1.00622e-05
      95.2000   9.93081e-06
      95.3000   9.80080e-06
      95.4000   9.67258e-06
      95.5000   9.54750e-06
      95.6000   9.42370e-06
      95.7000   9.30123e-06
      95.8000   9.17894e-06
      95.9000   9.05771e-06
      96.0000   8.93787e-06
      96.1000   8.81937e-06
      96.2000   8.70222e-06
      96.3000   8.58700e-06
      96.4000   8.47331e-06
      96.5000   8.36113e-06
      96.6000   8.25078e-06
      96.7000   8.14236e-06
      96.8000   8.03510e-06
      96.9000   7.92907e-06
      97.0000   7.82435e-06
      97.1000   7.72129e-06
      97.2000   7.61928e-06
      97.3000   7.51726e-06
      97.4000   7.41546e-06
      97.5000   7.31515e-06
      97.6000   7.21608e-06
      97.7000   7.11871e-06
      97.8000   7.02292e-06
      97.9000   6.92861e-06
      98.0000   6.83544e-06
      98.1000   6.74340e-06
      98.2000   6.65269e-06
      98.3000   6.57311e-06
      98.4000   6.49929e-06
      98.5000   6.42955e-06
      98.6000   6.36065e-06
      98.7000   6.29244e-06
      98.8000   6.22484e-06
      98.9000   6.15784e-06
      99.0000   6.09165e-06
      99.1000   6.02604e-06
      99.2000   5.96062e-06
      99.3000   5.89398e-06
      99.4000   5.82808e-06
      99.5000   5.76287e-06
      99.6000   5.69876e-06
      99.7000   5.63808e-06
      99.8000   5.58043e-06
      99.9000   5.54415e-06
      100.000   5.54034e-06
      100.100   5.53466e-06
      100.200   5.52892e-06
      100.300   5.52314e-06
      100.400   5.51732e-06
      100.500   5.51222e-06
      100.600   5.50692e-06
      100.700   5.50154e-06
      100.800   5.49600e-06
      100.900   5.49032e-06
      101.000   5.48451e-06
      101.100   5.47859e-06
      101.200   5.47260e-06
      101.300   5.46656e-06
      101.400   5.46050e-06
      101.500   5.45447e-06
      101.600   5.44847e-06
      101.700   5.44304e-06
      101.800   5.43783e-06
      101.900   5.43264e-06
      102.000   5.42755e-06
      102.100   5.42329e-06
      102.200   5.41941e-06
      102.300   5.41545e-06
      102.400   5.41144e-06
      102.500   5.40732e-06
      102.600   5.40308e-06
      102.700   5.39871e-06
      102.800   5.39421e-06
      102.900   5.38960e-06
      103.000   5.38485e-06
      103.100   5.38000e-06
      103.200   5.37508e-06
      103.300   5.37008e-06
      103.400   5.36502e-06
      103.500   5.35991e-06
      103.600   5.35479e-06
      103.700   5.34957e-06
      103.800   5.34307e-06
      103.900   5.33506e-06
      104.000   5.32695e-06
      104.100   5.31889e-06
      104.200   5.31143e-06
      104.300   5.30784e-06
      104.400   5.30432e-06
      104.500   5.30078e-06
      104.600   5.29710e-06
      104.700   5.29212e-06
      104.800   5.28652e-06
      104.900   5.28083e-06
      105.000   5.27509e-06
      105.100   5.27014e-06
      105.200   5.26732e-06
      105.300   5.26447e-06
      105.400   5.26152e-06
      105.500   5.25849e-06
      105.600   5.25592e-06
      105.700   5.25339e-06
      105.800   5.25080e-06
      105.900   5.24820e-06
      106.000   5.24635e-06
      106.100   5.24609e-06
      106.200   5.24591e-06
      106.300   5.24568e-06
      106.400   5.24537e-06
      106.500   5.24500e-06
      106.600   5.24457e-06
      106.700   5.24407e-06
      106.800   5.24350e-06
      106.900   5.24291e-06
      107.000   5.24226e-06
      107.100   5.24155e-06
      107.200   5.24081e-06
      107.300   5.24000e-06
      107.400   5.23904e-06
      107.500   5.23796e-06
      107.600   5.23681e-06
      107.700   5.23561e-06
      107.800   5.23440e-06
      107.900   5.23279e-06
      108.000   5.23114e-06
      108.100   5.22944e-06
      108.200   5.22765e-06
      108.300   5.22576e-06
      108.400   5.22337e-06
      108.500   5.22090e-06
      108.600   5.21836e-06
      108.700   5.21572e-06
      108.800   5.21169e-06
      108.900   5.20572e-06
      109.000   5.19964e-06
      109.100   5.19346e-06
      109.200   5.18722e-06
      109.300   5.18095e-06
      109.400   5.17463e-06
      109.500   5.16826e-06
      109.600   5.16186e-06
      109.700   5.15542e-06
      109.800   5.14894e-06
      109.900   5.14246e-06
      110.000   5.13596e-06
      110.100   5.12945e-06
      110.200   5.12290e-06
      110.300   5.11715e-06
      110.400   5.11146e-06
      110.500   5.10576e-06
      110.600   5.10001e-06
      110.700   5.09422e-06
      110.800   5.08838e-06
      110.900   5.08247e-06
      111.000   5.07649e-06
      111.100   5.07043e-06
      111.200   5.06438e-06
      111.300   5.05998e-06
      111.400   5.05553e-06
      111.500   5.05094e-06
      111.600   5.04626e-06
      111.700   5.04157e-06
      111.800   5.03791e-06
      111.900   5.03423e-06
      112.000   5.03047e-06
      112.100   5.02665e-06
      112.200   5.02277e-06
      112.300   5.01773e-06
      112.400   5.01262e-06
      112.500   5.00750e-06
      112.600   5.00237e-06
      112.700   4.99744e-06
      112.800   4.99362e-06
      112.900   4.98706e-06
      113.000   4.98143e-06
      113.100   4.97620e-06
      113.200   4.97039e-06
      113.300   4.96514e-06
      113.400   4.95350e-06
      113.500   4.94021e-06
      113.600   4.93235e-06
      113.700   4.92270e-06
      113.800   4.90920e-06
      113.900   4.90105e-06
      114.000   4.89278e-06
      114.100   4.88050e-06
      114.200   4.87010e-06
      114.300   4.86279e-06
      114.400   4.85457e-06
      114.500   4.84543e-06
      114.600   4.84038e-06
      114.700   4.83215e-06
      114.800   4.82600e-06
      114.900   4.82472e-06
      115.000   4.81985e-06
      115.100   4.81286e-06
      115.200   4.80559e-06
      115.300   4.80278e-06
      115.400   4.79566e-06
      115.500   4.79061e-06
      115.600   4.78371e-06
      115.700   4.77403e-06
      115.800   4.76795e-06
      115.900   4.75987e-06
      116.000   4.75491e-06
      116.100   4.75478e-06
      116.200   4.75418e-06
      116.300   4.75258e-06
      116.400   4.74928e-06
      116.500   4.74944e-06
      116.600   4.74840e-06
      116.700   4.74818e-06
      116.800   4.74684e-06
      116.900   4.74104e-06
      117.000   4.74015e-06
      117.100   4.75354e-06
      117.200   4.77707e-06
      117.300   4.79072e-06
      117.400   4.80373e-06
      117.500   4.81692e-06
      117.600   4.82426e-06
      117.700   4.82928e-06
      117.800   4.83118e-06
      117.900   4.83147e-06
      118.000   4.82874e-06
      118.100   4.82308e-06
      118.200   4.81963e-06
      118.300   4.81711e-06
      118.400   4.80310e-06
      118.500   4.78991e-06
      118.600   4.78191e-06
      118.700   4.77195e-06
      118.800   4.75934e-06
      118.900   4.74840e-06
      119.000   4.73109e-06
      119.100   4.70677e-06
      119.200   4.68960e-06
      119.300   4.67843e-06
      119.400   4.67014e-06
      119.500   4.66312e-06
      119.600   4.65184e-06
      119.700   4.63559e-06
      119.800   4.60947e-06
      119.900   4.57023e-06
      120.000   4.53509e-06
      120.100   4.50323e-06
      120.200   4.48754e-06
      120.300   4.48118e-06
      120.400   4.47463e-06
      120.500   4.45467e-06
      120.600   4.42442e-06
      120.700   4.39075e-06
      120.800   4.35909e-06
      120.900   4.34493e-06
      121.000   4.35829e-06
      121.100   4.36711e-06
      121.200   4.36239e-06
      121.300   4.34762e-06
      121.400   4.32511e-06
      121.500   4.29669e-06
      121.600   4.24567e-06
      121.700   4.20343e-06
      121.800   4.15306e-06
      121.900   4.10149e-06
      122.000   4.04433e-06
      122.100   3.99114e-06
      122.200   3.93855e-06
      122.300   3.90524e-06
      122.400   3.89292e-06
      122.500   3.88508e-06
      122.600   3.87449e-06
      122.700   3.86365e-06
      122.800   3.84790e-06
      122.900   3.83489e-06
      123.000   3.84696e-06
      123.100   3.90290e-06
      123.200   3.96213e-06
      123.300   4.04446e-06
      123.400   4.14623e-06
      123.500   4.27582e-06
      123.600   4.39071e-06
      123.700   4.46016e-06
      123.800   4.51682e-06
      123.900   4.58712e-06
      124.000   4.67953e-06
      124.100   4.84341e-06
      124.200   5.16015e-06
      124.300   5.62768e-06
      124.400   6.08318e-06
      124.500   6.23495e-06
      124.600   6.24490e-06
      124.700   6.23837e-06
      124.800   6.23347e-06
      124.900   6.22842e-06
      125.000   6.22316e-06
      125.100   6.21671e-06
      125.200   6.21011e-06
      125.300   6.20348e-06
      125.400   6.19683e-06
      125.500   6.19016e-06
      125.600   6.18345e-06
      125.700   6.17672e-06
      125.800   6.16992e-06
      125.900   6.16311e-06
      126.000   6.15625e-06
      126.100   6.14934e-06
      126.200   6.14236e-06
      126.300   6.13530e-06
      126.400   6.12815e-06
      126.500   6.12089e-06
      126.600   6.11355e-06
      126.700   6.10612e-06
      126.800   6.09861e-06
      126.900   6.09099e-06
      127.000   6.08313e-06
      127.100   6.07469e-06
      127.200   6.06595e-06
      127.300   6.05708e-06
      127.400   6.04814e-06
      127.500   6.03915e-06
      127.600   6.03013e-06
      127.700   6.02107e-06
      127.800   6.01196e-06
      127.900   6.00282e-06
      128.000   5.99366e-06
      128.100   5.98448e-06
      128.200   5.97527e-06
      128.300   5.96603e-06
      128.400   5.95677e-06
      128.500   5.94745e-06
      128.600   5.93807e-06
      128.700   5.92868e-06
      128.800   5.91922e-06
      128.900   5.90969e-06
      129.000   5.90011e-06
      129.100   5.89033e-06
      129.200   5.88011e-06
      129.300   5.86980e-06
      129.400   5.85943e-06
      129.500   5.84899e-06
      129.600   5.83849e-06
      129.700   5.82792e-06
      129.800   5.81728e-06
      129.900   5.80659e-06
      130.000   5.79587e-06
      130.100   5.78513e-06
      130.200   5.77434e-06
      130.300   5.76354e-06
      130.400   5.75274e-06
      130.500   5.74191e-06
      130.600   5.73107e-06
      130.700   5.72024e-06
      130.800   5.70943e-06
      130.900   5.69861e-06
      131.000   5.68778e-06
      131.100   5.67696e-06
      131.200   5.66608e-06
      131.300   5.65508e-06
      131.400   5.64406e-06
      131.500   5.63303e-06
      131.600   5.62196e-06
      131.700   5.61085e-06
      131.800   5.59970e-06
      131.900   5.58849e-06
      132.000   5.57722e-06
      132.100   5.56587e-06
      132.200   5.55447e-06
      132.300   5.54299e-06
      132.400   5.53143e-06
      132.500   5.51980e-06
      132.600   5.50808e-06
      132.700   5.49628e-06
      132.800   5.48441e-06
      132.900   5.47249e-06
      133.000   5.46051e-06
      133.100   5.44848e-06
      133.200   5.43640e-06
      133.300   5.42425e-06
      133.400   5.41204e-06
      133.500   5.39978e-06
      133.600   5.38750e-06
      133.700   5.37523e-06
      133.800   5.36295e-06
      133.900   5.35068e-06
      134.000   5.33842e-06
      134.100   5.32617e-06
      134.200   5.31392e-06
      134.300   5.30168e-06
      134.400   5.28947e-06
      134.500   5.27727e-06
      134.600   5.26508e-06
      134.700   5.25288e-06
      134.800   5.24069e-06
      134.900   5.22848e-06
      135.000   5.21627e-06
      135.100   5.20403e-06
      135.200   5.19178e-06
      135.300   5.17950e-06
      135.400   5.16718e-06
      135.500   5.15468e-06
      135.600   5.14203e-06
      135.700   5.12932e-06
      135.800   5.11657e-06
      135.900   5.10379e-06
      136.000   5.09096e-06
      136.100   5.07809e-06
      136.200   5.06520e-06
      136.300   5.05224e-06
      136.400   5.03925e-06
      136.500   5.02623e-06
      136.600   5.01318e-06
      136.700   5.00010e-06
      136.800   4.98701e-06
      136.900   4.97391e-06
      137.000   4.96077e-06
      137.100   4.94762e-06
      137.200   4.93446e-06
      137.300   4.92128e-06
      137.400   4.90811e-06
      137.500   4.89493e-06
      137.600   4.88174e-06
      137.700   4.86847e-06
      137.800   4.85515e-06
      137.900   4.84182e-06
      138.000   4.82849e-06
      138.100   4.81518e-06
      138.200   4.80189e-06
      138.300   4.78858e-06
      138.400   4.77529e-06
      138.500   4.76200e-06
      138.600   4.74872e-06
      138.700   4.73544e-06
      138.800   4.72217e-06
      138.900   4.70890e-06
      139.000   4.69564e-06
      139.100   4.68238e-06
      139.200   4.66913e-06
      139.300   4.65588e-06
      139.400   4.64263e-06
      139.500   4.62939e-06
      139.600   4.61614e-06
      139.700   4.60289e-06
      139.800   4.58965e-06
      139.900   4.57639e-06
      140.000   4.56308e-06
      140.100   4.54977e-06
      140.200   4.53644e-06
      140.300   4.52312e-06
      140.400   4.50980e-06
      140.500   4.49648e-06
      140.600   4.48314e-06
      140.700   4.46980e-06
      140.800   4.45646e-06
      140.900   4.44310e-06
      141.000   4.42971e-06
      141.100   4.41633e-06
      141.200   4.40295e-06
      141.300   4.38957e-06
      141.400   4.37617e-06
      141.500   4.36277e-06
      141.600   4.34936e-06
      141.700   4.33593e-06
      141.800   4.32252e-06
      141.900   4.30910e-06
      142.000   4.29569e-06
      142.100   4.28563e-06
      142.200   4.28516e-06
      142.300   4.29296e-06
      142.400   4.30070e-06
      142.500   4.30836e-06
      142.600   4.31596e-06
      142.700   4.32350e-06
      142.800   4.33098e-06
      142.900   4.33840e-06
      143.000   4.34576e-06
      143.100   4.35304e-06
      143.200   4.36028e-06
      143.300   4.36743e-06
      143.400   4.37452e-06
      143.500   4.38157e-06
      143.600   4.38855e-06
      143.700   4.39545e-06
      143.800   4.40230e-06
      143.900   4.40909e-06
      144.000   4.41579e-06
      144.100   4.42242e-06
      144.200   4.42897e-06
      144.300   4.43547e-06
      144.400   4.44285e-06
      144.500   4.46311e-06
      144.600   4.48752e-06
      144.700   4.51238e-06
      144.800   4.53720e-06
      144.900   4.56200e-06
      145.000   4.58680e-06
      145.100   4.61158e-06
      145.200   4.63635e-06
      145.300   4.66109e-06
      145.400   4.68582e-06
      145.500   4.71051e-06
      145.600   4.73516e-06
      145.700   4.75975e-06
      145.800   4.78434e-06
      145.900   4.80892e-06
      146.000   4.83346e-06
      146.100   4.85795e-06
      146.200   4.88241e-06
      146.300   4.90684e-06
      146.400   4.93120e-06
      146.500   4.95551e-06
      146.600   4.97980e-06
      146.700   5.00406e-06
      146.800   5.02796e-06
      146.900   5.05135e-06
      147.000   5.07467e-06
      147.100   5.09794e-06
      147.200   5.12117e-06
      147.300   5.14435e-06
      147.400   5.16747e-06
      147.500   5.19053e-06
      147.600   5.21352e-06
      147.700   5.23647e-06
      147.800   5.25936e-06
      147.900   5.28218e-06
      148.000   5.30493e-06
      148.100   5.32761e-06
      148.200   5.35024e-06
      148.300   5.37284e-06
      148.400   5.39539e-06
      148.500   5.41787e-06
      148.600   5.44030e-06
      148.700   5.46265e-06
      148.800   5.48492e-06
      148.900   5.50718e-06
      149.000   5.52939e-06
      149.100   5.55154e-06
      149.200   5.57359e-06
      149.300   5.59558e-06
      149.400   5.61750e-06
      149.500   5.63938e-06
      149.600   5.66119e-06
      149.700   5.68291e-06
      149.800   5.70458e-06
      149.900   5.72618e-06
      150.000   5.74773e-06
      150.100   5.76922e-06
      150.200   5.79059e-06
      150.300   5.81189e-06
      150.400   5.83312e-06
      150.500   5.85427e-06
      150.600   5.87531e-06
      150.700   5.89628e-06
      150.800   5.91713e-06
      150.900   5.93786e-06
      151.000   5.95847e-06
      151.100   5.97901e-06
      151.200   5.99941e-06
      151.300   6.01969e-06
      151.400   6.03986e-06
      151.500   6.05990e-06
      151.600   6.07996e-06
      151.700   6.10006e-06
      151.800   6.12006e-06
      151.900   6.13990e-06
      152.000   6.15959e-06
      152.100   6.17916e-06
      152.200   6.19866e-06
      152.300   6.21796e-06
      152.400   6.23715e-06
      152.500   6.25623e-06
      152.600   6.27519e-06
      152.700   6.29401e-06
      152.800   6.31271e-06
      152.900   6.33132e-06
      153.000   6.34985e-06
      153.100   6.36826e-06
      153.200   6.38657e-06
      153.300   6.40480e-06
      153.400   6.42293e-06
      153.500   6.44095e-06
      153.600   6.45890e-06
      153.700   6.47681e-06
      153.800   6.49460e-06
      153.900   6.51229e-06
      154.000   6.53141e-06
      154.100   6.55382e-06
      154.200   6.57728e-06
      154.300   6.60070e-06
      154.400   6.62407e-06
      154.500   6.64732e-06
      154.600   6.67049e-06
      154.700   6.69358e-06
      154.800   6.71659e-06
      154.900   6.73946e-06
      155.000   6.76222e-06
      155.100   6.78492e-06
      155.200   6.80744e-06
      155.300   6.82985e-06
      155.400   6.85213e-06
      155.500   6.87431e-06
      155.600   6.89629e-06
      155.700   6.91811e-06
      155.800   6.93982e-06
      155.900   6.96135e-06
      156.000   6.98271e-06
      156.100   7.00391e-06
      156.200   7.02494e-06
      156.300   7.04584e-06
      156.400   7.06653e-06
      156.500   7.08678e-06
      156.600   7.10526e-06
      156.700   7.12352e-06
      156.800   7.14159e-06
      156.900   7.15949e-06
      157.000   7.17729e-06
      157.100   7.19484e-06
      157.200   7.21226e-06
      157.300   7.22953e-06
      157.400   7.24666e-06
      157.500   7.26360e-06
      157.600   7.28039e-06
      157.700   7.29708e-06
      157.800   7.31359e-06
      157.900   7.32993e-06
      158.000   7.34616e-06
      158.100   7.36228e-06
      158.200   7.37822e-06
      158.300   7.39402e-06
      158.400   7.40971e-06
      158.500   7.42526e-06
      158.600   7.44064e-06
      158.700   7.45585e-06
      158.800   7.47100e-06
      158.900   7.48593e-06
      159.000   7.50071e-06
      159.100   7.51529e-06
      159.200   7.52973e-06
      159.300   7.54396e-06
      159.400   7.55803e-06
      159.500   7.57193e-06
      159.600   7.58567e-06
      159.700   7.59921e-06
      159.800   7.61256e-06
      159.900   7.62575e-06
      160.000   7.63871e-06
      160.100   7.65148e-06
      160.200   7.66403e-06
      160.300   7.67640e-06
      160.400   7.68859e-06
      160.500   7.70054e-06
      160.600   7.71230e-06
      160.700   7.72386e-06
      160.800   7.73520e-06
      160.900   7.74632e-06
      161.000   7.75723e-06
      161.100   7.76799e-06
      161.200   7.77851e-06
      161.300   7.78882e-06
      161.400   7.79893e-06
      161.500   7.80890e-06
      161.600   7.81859e-06
      161.700   7.82802e-06
      161.800   7.83728e-06
      161.900   7.84636e-06
      162.000   7.85521e-06
      162.100   7.86389e-06
      162.200   7.87242e-06
      162.300   7.88075e-06
      162.400   7.88890e-06
      162.500   7.89686e-06
      162.600   7.90468e-06
      162.700   7.91234e-06
      162.800   7.91978e-06
      162.900   7.92705e-06
      163.000   7.93416e-06
      163.100   7.94111e-06
      163.200   7.94784e-06
      163.300   7.95438e-06
      163.400   7.96076e-06
      163.500   7.96695e-06
      163.600   7.97292e-06
      163.700   7.97870e-06
      163.800   7.98434e-06
      163.900   7.98973e-06
      164.000   7.99490e-06
      164.100   7.99992e-06
      164.200   8.00469e-06
      164.300   8.00974e-06
      164.400   8.01459e-06
      164.500   8.01925e-06
      164.600   8.02372e-06
      164.700   8.02795e-06
      164.800   8.03197e-06
      164.900   8.03581e-06
      165.000   8.03946e-06
      165.100   8.04289e-06
      165.200   8.04612e-06
      165.300   8.04917e-06
      165.400   8.05207e-06
      165.500   8.05475e-06
      165.600   8.05724e-06
      165.700   8.05960e-06
      165.800   8.06177e-06
      165.900   8.06375e-06
      166.000   8.06559e-06
      166.100   8.06727e-06
      166.200   8.06883e-06
      166.300   8.07023e-06
      166.400   8.07144e-06
      166.500   8.07255e-06
      166.600   8.07353e-06
      166.700   8.07434e-06
      166.800   8.07494e-06
      166.900   8.07541e-06
      167.000   8.07584e-06
      167.100   8.07601e-06
      167.200   8.07603e-06
      167.300   8.07593e-06
      167.400   8.07570e-06
      167.500   8.07530e-06
      167.600   8.07476e-06
      167.700   8.07410e-06
      167.800   8.07327e-06
      167.900   8.07227e-06
      168.000   8.07112e-06
      168.100   8.06982e-06
      168.200   8.06832e-06
      168.300   8.06665e-06
      168.400   8.06481e-06
      168.500   8.06283e-06
      168.600   8.06061e-06
      168.700   8.05819e-06
      168.800   8.05559e-06
      168.900   8.05281e-06
      169.000   8.04984e-06
      169.100   8.04664e-06
      169.200   8.04326e-06
      169.300   8.03967e-06
      169.400   8.03585e-06
      169.500   8.03138e-06
      169.600   8.02466e-06
      169.700   8.01536e-06
      169.800   8.00520e-06
      169.900   7.99472e-06
      170.000   7.98396e-06
      170.100   7.97295e-06
      170.200   7.96167e-06
      170.300   1.45346e-05
      170.400   7.27454e-05
      170.500   0.000238202
      170.600   0.000501413
      170.700   0.000792683
      170.800   0.000964079
      170.900   0.000995631
      171.000   0.000988646
      171.100   0.000981599
      171.200   0.000974489
      171.300   0.000967313
      171.400   0.000960081
      171.500   0.000952795
      171.600   0.000945463
      171.700   0.000938099
      171.800   0.000930716
      171.900   0.000923329
      172.000   0.000915960
      172.100   0.000908617
      172.200   0.000901323
      172.300   0.000894069
      172.400   0.000886770
      172.500   0.000879515
      172.600   0.000872330
      172.700   0.000865221
      172.800   0.000858184
      172.900   0.000851221
      173.000   0.000844338
      173.100   0.000837533
      173.200   0.000830803
      173.300   0.000824152
      173.400   0.000817573
      173.500   0.000811071
      173.600   0.000804644
      173.700   0.000798286
      173.800   0.000791996
      173.900   0.000785776
      174.000   0.000779618
      174.100   0.000773520
      174.200   0.000767483
      174.300   0.000761503
      174.400   0.000755577
      174.500   0.000749702
      174.600   0.000743873
      174.700   0.000738094
      174.800   0.000732361
      174.900   0.000726670
      175.000   0.000721016
      175.100   0.000715398
      175.200   0.000709839
      175.300   0.000704310
      175.400   0.000698818
      175.500   0.000693366
      175.600   0.000687950
      175.700   0.000682573
      175.800   0.000677232
      175.900   0.000671929
      176.000   0.000666664
      176.100   0.000661437
      176.200   0.000656247
      176.300   0.000651091
      176.400   0.000645976
      176.500   0.000640894
      176.600   0.000635847
      176.700   0.000630834
      176.800   0.000625855
      176.900   0.000620911
      177.000   0.000615997
      177.100   0.000611114
      177.200   0.000606263
      177.300   0.000601441
      177.400   0.000596645
      177.500   0.000591875
      177.600   0.000587133
      177.700   0.000582417
      177.800   0.000577725
      177.900   0.000573051
      178.000   0.000568437
      178.100   0.000563849
      178.200   0.000559283
      178.300   0.000554740
      178.400   0.000550222
      178.500   0.000545727
      178.600   0.000541254
      178.700   0.000536804
      178.800   0.000532379
      178.900   0.000527979
      179.000   0.000523603
      179.100   0.000519250
      179.200   0.000514925
      179.300   0.000510627
      179.400   0.000506356
      179.500   0.000502115
      179.600   0.000497901
      179.700   0.000493719
      179.800   0.000489566
      179.900   0.000485444
      180.000   0.000481352
      180.100   0.000477294
      180.200   0.000473269
      180.300   0.000469277
      180.400   0.000465317
      180.500   0.000461392
      180.600   0.000457500
      180.700   0.000453643
      180.800   0.000449821
      180.900   0.000446033
      181.000   0.000442280
      181.100   0.000438561
      181.200   0.000434875
      181.300   0.000431221
      181.400   0.000427603
      181.500   0.000424016
      181.600   0.000420462
      181.700   0.000416940
      181.800   0.000413450
      181.900   0.000409992
      182.000   0.000406568
      182.100   0.000403173
      182.200   0.000399810
      182.300   0.000396478
      182.400   0.000393177
      182.500   0.000389906
      182.600   0.000386665
      182.700   0.000383454
      182.800   0.000380272
      182.900   0.000377120
      183.000   0.000373997
      183.100   0.000370903
      183.200   0.000367837
      183.300   0.000364799
      183.400   0.000361788
      183.500   0.000358806
      183.600   0.000355851
      183.700   0.000352923
      183.800   0.000350031
      183.900   0.000347167
      184.000   0.000344330
      184.100   0.000341517
      184.200   0.000338729
      184.300   0.000335963
      184.400   0.000333222
      184.500   0.000330504
      184.600   0.000327807
      184.700   0.000325132
      184.800   0.000322479
      184.900   0.000319847
      185.000   0.000317234
      185.100   0.000314641
      185.200   0.000312067
      185.300   0.000309513
      185.400   0.000306977
      185.500   0.000304459
      185.600   0.000301959
      185.700   0.000299474
      185.800   0.000297008
      185.900   0.000294559
      186.000   0.000292125
      186.100   0.000289707
      186.200   0.000287305
      186.300   0.000284918
      186.400   0.000282546
      186.500   0.000280189
      186.600   0.000277847
      186.700   0.000275518
      186.800   0.000273204
      186.900   0.000270903
      187.000   0.000268617
      187.100   0.000266345
      187.200   0.000264087
      187.300   0.000261844
      187.400   0.000259615
      187.500   0.000257400
      187.600   0.000255199
      187.700   0.000253012
      187.800   0.000250840
      187.900   0.000248681
      188.000   0.000246537
      188.100   0.000244407
      188.200   0.000242291
      188.300   0.000240188
      188.400   0.000238100
      188.500   0.000236027
      188.600   0.000233969
      188.700   0.000231924
      188.800   0.000229895
      188.900   0.000227881
      189.000   0.000225881
      189.100   0.000223896
      189.200   0.000221925
      189.300   0.000219970
      189.400   0.000218030
      189.500   0.000216105
      189.600   0.000214194
      189.700   0.000212299
      189.800   0.000210438
      189.900   0.000208593
      190.000   0.000206763
      190.100   0.000204949
      190.200   0.000203150
      190.300   0.000201366
      190.400   0.000199596
      190.500   0.000197842
      190.600   0.000196104
      190.700   0.000194380
      190.800   0.000192671
      190.900   0.000190977
      191.000   0.000189299
      191.100   0.000187636
      191.200   0.000185987
      191.300   0.000184353
      191.400   0.000182734
      191.500   0.000181129
      191.600   0.000179539
      191.700   0.000177963
      191.800   0.000176401
      191.900   0.000174853
      192.000   0.000173320
      192.100   0.000171800
      192.200   0.000170295
      192.300   0.000168804
      192.400   0.000167325
      192.500   0.000165860
      192.600   0.000164409
      192.700   0.000162970
      192.800   0.000161544
      192.900   0.000160127
      193.000   0.000158724
      193.100   0.000157333
      193.200   0.000155956
      193.300   0.000154591
      193.400   0.000153240
      193.500   0.000151901
      193.600   0.000150574
      193.700   0.000149259
      193.800   0.000147958
      193.900   0.000146669
      194.000   0.000145391
      194.100   0.000144127
      194.200   0.000142875
      194.300   0.000141635
      194.400   0.000140406
      194.500   0.000139190
      194.600   0.000137984
      194.700   0.000136791
      194.800   0.000135609
      194.900   0.000134438
      195.000   0.000133278
      195.100   0.000132129
      195.200   0.000130991
      195.300   0.000129863
      195.400   0.000128746
      195.500   0.000127638
      195.600   0.000126540
      195.700   0.000125452
      195.800   0.000124373
      195.900   0.000123302
      196.000   0.000122193
      196.100   0.000121092
      196.200   0.000120001
      196.300   0.000118919
      196.400   0.000117846
      196.500   0.000116781
      196.600   0.000115724
      196.700   0.000114676
      196.800   0.000113636
      196.900   0.000112604
      197.000   0.000111580
      197.100   0.000110563
      197.200   0.000109553
      197.300   0.000108550
      197.400   0.000107555
      197.500   0.000106566
      197.600   0.000105585
      197.700   0.000104610
      197.800   0.000103643
      197.900   0.000102681
      198.000   0.000101727
      198.100   0.000100780
      198.200   9.98386e-05
      198.300   9.89040e-05
      198.400   9.79766e-05
      198.500   9.70560e-05
      198.600   9.61421e-05
      198.700   9.52349e-05
      198.800   9.43344e-05
      198.900   9.34410e-05
      199.000   9.25541e-05
      199.100   9.16741e-05
      199.200   9.08011e-05
      199.300   8.99352e-05
      199.400   8.90764e-05
      199.500   8.82248e-05
      199.600   8.73799e-05
      199.700   8.65420e-05
      199.800   8.57111e-05
      199.900   8.48873e-05
      200.000   8.40703e-05
      200.100   8.32649e-05
      200.200   8.24621e-05
      200.300   8.16665e-05
      200.400   8.08778e-05
      200.500   8.00960e-05
      200.600   7.93211e-05
      200.700   7.85531e-05
      200.800   7.77915e-05
      200.900   7.70369e-05
      201.000   7.62892e-05
      201.100   7.55479e-05
      201.200   7.48131e-05
      201.300   7.40850e-05
      201.400   7.33637e-05
      201.500   7.26483e-05
      201.600   7.19395e-05
      201.700   7.12373e-05
      201.800   7.05409e-05
      201.900   6.98508e-05
      202.000   6.91675e-05
      202.100   6.84899e-05
      202.200   6.78188e-05
      202.300   6.71706e-05
      202.400   6.65588e-05
      202.500   6.59612e-05
      202.600   6.53683e-05
      202.700   6.47808e-05
      202.800   6.41985e-05
      202.900   6.36211e-05
      203.000   6.30490e-05
      203.100   6.24822e-05
      203.200   6.19202e-05
      203.300   6.13632e-05
      203.400   6.08114e-05
      203.500   6.02647e-05
      203.600   5.97231e-05
      203.700   5.91867e-05
      203.800   5.86554e-05
      203.900   5.81295e-05
      204.000   5.76085e-05
      204.100   5.70927e-05
      204.200   5.65822e-05
      204.300   5.60764e-05
      204.400   5.55759e-05
      204.500   5.50803e-05
      204.600   5.45896e-05
      204.700   5.41040e-05
      204.800   5.36236e-05
      204.900   5.31479e-05
      205.000   5.26771e-05
      205.100   5.22112e-05
      205.200   5.17498e-05
      205.300   5.12933e-05
      205.400   5.08413e-05
      205.500   5.03938e-05
      205.600   4.99581e-05
      205.700   4.95331e-05
      205.800   4.91130e-05
      205.900   4.86972e-05
      206.000   4.82855e-05
      206.100   4.78774e-05
      206.200   4.74731e-05
      206.300   4.70726e-05
      206.400   4.66759e-05
      206.500   4.62825e-05
      206.600   4.58927e-05
      206.700   4.55064e-05
      206.800   4.51233e-05
      206.900   4.47435e-05
      207.000   4.43671e-05
      207.100   4.39937e-05
      207.200   4.36236e-05
      207.300   4.32565e-05
      207.400   4.28923e-05
      207.500   4.25310e-05
      207.600   4.21727e-05
      207.700   4.18171e-05
      207.800   4.14643e-05
      207.900   4.11143e-05
      208.000   4.07670e-05
      208.100   4.04224e-05
      208.200   4.00805e-05
      208.300   3.97412e-05
      208.400   3.94044e-05
      208.500   3.90703e-05
      208.600   3.87387e-05
      208.700   3.84095e-05
      208.800   3.80828e-05
      208.900   3.77572e-05
      209.000   3.74296e-05
      209.100   3.71041e-05
      209.200   3.67812e-05
      209.300   3.64606e-05
      209.400   3.61427e-05
      209.500   3.58272e-05
      209.600   3.55142e-05
      209.700   3.52036e-05
      209.800   3.48956e-05
      209.900   3.45898e-05
      210.000   3.42865e-05
      210.100   3.39855e-05
      210.200   3.36869e-05
      210.300   3.33906e-05
      210.400   3.30966e-05
      210.500   3.28048e-05
      210.600   3.25153e-05
      210.700   3.22281e-05
      210.800   3.19430e-05
      210.900   3.16601e-05
      211.000   3.13793e-05
      211.100   3.11007e-05
      211.200   3.08242e-05
      211.300   3.05499e-05
      211.400   3.02777e-05
      211.500   3.00074e-05
      211.600   2.97393e-05
      211.700   2.94731e-05
      211.800   2.92088e-05
      211.900   2.89465e-05
      212.000   2.86863e-05
      212.100   2.84279e-05
      212.200   2.81714e-05
      212.300   2.79170e-05
      212.400   2.76645e-05
      212.500   2.74139e-05
      212.600   2.71652e-05
      212.700   2.69184e-05
      212.800   2.66734e-05
      212.900   2.64303e-05
      213.000   2.61890e-05
      213.100   2.59496e-05
      213.200   2.57121e-05
      213.300   2.54764e-05
      213.400   2.52426e-05
      213.500   2.50106e-05
      213.600   2.47804e-05
      213.700   2.45521e-05
      213.800   2.43256e-05
      213.900   2.41010e-05
      214.000   2.38783e-05
      214.100   2.36574e-05
      214.200   2.34384e-05
      214.300   2.32213e-05
      214.400   2.30060e-05
      214.500   2.27925e-05
      214.600   2.25810e-05
      214.700   2.23714e-05
      214.800   2.21636e-05
      214.900   2.19578e-05
      215.000   2.17537e-05
      215.100   2.15515e-05
      215.200   2.13512e-05
      215.300   2.11529e-05
      215.400   2.09564e-05
      215.500   2.07617e-05
      215.600   2.05690e-05
      215.700   2.03780e-05
      215.800   2.01888e-05
      215.900   2.00015e-05
      216.000   1.98160e-05
      216.100   1.96323e-05
      216.200   1.94504e-05
      216.300   1.92703e-05
      216.400   1.90919e-05
      216.500   1.89153e-05
      216.600   1.87405e-05
      216.700   1.85674e-05
      216.800   1.83960e-05
      216.900   1.82263e-05
      217.000   1.80583e-05
      217.100   1.78920e-05
      217.200   1.77273e-05
      217.300   1.75642e-05
      217.400   1.74027e-05
      217.500   1.72429e-05
      217.600   1.70846e-05
      217.700   1.69278e-05
      217.800   1.67726e-05
      217.900   1.66190e-05
      218.000   1.64669e-05
      218.100   1.63162e-05
      218.200   1.61670e-05
      218.300   1.60193e-05
      218.400   1.58730e-05
      218.500   1.57281e-05
      218.600   1.55846e-05
      218.700   1.54425e-05
      218.800   1.53018e-05
      218.900   1.51624e-05
      219.000   1.50244e-05
      219.100   1.48876e-05
      219.200   1.47522e-05
      219.300   1.46180e-05
      219.400   1.44851e-05
      219.500   1.43534e-05
      219.600   1.42230e-05
      219.700   1.40938e-05
      219.800   1.39659e-05
      219.900   1.38392e-05
      220.000   1.37136e-05
      220.100   1.35892e-05
      220.200   1.34659e-05
      220.300   1.33438e-05
      220.400   1.32229e-05
      220.500   1.31031e-05
      220.600   1.29844e-05
      220.700   1.28667e-05
      220.800   1.27501e-05
      220.900   1.26347e-05
      221.000   1.25203e-05
      221.100   1.24069e-05
      221.200   1.22946e-05
      221.300   1.21833e-05
      221.400   1.20730e-05
      221.500   1.19637e-05
      221.600   1.18554e-05
      221.700   1.17481e-05
      221.800   1.16417e-05
      221.900   1.15363e-05
      222.000   1.14318e-05
      222.100   1.13283e-05
      222.200   1.12257e-05
      222.300   1.11239e-05
      222.400   1.10231e-05
      222.500   1.09231e-05
      222.600   1.08241e-05
      222.700   1.07259e-05
      222.800   1.06285e-05
      222.900   1.05319e-05
      223.000   1.04361e-05
      223.100   1.03412e-05
      223.200   1.02471e-05
      223.300   1.01537e-05
      223.400   1.00612e-05
      223.500   9.96944e-06
      223.600   9.87850e-06
      223.700   9.78828e-06
      223.800   9.69881e-06
      223.900   9.61016e-06
      224.000   9.52219e-06
      224.100   9.43495e-06
      224.200   9.34842e-06
      224.300   9.26264e-06
      224.400   9.17753e-06
      224.500   9.09315e-06
      224.600   9.00941e-06
      224.700   8.92643e-06
      224.800   8.84409e-06
      224.900   8.76241e-06
      225.000   8.68140e-06
      225.100   8.60104e-06
      225.200   8.52132e-06
      225.300   8.44229e-06
      225.400   8.36386e-06
      225.500   8.28605e-06
      225.600   8.20889e-06
      225.700   8.13236e-06
      225.800   8.05642e-06
      225.900   7.98110e-06
      226.000   7.90642e-06
      226.100   7.83232e-06
      226.200   7.75888e-06
      226.300   7.68652e-06
      226.400   7.61520e-06
      226.500   7.54435e-06
      226.600   7.47390e-06
      226.700   7.40394e-06
      226.800   7.33444e-06
      226.900   7.26546e-06
      227.000   7.19703e-06
      227.100   7.12913e-06
      227.200   7.06181e-06
      227.300   6.99505e-06
      227.400   6.92884e-06
      227.500   6.86318e-06
      227.600   6.79806e-06
      227.700   6.73350e-06
      227.800   6.66948e-06
      227.900   6.60601e-06
      228.000   6.54307e-06
      228.100   6.48067e-06
      228.200   6.41879e-06
      228.300   6.35746e-06
      228.400   6.29667e-06
      228.500   6.23640e-06
      228.600   6.17666e-06
      228.700   6.11744e-06
      228.800   6.05874e-06
      228.900   6.00060e-06
      229.000   5.94296e-06
      229.100   5.88584e-06
      229.200   5.82923e-06
      229.300   5.77314e-06
      229.400   5.71758e-06
      229.500   5.66252e-06
      229.600   5.60797e-06
      229.700   5.55393e-06
      229.800   5.50039e-06
      229.900   5.44736e-06
      230.000   5.39474e-06
      230.100   5.34209e-06
      230.200   5.28993e-06
      230.300   5.23830e-06
      230.400   5.18715e-06
      230.500   5.13650e-06
      230.600   5.08634e-06
      230.700   5.03666e-06
      230.800   4.98748e-06
      230.900   4.93878e-06
      231.000   4.89055e-06
      231.100   4.84280e-06
      231.200   4.79551e-06
      231.300   4.74871e-06
      231.400   4.70238e-06
      231.500   4.65648e-06
      231.600   4.61103e-06
      231.700   4.56604e-06
      231.800   4.52151e-06
      231.900   4.47741e-06
      232.000   4.43375e-06
      232.100   4.39052e-06
      232.200   4.34773e-06
      232.300   4.30536e-06
      232.400   4.26341e-06
      232.500   4.22186e-06
      232.600   4.18074e-06
      232.700   4.14003e-06
      232.800   4.09972e-06
      232.900   4.05980e-06
      233.000   4.02028e-06
      233.100   3.98117e-06
      233.200   3.94242e-06
      233.300   3.90407e-06
      233.400   3.86610e-06
      233.500   3.82849e-06
      233.600   3.79127e-06
      233.700   3.75440e-06
      233.800   3.71427e-06
      233.900   3.67410e-06
      234.000   3.63434e-06
      234.100   3.59502e-06
      234.200   3.55614e-06
      234.300   3.51767e-06
      234.400   3.47962e-06
      234.500   3.44199e-06
      234.600   3.40475e-06
      234.700   3.36793e-06
      234.800   3.33151e-06
      234.900   3.29548e-06
      235.000   3.25983e-06
      235.100   3.22458e-06
      235.200   3.18971e-06
      235.300   3.15521e-06
      235.400   3.12109e-06
      235.500   3.08734e-06
      235.600   3.05397e-06
      235.700   3.02095e-06
      235.800   2.98830e-06
      235.900   2.95600e-06
      236.000   2.92406e-06
      236.100   2.89245e-06
      236.200   2.86119e-06
      236.300   2.83027e-06
      236.400   2.79970e-06
      236.500   2.76945e-06
      236.600   2.73952e-06
      236.700   2.70992e-06
      236.800   2.68064e-06
      236.900   2.65168e-06
      237.000   2.62303e-06
      237.100   2.59469e-06
      237.200   2.56665e-06
      237.300   2.53892e-06
      237.400   2.51149e-06
      237.500   2.48434e-06
      237.600   2.45746e-06
      237.700   2.43087e-06
      237.800   2.40457e-06
      237.900   2.37855e-06
      238.000   2.35281e-06
      238.100   2.32734e-06
      238.200   2.30214e-06
      238.300   2.27720e-06
      238.400   2.25253e-06
      238.500   2.22811e-06
      238.600   2.20395e-06
      238.700   2.18005e-06
      238.800   2.15640e-06
      238.900   2.13299e-06
      239.000   2.10982e-06
      239.100   2.08689e-06
      239.200   2.06421e-06
      239.300   2.04175e-06
      239.400   2.01953e-06
      239.500   1.99755e-06
      239.600   1.97578e-06
      239.700   1.95424e-06
      239.800   1.93292e-06
      239.900   1.91182e-06
      240.000   1.89093e-06
      240.100   1.87024e-06
      240.200   1.84977e-06
      240.300   1.82950e-06
      240.400   1.80944e-06
      240.500   1.78958e-06
      240.600   1.76993e-06
      240.700   1.75047e-06
      240.800   1.73121e-06
      240.900   1.71214e-06
      241.000   1.69327e-06
      241.100   1.67458e-06
      241.200   1.65609e-06
      241.300   1.63777e-06
      241.400   1.61965e-06
      241.500   1.60170e-06
      241.600   1.58393e-06
      241.700   1.56634e-06
      241.800   1.54893e-06
      241.900   1.53169e-06
      242.000   1.51463e-06
      242.100   1.49775e-06
      242.200   1.48104e-06
      242.300   1.46450e-06
      242.400   1.44813e-06
      242.500   1.43193e-06
      242.600   1.41589e-06
      242.700   1.40001e-06
      242.800   1.38430e-06
      242.900   1.36876e-06
      243.000   1.35337e-06
      243.100   1.33814e-06
      243.200   1.32307e-06
      243.300   1.30815e-06
      243.400   1.29340e-06
      243.500   1.27879e-06
      243.600   1.26435e-06
      243.700   1.25005e-06
      243.800   1.23591e-06
      243.900   1.22192e-06
      244.000   1.20807e-06
      244.100   1.19437e-06
      244.200   1.18081e-06
      244.300   1.16740e-06
      244.400   1.15413e-06
      244.500   1.14100e-06
      244.600   1.12802e-06
      244.700   1.11517e-06
      244.800   1.10247e-06
      244.900   1.08990e-06
      245.000   1.07746e-06
      245.100   1.06516e-06
      245.200   1.05300e-06
      245.300   1.04096e-06
      245.400   1.02905e-06
      245.500   1.01728e-06
      245.600   1.00563e-06
      245.700   9.94106e-07
      245.800   9.82705e-07
      245.900   9.71435e-07
      246.000   9.60293e-07
      246.100   9.49268e-07
      246.200   9.38365e-07
      246.300   9.27579e-07
      246.400   9.16915e-07
      246.500   9.06365e-07
      246.600   8.95931e-07
      246.700   8.85615e-07
      246.800   8.75406e-07
      246.900   8.65311e-07
      247.000   8.55333e-07
      247.100   8.45464e-07
      247.200   8.35706e-07
      247.300   8.26057e-07
      247.400   8.16513e-07
      247.500   8.07074e-07
      247.600   7.97741e-07
      247.700   7.88511e-07
      247.800   7.79383e-07
      247.900   7.70356e-07
      248.000   7.61431e-07
      248.100   7.52616e-07
      248.200   7.43896e-07
      248.300   7.35273e-07
      248.400   7.26747e-07
      248.500   7.18315e-07
      248.600   7.09978e-07
      248.700   7.01737e-07
      248.800   6.93588e-07
      248.900   6.85533e-07
      249.000   6.77569e-07
      249.100   6.69697e-07
      249.200   6.61919e-07
      249.300   6.54227e-07
      249.400   6.46624e-07
      249.500   6.39108e-07
      249.600   6.31677e-07
      249.700   6.24331e-07
      249.800   6.17069e-07
      249.900   6.09891e-07
      250.000   6.02797e-07
      250.100   5.95789e-07
      250.200   5.88858e-07
      250.300   5.82013e-07
      250.400   5.75246e-07
      250.500   5.68558e-07
      250.600   5.61949e-07
      250.700   5.55416e-07
      250.800   5.48958e-07
      250.900   5.42576e-07
      251.000   5.36269e-07
      251.100   5.30035e-07
      251.200   5.23876e-07
      251.300   5.17792e-07
      251.400   5.11779e-07
      251.500   5.05835e-07
      251.600   4.99961e-07
      251.700   4.94159e-07
      251.800   4.88423e-07
      251.900   4.82754e-07
      252.000   4.77151e-07
      252.100   4.71617e-07
      252.200   4.66143e-07
      252.300   4.60739e-07
      252.400   4.55396e-07
      252.500   4.50119e-07
      252.600   4.44901e-07
      252.700   4.39745e-07
      252.800   4.34650e-07
      252.900   4.29614e-07
      253.000   4.24636e-07
      253.100   4.19718e-07
      253.200   4.14857e-07
      253.300   4.10233e-07
      253.400   4.05738e-07
      253.500   4.01298e-07
      253.600   3.96908e-07
      253.700   3.92565e-07
      253.800   3.88272e-07
      253.900   3.84026e-07
      254.000   3.79825e-07
      254.100   3.75670e-07
      254.200   3.71560e-07
      254.300   3.67496e-07
      254.400   3.63475e-07
      254.500   3.59498e-07
      254.600   3.55564e-07
      254.700   3.51674e-07
      254.800   3.47826e-07
      254.900   3.44020e-07
      255.000   3.40255e-07
      255.100   3.36529e-07
      255.200   3.32843e-07
      255.300   3.29197e-07
      255.400   3.25590e-07
      255.500   3.22023e-07
      255.600   3.18493e-07
      255.700   3.15001e-07
      255.800   3.11546e-07
      255.900   3.08127e-07
      256.000   3.04745e-07
      256.100   3.01399e-07
      256.200   2.98089e-07
      256.300   2.94813e-07
      256.400   2.91575e-07
      256.500   2.88368e-07
      256.600   2.85197e-07
      256.700   2.82059e-07
      256.800   2.78954e-07
      256.900   2.75881e-07
      257.000   2.72841e-07
      257.100   2.69833e-07
      257.200   2.66858e-07
      257.300   2.63913e-07
      257.400   2.61074e-07
      257.500   2.58290e-07
      257.600   2.55537e-07
      257.700   2.52812e-07
      257.800   2.50114e-07
      257.900   2.47445e-07
      258.000   2.44803e-07
      258.100   2.42187e-07
      258.200   2.39598e-07
      258.300   2.37037e-07
      258.400   2.34500e-07
      258.500   2.31988e-07
      258.600   2.29504e-07
      258.700   2.27044e-07
      258.800   2.24609e-07
      258.900   2.22201e-07
      259.000   2.19815e-07
      259.100   2.17455e-07
      259.200   2.15118e-07
      259.300   2.12806e-07
      259.400   2.10517e-07
      259.500   2.08252e-07
      259.600   2.06010e-07
      259.700   2.03792e-07
      259.800   2.01595e-07
      259.900   1.99421e-07
      260.000   1.97269e-07
      260.100   1.95140e-07
      260.200   1.93032e-07
      260.300   1.90946e-07
      260.400   1.88882e-07
      260.500   1.86839e-07
      260.600   1.84816e-07
      260.700   1.82814e-07
      260.800   1.80834e-07
      260.900   1.78873e-07
      261.000   1.76933e-07
      261.100   1.75013e-07
      261.200   1.73113e-07
      261.300   1.71231e-07
      261.400   1.69371e-07
      261.500   1.67537e-07
      261.600   1.65748e-07
      261.700   1.63981e-07
      261.800   1.62233e-07
      261.900   1.60501e-07
      262.000   1.58787e-07
      262.100   1.57091e-07
      262.200   1.55412e-07
      262.300   1.53750e-07
      262.400   1.52104e-07
      262.500   1.50475e-07
      262.600   1.48862e-07
      262.700   1.47266e-07
      262.800   1.45686e-07
      262.900   1.44121e-07
      263.000   1.42574e-07
      263.100   1.41041e-07
      263.200   1.39524e-07
      263.300   1.38022e-07
      263.400   1.36535e-07
      263.500   1.35064e-07
      263.600   1.33608e-07
      263.700   1.32166e-07
      263.800   1.30739e-07
      263.900   1.29327e-07
      264.000   1.27929e-07
      264.100   1.26545e-07
      264.200   1.25175e-07
      264.300   1.23820e-07
      264.400   1.22478e-07
      264.500   1.21150e-07
      264.600   1.19835e-07
      264.700   1.18534e-07
      264.800   1.17246e-07
      264.900   1.15972e-07
      265.000   1.14711e-07
      265.100   1.13462e-07
      265.200   1.12226e-07
      265.300   1.11003e-07
      265.400   1.09793e-07
      265.500   1.08595e-07
      265.600   1.07411e-07
      265.700   1.06237e-07
      265.800   1.05079e-07
      265.900   1.03932e-07
      266.000   1.02798e-07
      266.100   1.01675e-07
      266.200   1.00565e-07
      266.300   9.94653e-08
      266.400   9.83779e-08
      266.500   9.73012e-08
      266.600   9.62363e-08
      266.700   9.51823e-08
      266.800   9.41400e-08
      266.900   9.31084e-08
      267.000   9.20873e-08
      267.100   9.10771e-08
      267.200   9.00784e-08
      267.300   8.90899e-08
      267.400   8.81114e-08
      267.500   8.71437e-08
      267.600   8.61863e-08
      267.700   8.52390e-08
      267.800   8.43015e-08
      267.900   8.33744e-08
      268.000   8.24572e-08
      268.100   8.15499e-08
      268.200   8.06524e-08
      268.300   7.97649e-08
      268.400   7.88863e-08
      268.500   7.80173e-08
      268.600   7.71575e-08
      268.700   7.63074e-08
      268.800   7.54662e-08
      268.900   7.46344e-08
      269.000   7.38117e-08
      269.100   7.29976e-08
      269.200   7.21927e-08
      269.300   7.13965e-08
      269.400   7.06084e-08
      269.500   6.98291e-08
      269.600   6.90586e-08
      269.700   6.82965e-08
      269.800   6.75427e-08
      269.900   6.67969e-08
      270.000   6.60596e-08
      270.100   6.53321e-08
      270.200   6.46135e-08
      270.300   6.39027e-08
      270.400   6.31994e-08
      270.500   6.25041e-08
      270.600   6.18161e-08
      270.700   6.11358e-08
      270.800   6.04631e-08
      270.900   5.97973e-08
      271.000   5.91392e-08
      271.100   5.84882e-08
      271.200   5.78441e-08
      271.300   5.72073e-08
      271.400   5.65773e-08
      271.500   5.59544e-08
      271.600   5.53380e-08
      271.700   5.47285e-08
      271.800   5.41258e-08
      271.900   5.35296e-08
      272.000   5.29401e-08
      272.100   5.23568e-08
      272.200   5.17801e-08
      272.300   5.12094e-08
      272.400   5.06450e-08
      272.500   5.00870e-08
      272.600   4.95349e-08
      272.700   4.89889e-08
      272.800   4.84488e-08
      272.900   4.79148e-08
      273.000   4.73867e-08
      273.100   4.68641e-08
      273.200   4.63472e-08
      273.300   4.58362e-08
      273.400   4.53306e-08
      273.500   4.48306e-08
      273.600   4.43360e-08
      273.700   4.38467e-08
      273.800   4.33628e-08
      273.900   4.28844e-08
      274.000   4.24111e-08
      274.100   4.19429e-08
      274.200   4.14798e-08
      274.300   4.10217e-08
      274.400   4.05544e-08
      274.500   4.00617e-08
      274.600   3.95682e-08
      274.700   3.90807e-08
      274.800   3.85989e-08
      274.900   3.81229e-08
      275.000   3.76527e-08
      275.100   3.71881e-08
      275.200   3.67292e-08
      275.300   3.62757e-08
      275.400   3.58278e-08
      275.500   3.53853e-08
      275.600   3.49479e-08
      275.700   3.45159e-08
      275.800   3.40893e-08
      275.900   3.36677e-08
      276.000   3.32512e-08
      276.100   3.28396e-08
      276.200   3.24330e-08
      276.300   3.20312e-08
      276.400   3.16344e-08
      276.500   3.12421e-08
      276.600   3.08548e-08
      276.700   3.04721e-08
      276.800   3.00940e-08
      276.900   2.97205e-08
      277.000   2.93514e-08
      277.100   2.89867e-08
      277.200   2.86264e-08
      277.300   2.82706e-08
      277.400   2.79190e-08
      277.500   2.75715e-08
      277.600   2.72284e-08
      277.700   2.68893e-08
      277.800   2.65543e-08
      277.900   2.62233e-08
      278.000   2.58964e-08
      278.100   2.55735e-08
      278.200   2.52543e-08
      278.300   2.49391e-08
      278.400   2.46278e-08
      278.500   2.43200e-08
      278.600   2.40159e-08
      278.700   2.37157e-08
      278.800   2.34190e-08
      278.900   2.31236e-08
      279.000   2.28311e-08
      279.100   2.25423e-08
      279.200   2.22568e-08
      279.300   2.19750e-08
      279.400   2.16964e-08
      279.500   2.14214e-08
      279.600   2.11497e-08
      279.700   2.08814e-08
      279.800   2.06163e-08
      279.900   2.03544e-08
      280.000   2.00957e-08
      280.100   1.98402e-08
      280.200   1.95879e-08
      280.300   1.93386e-08
      280.400   1.90923e-08
      280.500   1.88492e-08
      280.600   1.86090e-08
      280.700   1.83718e-08
      280.800   1.81374e-08
      280.900   1.79060e-08
      281.000   1.76773e-08
      281.100   1.74515e-08
      281.200   1.72284e-08
      281.300   1.70081e-08
      281.400   1.67905e-08
      281.500   1.65756e-08
      281.600   1.63632e-08
      281.700   1.61535e-08
      281.800   1.59465e-08
      281.900   1.57420e-08
      282.000   1.55399e-08
      282.100   1.53403e-08
      282.200   1.51434e-08
      282.300   1.49488e-08
      282.400   1.47565e-08
      282.500   1.45666e-08
      282.600   1.43792e-08
      282.700   1.41939e-08
      282.800   1.40110e-08
      282.900   1.38304e-08
      283.000   1.36520e-08
      283.100   1.34759e-08
      283.200   1.33019e-08
      283.300   1.31301e-08
      283.400   1.29604e-08
      283.500   1.27929e-08
      283.600   1.26273e-08
      283.700   1.24638e-08
      283.800   1.23024e-08
      283.900   1.21430e-08
      284.000   1.19856e-08
      284.100   1.18301e-08
      284.200   1.16766e-08
      284.300   1.15250e-08
      284.400   1.13752e-08
      284.500   1.12274e-08
      284.600   1.10814e-08
      284.700   1.09372e-08
      284.800   1.07949e-08
      284.900   1.06543e-08
      285.000   1.05154e-08
      285.100   1.03783e-08
      285.200   1.02429e-08
      285.300   1.01092e-08
      285.400   9.97720e-09
      285.500   9.84684e-09
      285.600   9.71818e-09
      285.700   9.59107e-09
      285.800   9.46563e-09
      285.900   9.34170e-09
      286.000   9.21937e-09
      286.100   9.09864e-09
      286.200   8.97933e-09
      286.300   8.86161e-09
      286.400   8.74539e-09
      286.500   8.63059e-09
      286.600   8.51726e-09
      286.700   8.40534e-09
      286.800   8.29486e-09
      286.900   8.18576e-09
      287.000   8.07806e-09
      287.100   7.97172e-09
      287.200   7.86676e-09
      287.300   7.76311e-09
      287.400   7.66076e-09
      287.500   7.55972e-09
      287.600   7.45999e-09
      287.700   7.36149e-09
      287.800   7.26428e-09
      287.900   7.16832e-09
      288.000   7.07361e-09
      288.100   6.98006e-09
      288.200   6.88778e-09
      288.300   6.79669e-09
      288.400   6.70671e-09
      288.500   6.61795e-09
      288.600   6.53024e-09
      288.700   6.44371e-09
      288.800   6.35827e-09
      288.900   6.27398e-09
      289.000   6.19073e-09
      289.100   6.10854e-09
      289.200   6.02744e-09
      289.300   5.94737e-09
      289.400   5.86831e-09
      289.500   5.79030e-09
      289.600   5.71327e-09
      289.700   5.63729e-09
      289.800   5.56223e-09
      289.900   5.48814e-09
      290.000   5.41504e-09
      290.100   5.34286e-09
      290.200   5.27166e-09
      290.300   5.20137e-09
      290.400   5.13199e-09
      290.500   5.06353e-09
      290.600   4.99593e-09
      290.700   4.92922e-09
      290.800   4.86341e-09
      290.900   4.79842e-09
      291.000   4.73425e-09
      291.100   4.67092e-09
      291.200   4.60843e-09
      291.300   4.54675e-09
      291.400   4.48588e-09
      291.500   4.42580e-09
      291.600   4.36649e-09
      291.700   4.30799e-09
      291.800   4.25023e-09
      291.900   4.19325e-09
      292.000   4.13702e-09
      292.100   4.08150e-09
      292.200   4.02675e-09
      292.300   3.97267e-09
      292.400   3.91931e-09
      292.500   3.86663e-09
      292.600   3.81465e-09
      292.700   3.76336e-09
      292.800   3.71275e-09
      292.900   3.66280e-09
      293.000   3.61351e-09
      293.100   3.56484e-09
      293.200   3.51682e-09
      293.300   3.46943e-09
      293.400   3.42269e-09
      293.500   3.37655e-09
      293.600   3.33102e-09
      293.700   3.28608e-09
      293.800   3.24174e-09
      293.900   3.19800e-09
      294.000   3.15481e-09
      294.100   3.11220e-09
      294.200   3.07016e-09
      294.300   3.02868e-09
      294.400   2.98771e-09
      294.500   2.94730e-09
      294.600   2.90741e-09
      294.700   2.86806e-09
      294.800   2.82923e-09
      294.900   2.79091e-09
      295.000   2.75310e-09
      295.100   2.71581e-09
      295.200   2.67900e-09
      295.300   2.64267e-09
      295.400   2.60683e-09
      295.500   2.57147e-09
      295.600   2.53657e-09
      295.700   2.50213e-09
      295.800   2.46815e-09
      295.900   2.43460e-09
      296.000   2.40151e-09
      296.100   2.36884e-09
      296.200   2.33663e-09
      296.300   2.30483e-09
      296.400   2.27349e-09
      296.500   2.24254e-09
      296.600   2.21201e-09
      296.700   2.18188e-09
      296.800   2.15215e-09
      296.900   2.12281e-09
      297.000   2.09387e-09
      297.100   2.06531e-09
      297.200   2.03713e-09
      297.300   2.00931e-09
      297.400   1.98187e-09
      297.500   1.95479e-09
      297.600   1.92808e-09
      297.700   1.90172e-09
      297.800   1.87572e-09
      297.900   1.85007e-09
      298.000   1.82476e-09
      298.100   1.79979e-09
      298.200   1.77514e-09
      298.300   1.75084e-09
      298.400   1.72685e-09
      298.500   1.70317e-09
      298.600   1.67981e-09
      298.700   1.65677e-09
      298.800   1.63402e-09
      298.900   1.61160e-09
      299.000   1.58949e-09
      299.100   1.56766e-09
      299.200   1.54612e-09
      299.300   1.52488e-09
      299.400   1.50391e-09
      299.500   1.48323e-09
      299.600   1.46282e-09
      299.700   1.44269e-09
      299.800   1.42281e-09
      299.900   1.40322e-09
      300.000   1.38388e-09
      300.100   1.36480e-09
      300.192   1.34748e-09
      300.285   1.33019e-09
      300.377   1.31329e-09
      300.470   1.29643e-09
      300.562   1.27996e-09
      300.654   1.26369e-09
      300.747   1.24744e-09
      300.839   1.23158e-09
      300.932   1.21573e-09
      301.025   1.20008e-09
      301.117   1.18480e-09
      301.210   1.16954e-09
      301.303   1.15448e-09
      301.395   1.13977e-09
      301.488   1.12507e-09
      301.581   1.11057e-09
      301.674   1.09624e-09
      301.766   1.08225e-09
      301.859   1.06828e-09
      301.952   1.05449e-09
      302.045   1.04086e-09
      302.138   1.02743e-09
      302.231   1.01422e-09
      302.324   1.00117e-09
      302.417   9.88287e-10
      302.510   9.75556e-10
      302.603   9.63002e-10
      302.696   9.50593e-10
      302.789   9.38338e-10
      302.882   9.26235e-10
      302.976   9.14166e-10
      303.069   9.02370e-10
      303.162   8.90725e-10
      303.255   8.79218e-10
      303.349   8.67740e-10
      303.442   8.56519e-10
      303.535   8.45452e-10
      303.629   8.34404e-10
      303.722   8.23611e-10
      303.816   8.12838e-10
      303.909   8.02313e-10
      304.003   7.91812e-10
      304.096   7.81548e-10
      304.190   7.71307e-10
      304.283   7.61304e-10
      304.377   7.51328e-10
      304.471   7.41470e-10
      304.564   7.31843e-10
      304.658   7.22242e-10
      304.752   7.12750e-10
      304.846   7.03390e-10
      304.939   6.94243e-10
      305.033   6.85114e-10
      305.127   6.76103e-10
      305.221   6.67207e-10
      305.315   6.58426e-10
      305.409   6.49755e-10
      305.503   6.41196e-10
      305.597   6.32748e-10
      305.691   6.24405e-10
      305.785   6.16167e-10
      305.879   6.08035e-10
      305.973   6.00012e-10
      306.067   5.92085e-10
      306.161   5.84266e-10
      306.255   5.76544e-10
      306.350   5.68840e-10
      306.444   5.61316e-10
      306.538   5.53887e-10
      306.633   5.46481e-10
      306.727   5.39242e-10
      306.821   5.32097e-10
      306.916   5.24970e-10
      307.010   5.18014e-10
      307.105   5.11078e-10
      307.199   5.04305e-10
      307.294   4.97546e-10
      307.388   4.90947e-10
      307.483   4.84365e-10
      307.577   4.77936e-10
      307.672   4.71522e-10
      307.767   4.65193e-10
      307.861   4.59012e-10
      307.956   4.52843e-10
      308.051   4.46755e-10
      308.146   4.40750e-10
      308.240   4.34885e-10
      308.335   4.29034e-10
      308.430   4.23256e-10
      308.525   4.17555e-10
      308.620   4.11931e-10
      308.715   4.06379e-10
      308.810   4.00901e-10
      308.905   3.95493e-10
      309.000   3.90158e-10
      309.095   3.84892e-10
      309.190   3.79698e-10
      309.285   3.74568e-10
      309.380   3.69507e-10
      309.476   3.64463e-10
      309.571   3.59534e-10
      309.666   3.54669e-10
      309.761   3.49871e-10
      309.857   3.45086e-10
      309.952   3.40412e-10
      310.047   3.35803e-10
      310.143   3.31205e-10
      310.238   3.26716e-10
      310.334   3.22240e-10
      310.429   3.17867e-10
      310.525   3.13510e-10
      310.620   3.09254e-10
      310.716   3.05010e-10
      310.811   3.00868e-10
      310.907   2.96738e-10
      311.003   2.92664e-10
      311.098   2.88684e-10
      311.194   2.84716e-10
      311.290   2.80802e-10
      311.386   2.76941e-10
      311.481   2.73170e-10
      311.577   2.69412e-10
      311.673   2.65703e-10
      311.769   2.62044e-10
      311.865   2.58436e-10
      311.961   2.54896e-10
      312.057   2.51491e-10
      312.153   2.48159e-10
      312.249   2.44870e-10
      312.345   2.41624e-10
      312.441   2.38419e-10
      312.537   2.35256e-10
      312.633   2.32136e-10
      312.730   2.29021e-10
      312.826   2.25981e-10
      312.922   2.22981e-10
      313.018   2.20019e-10
      313.115   2.17066e-10
      313.211   2.14180e-10
      313.307   2.11332e-10
      313.404   2.08493e-10
      313.500   2.05719e-10
      313.597   2.02955e-10
      313.693   2.00254e-10
      313.790   1.97561e-10
      313.886   1.94930e-10
      313.983   1.92306e-10
      314.079   1.89743e-10
      314.176   1.87189e-10
      314.273   1.84667e-10
      314.369   1.82206e-10
      314.466   1.79751e-10
      314.563   1.77328e-10
      314.660   1.74938e-10
      314.756   1.72602e-10
      314.853   1.70274e-10
      314.950   1.67976e-10
      315.047   1.65709e-10
      315.144   1.63472e-10
      315.241   1.61264e-10
      315.338   1.59086e-10
      315.435   1.56936e-10
      315.532   1.54815e-10
      315.629   1.52722e-10
      315.726   1.50657e-10
      315.823   1.48618e-10
      315.921   1.46588e-10
      316.018   1.44603e-10
      316.115   1.42646e-10
      316.212   1.40714e-10
      316.310   1.38789e-10
      316.407   1.36908e-10
      316.504   1.35052e-10
      316.602   1.33202e-10
      316.699   1.31396e-10
      316.796   1.29614e-10
      316.894   1.27838e-10
      316.991   1.26110e-10
      317.089   1.24434e-10
      317.187   1.22803e-10
      317.284   1.21209e-10
      317.382   1.19619e-10
      317.479   1.18064e-10
      317.577   1.16515e-10
      317.675   1.14986e-10
      317.773   1.13476e-10
      317.870   1.12001e-10
      317.968   1.10528e-10
      318.066   1.09076e-10
      318.164   1.07641e-10
      318.262   1.06226e-10
      318.360   1.04828e-10
      318.458   1.03449e-10
      318.556   1.02088e-10
      318.654   1.00745e-10
      318.752   9.94180e-11
      318.850   9.81086e-11
      318.948   9.68158e-11
      319.046   9.55398e-11
      319.144   9.42798e-11
      319.242   9.30367e-11
      319.341   9.17970e-11
      319.439   9.05856e-11
      319.537   8.93902e-11
      319.635   8.82100e-11
      319.734   8.70333e-11
      319.832   8.58837e-11
      319.930   8.47486e-11
      320.029   8.36171e-11
      320.127   8.25116e-11
      320.226   8.14092e-11
      320.324   8.03317e-11
      320.423   7.92571e-11
      320.522   7.81978e-11
      320.620   7.71624e-11
      320.719   7.61296e-11
      320.818   7.51107e-11
      320.916   7.41150e-11
      321.015   7.31220e-11
      321.114   7.21421e-11
      321.213   7.11750e-11
      321.311   7.02303e-11
      321.410   6.92887e-11
      321.509   6.83588e-11
      321.608   6.74417e-11
      321.707   6.65363e-11
      321.806   6.56424e-11
      321.905   6.47608e-11
      322.004   6.38902e-11
      322.103   6.30316e-11
      322.202   6.21838e-11
      322.301   6.13474e-11
      322.401   6.05139e-11
      322.500   5.96994e-11
      322.599   5.88957e-11
      322.698   5.81026e-11
      322.798   5.73119e-11
      322.897   5.65393e-11
      322.996   5.57772e-11
      323.096   5.50170e-11
      323.195   5.42746e-11
      323.294   5.35421e-11
      323.394   5.28121e-11
      323.493   5.20987e-11
      323.593   5.13878e-11
      323.692   5.06932e-11
      323.792   5.00010e-11
      323.892   4.93180e-11
      323.991   4.86503e-11
      324.091   4.79854e-11
      324.191   4.73291e-11
      324.291   4.66815e-11
      324.390   4.60492e-11
      324.490   4.54185e-11
      324.590   4.47966e-11
      324.690   4.41829e-11
      324.790   4.35773e-11
      324.890   4.29800e-11
      324.990   4.23903e-11
      325.090   4.18085e-11
      325.190   4.12347e-11
      325.290   4.06687e-11
      325.390   4.01097e-11
      325.490   3.95587e-11
      325.590   3.90151e-11
      325.690   3.84783e-11
      325.790   3.79489e-11
      325.891   3.74215e-11
      325.991   3.69063e-11
      326.091   3.63978e-11
      326.192   3.58912e-11
      326.292   3.53964e-11
      326.392   3.49084e-11
      326.493   3.44220e-11
      326.593   3.39469e-11
      326.694   3.34738e-11
      326.794   3.30115e-11
      326.895   3.25508e-11
      326.995   3.21007e-11
      327.096   3.16525e-11
      327.197   3.12103e-11
      327.297   3.07783e-11
      327.398   3.03479e-11
      327.499   2.99234e-11
      327.599   2.95087e-11
      327.700   2.90955e-11
      327.801   2.86879e-11
      327.902   2.82861e-11
      328.003   2.78895e-11
      328.104   2.74984e-11
      328.205   2.71126e-11
      328.306   2.67321e-11
      328.407   2.63568e-11
      328.508   2.59864e-11
      328.609   2.56212e-11
      328.710   2.52610e-11
      328.811   2.49057e-11
      328.912   2.45553e-11
      329.013   2.42096e-11
      329.115   2.38654e-11
      329.216   2.35292e-11
      329.317   2.31975e-11
      329.419   2.28674e-11
      329.520   2.25448e-11
      329.621   2.22265e-11
      329.723   2.19095e-11
      329.824   2.16003e-11
      329.926   2.12921e-11
      330.027   2.09911e-11
      330.129   2.06913e-11
      330.230   2.03987e-11
      330.332   2.01071e-11
      330.434   1.98197e-11
      330.535   1.95389e-11
      330.637   1.92592e-11
      330.739   1.89836e-11
      330.840   1.87144e-11
      330.942   1.84462e-11
      331.044   1.81818e-11
      331.146   1.79211e-11
      331.248   1.76640e-11
      331.350   1.74106e-11
      331.452   1.71611e-11
      331.554   1.69243e-11
      331.656   1.67050e-11
      331.758   1.64886e-11
      331.860   1.62747e-11
      331.962   1.60636e-11
      332.064   1.58551e-11
      332.166   1.56494e-11
      332.268   1.54460e-11
      332.371   1.52435e-11
      332.473   1.50452e-11
      332.575   1.48494e-11
      332.677   1.46562e-11
      332.780   1.44636e-11
      332.882   1.42752e-11
      332.985   1.40874e-11
      333.087   1.39037e-11
      333.190   1.37206e-11
      333.292   1.35375e-11
      333.395   1.33441e-11
      333.497   1.31512e-11
      333.600   1.29591e-11
      333.702   1.27716e-11
      333.805   1.25850e-11
      333.908   1.24009e-11
      334.011   1.22195e-11
      334.113   1.20424e-11
      334.216   1.18660e-11
      334.319   1.16922e-11
      334.422   1.15209e-11
      334.525   1.13520e-11
      334.628   1.11855e-11
      334.731   1.10215e-11
      334.834   1.08598e-11
      334.937   1.07004e-11
      335.040   1.05432e-11
      335.143   1.03883e-11
      335.246   1.02357e-11
      335.349   1.00852e-11
      335.452   9.93687e-12
      335.555   9.79071e-12
      335.659   9.64522e-12
      335.762   9.50321e-12
      335.865   9.36330e-12
      335.969   9.22402e-12
      336.072   9.08802e-12
      336.175   8.95409e-12
      336.279   8.82081e-12
      336.382   8.69070e-12
      336.486   8.56119e-12
      336.589   8.43478e-12
      336.693   8.30910e-12
      336.796   8.18640e-12
      336.900   8.06428e-12
      337.004   7.94389e-12
      337.107   7.82650e-12
      337.211   7.70962e-12
      337.315   7.59456e-12
      337.419   7.48108e-12
      337.523   7.36925e-12
      337.626   7.26016e-12
      337.730   7.15164e-12
      337.834   7.04467e-12
      337.938   6.93931e-12
      338.042   6.83594e-12
      338.146   6.73573e-12
      338.250   6.63714e-12
      338.354   6.53995e-12
      338.458   6.44412e-12
      338.562   6.34967e-12
      338.667   6.25575e-12
      338.771   6.16401e-12
      338.875   6.07361e-12
      338.979   5.98450e-12
      339.084   5.89592e-12
      339.188   5.80940e-12
      339.292   5.72416e-12
      339.397   5.63930e-12
      339.501   5.55654e-12
      339.606   5.47411e-12
      339.710   5.39370e-12
      339.815   5.31369e-12
      339.919   5.23562e-12
      340.024   5.15790e-12
      340.128   5.08212e-12
      340.233   5.00665e-12
      340.338   4.93235e-12
      340.442   4.85977e-12
      340.547   4.78761e-12
      340.652   4.71647e-12
      340.757   4.64640e-12
      340.862   4.57734e-12
      340.966   4.50996e-12
      341.071   4.44292e-12
      341.176   4.37686e-12
      341.281   4.31177e-12
      341.386   4.24766e-12
      341.491   4.18445e-12
      341.596   4.12222e-12
      341.702   4.06031e-12
      341.807   3.99987e-12
      341.912   3.94034e-12
      342.017   3.88168e-12
      342.122   3.82386e-12
      342.228   3.76641e-12
      342.333   3.71031e-12
      342.438   3.65504e-12
      342.544   3.60010e-12
      342.649   3.54645e-12
      342.754   3.49364e-12
      342.860   3.44107e-12
      342.965   3.38975e-12
      343.071   3.33878e-12
      343.176   3.28901e-12
      343.282   3.23949e-12
      343.388   3.19074e-12
      343.493   3.14357e-12
      343.599   3.09988e-12
      343.705   3.05714e-12
      343.810   3.01536e-12
      343.916   2.97378e-12
      344.022   2.93277e-12
      344.128   2.89232e-12
      344.234   2.85240e-12
      344.340   2.81306e-12
      344.446   2.77422e-12
      344.552   2.73593e-12
      344.658   2.69817e-12
      344.764   2.66095e-12
      344.870   2.62420e-12
      344.976   2.58798e-12
      345.082   2.55225e-12
      345.188   2.51702e-12
      345.294   2.48224e-12
      345.401   2.44764e-12
      345.507   2.41383e-12
      345.613   2.38049e-12
      345.719   2.34760e-12
      345.826   2.31486e-12
      345.932   2.28287e-12
      346.039   2.25103e-12
      346.145   2.21991e-12
      346.252   2.18894e-12
      346.358   2.15867e-12
      346.465   2.12856e-12
      346.571   2.09913e-12
      346.678   2.06982e-12
      346.785   2.04092e-12
      346.891   2.01269e-12
      346.998   1.98460e-12
      347.105   1.95689e-12
      347.212   1.92957e-12
      347.319   1.90261e-12
      347.425   1.87627e-12
      347.532   1.85005e-12
      347.639   1.82420e-12
      347.746   1.79871e-12
      347.853   1.77355e-12
      347.960   1.74876e-12
      348.067   1.72432e-12
      348.174   1.70022e-12
      348.281   1.67644e-12
      348.389   1.65277e-12
      348.496   1.62964e-12
      348.603   1.60686e-12
      348.710   1.58438e-12
      348.818   1.56200e-12
      348.925   1.54012e-12
      349.032   1.51857e-12
      349.140   1.49702e-12
      349.247   1.47596e-12
      349.355   1.45501e-12
      349.462   1.43453e-12
      349.570   1.41414e-12
      349.677   1.39423e-12
      349.785   1.37441e-12
      349.892   1.35505e-12
      350.000   1.33579e-12
      350.100   1.31820e-12
      350.193   1.30204e-12
      350.287   1.28589e-12
      350.380   1.27013e-12
      350.473   1.25455e-12
      350.567   1.23898e-12
      350.660   1.22378e-12
      350.754   1.20860e-12
      350.847   1.19377e-12
      350.941   1.17895e-12
      351.034   1.16447e-12
      351.128   1.15002e-12
      351.221   1.13590e-12
      351.315   1.12179e-12
      351.409   1.10785e-12
      351.502   1.09423e-12
      351.596   1.08063e-12
      351.690   1.06719e-12
      351.783   1.05407e-12
      351.877   1.04097e-12
      351.971   1.02802e-12
      352.065   1.01523e-12
      352.159   1.00259e-12
      352.252   9.90245e-13
      352.346   9.77912e-13
      352.440   9.65737e-13
      352.534   9.53717e-13
      352.628   9.41830e-13
      352.722   9.30089e-13
      352.816   9.18496e-13
      352.910   9.07049e-13
      353.004   8.95742e-13
      353.098   8.84564e-13
      353.192   8.73524e-13
      353.287   8.62507e-13
      353.381   8.51733e-13
      353.475   8.41103e-13
      353.569   8.30590e-13
      353.663   8.20215e-13
      353.758   8.09861e-13
      353.852   7.99738e-13
      353.946   7.89736e-13
      354.041   7.79753e-13
      354.135   7.69997e-13
      354.229   7.60356e-13
      354.324   7.50735e-13
      354.418   7.41333e-13
      354.513   7.31945e-13
      354.607   7.22780e-13
      354.702   7.13576e-13
      354.796   7.04400e-13
      354.891   6.95226e-13
      354.985   6.86267e-13
      355.080   6.77326e-13
      355.175   6.68493e-13
      355.269   6.59868e-13
      355.364   6.51258e-13
      355.459   6.42763e-13
      355.553   6.34456e-13
      355.648   6.26174e-13
      355.743   6.17998e-13
      355.838   6.09915e-13
      355.933   6.01946e-13
      356.027   5.94157e-13
      356.122   5.86381e-13
      356.217   5.78707e-13
      356.312   5.71135e-13
      356.407   5.63654e-13
      356.502   5.56270e-13
      356.597   5.48977e-13
      356.692   5.41780e-13
      356.787   5.34674e-13
      356.882   5.27654e-13
      356.977   5.20731e-13
      357.073   5.13823e-13
      357.168   5.07068e-13
      357.263   5.00405e-13
      357.358   4.93825e-13
      357.453   4.87330e-13
      357.549   4.80852e-13
      357.644   4.74522e-13
      357.739   4.68277e-13
      357.835   4.62040e-13
      357.930   4.55950e-13
      358.025   4.49938e-13
      358.121   4.43942e-13
      358.216   4.38083e-13
      358.312   4.32238e-13
      358.407   4.26530e-13
      358.503   4.20836e-13
      358.598   4.15276e-13
      358.694   4.09727e-13
      358.790   4.04248e-13
      358.885   3.98896e-13
      358.981   3.93559e-13
      359.076   3.88348e-13
      359.172   3.83150e-13
      359.268   3.78013e-13
      359.364   3.72945e-13
      359.459   3.68000e-13
      359.555   3.63063e-13
      359.651   3.58189e-13
      359.747   3.53380e-13
      359.843   3.48633e-13
      359.939   3.43947e-13
      360.035   3.39324e-13
      360.131   3.34762e-13
      360.227   3.30254e-13
      360.323   3.25809e-13
      360.419   3.21422e-13
      360.515   3.17093e-13
      360.611   3.12817e-13
      360.707   3.08594e-13
      360.803   3.04434e-13
      360.899   3.00322e-13
      360.995   2.96269e-13
      361.092   2.92224e-13
      361.188   2.88273e-13
      361.284   2.84374e-13
      361.380   2.80527e-13
      361.477   2.76689e-13
      361.573   2.72941e-13
      361.669   2.69244e-13
      361.766   2.65555e-13
      361.862   2.61954e-13
      361.959   2.58364e-13
      362.055   2.54853e-13
      362.152   2.51358e-13
      362.248   2.47942e-13
      362.345   2.44534e-13
      362.441   2.41210e-13
      362.538   2.37894e-13
      362.635   2.34622e-13
      362.731   2.31425e-13
      362.828   2.28238e-13
      362.925   2.25094e-13
      363.021   2.22024e-13
      363.118   2.18964e-13
      363.215   2.15942e-13
      363.312   2.12961e-13
      363.409   2.10021e-13
      363.505   2.07149e-13
      363.602   2.04285e-13
      363.699   2.01461e-13
      363.796   1.98674e-13
      363.893   1.95923e-13
      363.990   1.93210e-13
      364.087   1.90534e-13
      364.184   1.87893e-13
      364.281   1.85286e-13
      364.378   1.82716e-13
      364.475   1.80179e-13
      364.573   1.77651e-13
      364.670   1.75182e-13
      364.767   1.72748e-13
      364.864   1.70345e-13
      364.961   1.67974e-13
      365.059   1.65612e-13
      365.156   1.63306e-13
      365.253   1.61030e-13
      365.351   1.58762e-13
      365.448   1.56547e-13
      365.545   1.54363e-13
      365.643   1.52186e-13
      365.740   1.50060e-13
      365.838   1.47941e-13
      365.935   1.45874e-13
      366.033   1.43813e-13
      366.130   1.41800e-13
      366.228   1.39795e-13
      366.326   1.37818e-13
      366.423   1.35887e-13
      366.521   1.33963e-13
      366.618   1.32084e-13
      366.716   1.30212e-13
      366.814   1.28366e-13
      366.912   1.26546e-13
      367.010   1.24750e-13
      367.107   1.22997e-13
      367.205   1.21249e-13
      367.303   1.19526e-13
      367.401   1.17827e-13
      367.499   1.16151e-13
      367.597   1.14498e-13
      367.695   1.12868e-13
      367.793   1.11261e-13
      367.891   1.09676e-13
      367.989   1.08112e-13
      368.087   1.06571e-13
      368.185   1.05051e-13
      368.283   1.03551e-13
      368.381   1.02072e-13
      368.480   1.00599e-13
      368.578   9.91613e-14
      368.676   9.77439e-14
      368.774   9.63463e-14
      368.873   9.49539e-14
      368.971   9.35947e-14
      369.069   9.22543e-14
      369.168   9.09187e-14
      369.266   8.96155e-14
      369.364   8.83306e-14
      369.463   8.70508e-14
      369.561   8.58019e-14
      369.660   8.45577e-14
      369.758   8.33433e-14
      369.857   8.21342e-14
      369.955   8.09539e-14
      370.054   7.97779e-14
      370.153   7.86188e-14
      370.251   7.74877e-14
      370.350   7.63613e-14
      370.449   7.52512e-14
      370.547   7.41673e-14
      370.646   7.30872e-14
      370.745   7.20235e-14
      370.844   7.09744e-14
      370.943   6.99405e-14
      371.041   6.89314e-14
      371.140   6.79260e-14
      371.239   6.69351e-14
      371.338   6.59587e-14
      371.437   6.49962e-14
      371.536   6.40475e-14
      371.635   6.31117e-14
      371.734   6.21897e-14
      371.833   6.12811e-14
      371.932   6.03853e-14
      372.032   5.94934e-14
      372.131   5.86227e-14
      372.230   5.77653e-14
      372.329   5.69200e-14
      372.428   5.60865e-14
      372.528   5.52571e-14
      372.627   5.44480e-14
      372.726   5.36503e-14
      372.826   5.28562e-14
      372.925   5.20813e-14
      373.024   5.13174e-14
      373.124   5.05568e-14
      373.223   4.98153e-14
      373.323   4.90771e-14
      373.422   4.83565e-14
      373.522   4.76392e-14
      373.621   4.69399e-14
      373.721   4.62433e-14
      373.820   4.55639e-14
      373.920   4.48875e-14
      374.020   4.42205e-14
      374.119   4.35704e-14
      374.219   4.29229e-14
      374.319   4.22853e-14
      374.419   4.16572e-14
      374.518   4.10439e-14
      374.618   4.04336e-14
      374.718   3.98317e-14
      374.818   3.92395e-14
      374.918   3.86559e-14
      375.018   3.80805e-14
      375.118   3.75138e-14
      375.218   3.69551e-14
      375.318   3.64049e-14
      375.418   3.58624e-14
      375.518   3.53284e-14
      375.618   3.48022e-14
      375.718   3.42834e-14
      375.818   3.37724e-14
      375.918   3.32689e-14
      376.019   3.27681e-14
      376.119   3.22794e-14
      376.219   3.17980e-14
      376.319   3.13235e-14
      376.420   3.08517e-14
      376.520   3.03913e-14
      376.620   2.99379e-14
      376.721   2.94865e-14
      376.821   2.90464e-14
      376.922   2.86084e-14
      377.022   2.81811e-14
      377.122   2.77604e-14
      377.223   2.73417e-14
      377.323   2.69335e-14
      377.424   2.65270e-14
      377.525   2.61268e-14
      377.625   2.57364e-14
      377.726   2.53481e-14
      377.827   2.49655e-14
      377.927   2.45923e-14
      378.028   2.42211e-14
      378.129   2.38554e-14
      378.230   2.34954e-14
      378.330   2.31448e-14
      378.431   2.27962e-14
      378.532   2.24530e-14
      378.633   2.21146e-14
      378.734   2.17813e-14
      378.835   2.14531e-14
      378.936   2.11298e-14
      379.037   2.08114e-14
      379.138   2.04977e-14
      379.239   2.01886e-14
      379.340   1.98844e-14
      379.441   1.95847e-14
      379.542   1.92893e-14
      379.643   1.89985e-14
      379.745   1.87093e-14
      379.846   1.84271e-14
      379.947   1.81491e-14
      380.048   1.78755e-14
      380.150   1.76032e-14
      380.251   1.73376e-14
      380.352   1.70761e-14
      380.454   1.68161e-14
      380.555   1.65623e-14
      380.656   1.63124e-14
      380.758   1.60638e-14
      380.859   1.58214e-14
      380.961   1.55805e-14
      381.062   1.53454e-14
      381.164   1.51115e-14
      381.266   1.48812e-14
      381.367   1.46566e-14
      381.469   1.44332e-14
      381.570   1.42155e-14
      381.672   1.39988e-14
      381.774   1.37854e-14
      381.876   1.35753e-14
      381.977   1.33704e-14
      382.079   1.31666e-14
      382.181   1.29658e-14
      382.283   1.27683e-14
      382.385   1.25736e-14
      382.487   1.23818e-14
      382.589   1.21931e-14
      382.691   1.20072e-14
      382.793   1.18242e-14
      382.895   1.16439e-14
      382.997   1.14663e-14
      383.099   1.12915e-14
      383.201   1.11194e-14
      383.303   1.09498e-14
      383.405   1.07828e-14
      383.507   1.06183e-14
      383.610   1.04548e-14
      383.712   1.02953e-14
      383.814   1.01384e-14
      383.916   9.98379e-15
      384.019   9.83001e-15
      384.121   9.68004e-15
      384.223   9.53239e-15
      384.326   9.38562e-15
      384.428   9.24234e-15
      384.531   9.09985e-15
      384.633   8.96093e-15
      384.736   8.82274e-15
      384.838   8.68798e-15
      384.941   8.55401e-15
      385.043   8.42334e-15
      385.146   8.29346e-15
      385.249   8.16557e-15
      385.351   8.04084e-15
      385.454   7.91680e-15
      385.557   7.79472e-15
      385.660   7.67446e-15
      385.762   7.55725e-15
      385.865   7.44067e-15
      385.968   7.32585e-15
      386.071   7.21277e-15
      386.174   7.10148e-15
      386.277   6.99193e-15
      386.380   6.88403e-15
      386.483   6.77776e-15
      386.586   6.67319e-15
      386.689   6.57020e-15
      386.792   6.46876e-15
      386.895   6.36890e-15
      386.998   6.27058e-15
      387.101   6.17378e-15
      387.204   6.07838e-15
      387.308   5.98360e-15
      387.411   5.89117e-15
      387.514   5.80016e-15
      387.617   5.71057e-15
      387.721   5.62152e-15
      387.824   5.53466e-15
      387.927   5.44907e-15
      388.031   5.36404e-15
      388.134   5.28114e-15
      388.238   5.19876e-15
      388.341   5.11835e-15
      388.445   5.03845e-15
      388.548   4.96048e-15
      388.652   4.88304e-15
      388.755   4.80752e-15
      388.859   4.73242e-15
      388.962   4.65920e-15
      389.066   4.58638e-15
      389.170   4.51475e-15
      389.274   4.44418e-15
      389.377   4.37537e-15
      389.481   4.30692e-15
      389.585   4.23959e-15
      389.689   4.17328e-15
      389.793   4.10797e-15
      389.897   4.04373e-15
      390.000   3.98104e-15
      390.104   3.91875e-15
      390.208   3.85738e-15
      390.312   3.79699e-15
      390.416   3.73751e-15
      390.520   3.67889e-15
      390.625   3.62061e-15
      390.729   3.56384e-15
      390.833   3.50792e-15
      390.937   3.45287e-15
      391.041   3.39868e-15
      391.145   3.34533e-15
      391.250   3.29229e-15
      391.354   3.24059e-15
      391.458   3.18968e-15
      391.563   3.13907e-15
      391.667   3.08974e-15
      391.771   3.04117e-15
      391.876   2.99287e-15
      391.980   2.94578e-15
      392.085   2.89899e-15
      392.189   2.85336e-15
      392.294   2.80800e-15
      392.398   2.76379e-15
      392.503   2.71984e-15
      392.607   2.67698e-15
      392.712   2.63440e-15
      392.817   2.59245e-15
      392.921   2.55158e-15
      393.026   2.51094e-15
      393.131   2.47095e-15
      393.236   2.43155e-15
      393.340   2.39316e-15
      393.445   2.35501e-15
      393.550   2.31744e-15
      393.655   2.28046e-15
      393.760   2.24406e-15
      393.865   2.20822e-15
      393.970   2.17297e-15
      394.075   2.13824e-15
      394.180   2.10407e-15
      394.285   2.07043e-15
      394.390   2.03732e-15
      394.495   2.00471e-15
      394.600   1.97263e-15
      394.706   1.94075e-15
      394.811   1.90967e-15
      394.916   1.87905e-15
      395.021   1.84892e-15
      395.126   1.81929e-15
      395.232   1.78982e-15
      395.337   1.76109e-15
      395.443   1.73255e-15
      395.548   1.70472e-15
      395.653   1.67734e-15
      395.759   1.65011e-15
      395.864   1.62358e-15
      395.970   1.59722e-15
      396.075   1.57151e-15
      396.181   1.54596e-15
      396.286   1.52105e-15
      396.392   1.49632e-15
      396.498   1.47198e-15
      396.603   1.44822e-15
      396.709   1.42463e-15
      396.815   1.40141e-15
      396.921   1.37855e-15
      397.026   1.35629e-15
      397.132   1.33415e-15
      397.238   1.31238e-15
      397.344   1.29093e-15
      397.450   1.26986e-15
      397.556   1.24909e-15
      397.662   1.22866e-15
      397.768   1.20857e-15
      397.874   1.18878e-15
      397.980   1.16931e-15
      398.086   1.15014e-15
      398.192   1.13130e-15
      398.298   1.11274e-15
      398.404   1.09448e-15
      398.510   1.07651e-15
      398.617   1.05867e-15
      398.723   1.04127e-15
      398.829   1.02414e-15
      398.935   1.00729e-15
      399.042   9.90561e-16
      399.148   9.74239e-16
      399.255   9.58044e-16
      399.361   9.42255e-16
      399.467   9.26699e-16
      399.574   9.11272e-16
      399.680   8.96221e-16
      399.787   8.81274e-16
      399.893       0.00000
      400.000       0.00000
