Filter Be-thin
observation_date 22Sept2020
wavelength effective area
      1.00000   2.78437e-10
      1.10000   7.94895e-10
      1.20000   2.06654e-09
      1.30000   4.94175e-09
      1.40000   1.12138e-08
      1.50000   2.39245e-08
      1.60000   4.84352e-08
      1.70000   9.40354e-08
      1.80000   1.75077e-07
      1.90000   3.14681e-07
      2.00000   5.47094e-07
      2.10000   9.24104e-07
      2.20000   1.52380e-06
      2.30000   2.44956e-06
      2.40000   3.84573e-06
      2.50000   5.87730e-06
      2.60000   8.96919e-06
      2.70000   1.33719e-05
      2.80000   1.95541e-05
      2.90000   2.83001e-05
      3.00000   4.03182e-05
      3.10000   5.67011e-05
      3.20000   7.88694e-05
      3.30000   0.000108587
      3.40000   0.000147940
      3.50000   0.000199599
      3.60000   0.000268049
      3.70000   0.000356140
      3.80000   0.000471205
      3.90000   0.000619964
      4.00000   0.000810580
      4.10000    0.00105485
      4.20000    0.00136785
      4.30000    0.00176861
      4.40000    0.00228059
      4.50000    0.00293257
      4.60000    0.00375813
      4.70000    0.00481567
      4.80000    0.00616415
      4.90000    0.00778841
      5.00000     0.0100990
      5.10000     0.0129100
      5.20000     0.0165509
      5.30000     0.0210380
      5.40000     0.0266964
      5.50000     0.0339336
      5.60000     0.0418067
      5.70000     0.0542591
      5.80000     0.0635033
      5.90000     0.0967882
      6.00000      0.129865
      6.10000      0.165652
      6.20000      0.203011
      6.30000      0.238469
      6.40000      0.268674
      6.50000      0.290634
      6.60000      0.300135
      6.70000      0.308721
      6.80000      0.308348
      6.90000      0.403453
      7.00000      0.437524
      7.10000      0.461367
      7.20000      0.479848
      7.30000      0.494470
      7.40000      0.505100
      7.50000      0.513083
      7.60000      0.518543
      7.70000      0.520132
      7.80000      0.516892
      7.90000      0.514200
      8.00000      0.740261
      8.10000      0.806631
      8.20000      0.815829
      8.30000      0.821233
      8.40000      0.823198
      8.50000      0.823675
      8.60000      0.822429
      8.70000      0.820038
      8.80000      0.816248
      8.90000      0.811496
      9.00000      0.805736
      9.10000      0.799032
      9.20000      0.791566
      9.30000      0.783275
      9.40000      0.774296
      9.50000      0.764694
      9.60000      0.754443
      9.70000      0.743647
      9.80000      0.732409
      9.90000      0.720766
      10.0000      0.708776
      10.1000      0.696465
      10.2000      0.683866
      10.3000      0.670970
      10.4000      0.657816
      10.5000      0.644436
      10.6000      0.630864
      10.7000      0.617129
      10.8000      0.603257
      10.9000      0.589287
      11.0000      0.575231
      11.1000      0.561128
      11.2000      0.546991
      11.3000      0.532850
      11.4000      0.518709
      11.5000      0.504580
      11.6000      0.490484
      11.7000      0.476403
      11.8000      0.462388
      11.9000      0.448360
      12.0000      0.433891
      12.1000      0.421095
      12.2000      0.415751
      12.3000      0.406047
      12.4000      0.393456
      12.5000      0.380782
      12.6000      0.368196
      12.7000      0.355767
      12.8000      0.343522
      12.9000      0.331467
      13.0000      0.319628
      13.1000      0.308019
      13.2000      0.296668
      13.3000      0.285634
      13.4000      0.274900
      13.5000      0.264455
      13.6000      0.254310
      13.7000      0.244423
      13.8000      0.234789
      13.9000      0.225417
      14.0000      0.216301
      14.1000      0.207422
      14.2000      0.198770
      14.3000      0.190350
      14.4000      0.182165
      14.5000      0.174229
      14.6000      0.166550
      14.7000      0.159101
      14.8000      0.151881
      14.9000      0.144887
      15.0000      0.138117
      15.1000      0.131572
      15.2000      0.125291
      15.3000      0.119235
      15.4000      0.113392
      15.5000      0.107757
      15.6000      0.102332
      15.7000     0.0971314
      15.8000     0.0921619
      15.9000     0.0873844
      16.0000     0.0827927
      16.1000     0.0783825
      16.2000     0.0741938
      16.3000     0.0701882
      16.4000     0.0663436
      16.5000     0.0626546
      16.6000     0.0591430
      16.7000     0.0558093
      16.8000     0.0526141
      16.9000     0.0495530
      17.0000     0.0466507
      17.1000     0.0439170
      17.2000     0.0413126
      17.3000     0.0388321
      17.4000     0.0365082
      17.5000     0.0343038
      17.6000     0.0322130
      17.7000     0.0302634
      17.8000     0.0284971
      17.9000     0.0268121
      18.0000     0.0251964
      18.1000     0.0236896
      18.2000     0.0222329
      18.3000     0.0208194
      18.4000     0.0194610
      18.5000     0.0181603
      18.6000     0.0169017
      18.7000     0.0156974
      18.8000     0.0145709
      18.9000     0.0134986
      19.0000     0.0125044
      19.1000     0.0115776
      19.2000     0.0106965
      19.3000    0.00988715
      19.4000    0.00913850
      19.5000    0.00843345
      19.6000    0.00781149
      19.7000    0.00722401
      19.8000    0.00666736
      19.9000    0.00616509
      20.0000    0.00568610
      20.1000    0.00524074
      20.2000    0.00483190
      20.3000    0.00444203
      20.4000    0.00408898
      20.5000    0.00375736
      20.6000    0.00344497
      20.7000    0.00316440
      20.8000    0.00289639
      20.9000    0.00265294
      21.0000    0.00242676
      21.1000    0.00221386
      21.2000    0.00202384
      21.3000    0.00184206
      21.4000    0.00167931
      21.5000    0.00152709
      21.6000    0.00138545
      21.7000    0.00125831
      21.8000    0.00113652
      21.9000    0.00102939
      22.0000   0.000927011
      22.1000   0.000834984
      22.2000   0.000749170
      22.3000   0.000668801
      22.4000   0.000588381
      22.5000   0.000508306
      22.6000   0.000407748
      22.7000   0.000331450
      22.8000   0.000373078
      22.9000   0.000434078
      23.0000   0.000511939
      23.1000   0.000544039
      23.2000   0.000532783
      23.3000   0.000500242
      23.4000   0.000457031
      23.5000   0.000418111
      23.6000   0.000380389
      23.7000   0.000346792
      23.8000   0.000313856
      23.9000   0.000285629
      24.0000   0.000258074
      24.1000   0.000234165
      24.2000   0.000211143
      24.3000   0.000191150
      24.4000   0.000172104
      24.5000   0.000155442
      24.6000   0.000139724
      24.7000   0.000125951
      24.8000   0.000113044
      24.9000   0.000101707
      25.0000   9.11313e-05
      25.1000   8.18571e-05
      25.2000   7.32168e-05
      25.3000   6.56636e-05
      25.4000   5.86171e-05
      25.5000   5.25032e-05
      25.6000   4.67715e-05
      25.7000   4.18479e-05
      25.8000   3.71922e-05
      25.9000   3.32477e-05
      26.0000   2.94721e-05
      26.1000   2.63273e-05
      26.2000   2.32692e-05
      26.3000   2.07771e-05
      26.4000   1.83054e-05
      26.5000   1.63403e-05
      26.6000   1.43875e-05
      26.7000   1.28051e-05
      26.8000   1.12755e-05
      26.9000   9.99848e-06
      27.0000   8.80543e-06
      27.1000   7.77439e-06
      27.2000   6.84798e-06
      27.3000   6.02848e-06
      27.4000   5.34045e-06
      27.5000   4.69190e-06
      27.6000   4.14785e-06
      27.7000   3.61407e-06
      27.8000   3.19742e-06
      27.9000   2.78339e-06
      28.0000   2.45259e-06
      28.1000   2.13956e-06
      28.2000   1.87306e-06
      28.3000   1.63796e-06
      28.4000   1.42392e-06
      28.5000   1.24853e-06
      28.6000   1.07730e-06
      28.7000   9.47454e-07
      28.8000   8.18449e-07
      28.9000   7.15582e-07
      29.0000   6.20581e-07
      29.1000   5.37610e-07
      29.2000   4.68135e-07
      29.3000   4.01639e-07
      29.4000   3.51206e-07
      29.5000   3.01105e-07
      29.6000   2.61956e-07
      29.7000   2.25859e-07
      29.8000   1.94188e-07
      29.9000   1.68374e-07
      30.0000   1.43016e-07
      30.1000   1.24696e-07
      30.2000   1.06499e-07
      30.3000   9.29089e-08
      30.4000   8.19762e-08
      30.5000   7.13865e-08
      30.6000   6.18704e-08
      30.7000   5.24184e-08
      30.8000   4.51802e-08
      30.9000   3.86363e-08
      31.0000   3.27664e-08
      31.1000   2.83598e-08
      31.2000   2.39831e-08
      31.3000   2.07142e-08
      31.4000   1.76979e-08
      31.5000   1.49969e-08
      31.6000   1.29351e-08
      31.7000   1.08875e-08
      31.8000   9.36357e-09
      31.9000   7.97810e-09
      32.0000   6.72128e-09
      32.1000   5.81766e-09
      32.2000   4.92030e-09
      32.3000   4.22288e-09
      32.4000   3.61568e-09
      32.5000   3.03388e-09
      32.6000   2.62684e-09
      32.7000   2.22267e-09
      32.8000   1.88712e-09
      32.9000   1.61799e-09
      33.0000   1.35075e-09
      33.1000   1.16287e-09
      33.2000   9.86776e-10
      33.3000   8.25637e-10
      33.4000   7.10318e-10
      33.5000   5.95783e-10
      33.6000   5.04077e-10
      33.7000   4.29757e-10
      33.8000   3.55932e-10
      33.9000   3.05015e-10
      34.0000   2.57533e-10
      34.1000   2.13201e-10
      34.2000   1.82952e-10
      34.3000   1.52897e-10
      34.4000   1.27723e-10
      34.5000   1.08752e-10
      34.6000   8.99048e-11
      34.7000   7.58446e-11
      34.8000   6.40435e-11
      34.9000   5.23185e-11
      35.0000   4.46128e-11
      35.1000   3.73643e-11
      35.2000   3.04572e-11
      35.3000   2.60215e-11
      35.4000   2.16145e-11
      35.5000   1.77213e-11
      35.6000   1.50525e-11
      35.7000   1.24010e-11
      35.8000   1.02256e-11
      35.9000   8.63672e-12
      36.0000   7.05823e-12
      36.1000   5.85164e-12
      36.2000   4.91609e-12
      36.3000   3.98669e-12
      36.4000   3.32143e-12
      36.5000   2.77663e-12
      36.6000   2.23548e-12
      36.7000   1.87007e-12
      36.8000   1.55641e-12
      36.9000   1.24485e-12
      37.0000   1.04445e-12
      37.1000   8.65928e-13
      37.2000   6.88592e-13
      37.3000   5.78631e-13
      37.4000   4.78217e-13
      37.5000   3.78484e-13
      37.6000   3.17987e-13
      37.7000   2.62197e-13
      37.8000   2.06785e-13
      37.9000   1.73344e-13
      38.0000   1.42719e-13
      38.1000   1.12302e-13
      38.2000   9.37123e-14
      38.3000   7.71056e-14
      38.4000   6.06120e-14
      38.5000   5.02241e-14
      38.6000   4.13379e-14
      38.7000   3.25124e-14
      38.8000   2.66827e-14
      38.9000   2.19904e-14
      39.0000   1.73301e-14
      39.1000   1.40494e-14
      39.2000   1.16039e-14
      39.3000   9.17503e-15
      39.4000   7.32078e-15
      39.5000   6.04897e-15
      39.6000   4.78601e-15
      39.7000   3.73901e-15
      39.8000   3.10083e-15
      39.9000   2.46705e-15
      40.0000   1.88756e-15
      40.1000   1.57260e-15
      40.2000   1.25982e-15
      40.3000   9.49244e-16
      40.4000   7.89064e-16
      40.5000   6.36963e-16
      40.6000   4.85916e-16
      40.7000   3.91376e-16
      40.8000   3.18508e-16
      40.9000   2.46155e-16
      41.0000   1.91707e-16
      41.1000   1.57360e-16
      41.2000   1.23259e-16
      41.3000   9.26878e-17
      41.4000   7.67625e-17
      41.5000   6.09478e-17
      41.6000   4.52451e-17
      41.7000   3.69425e-17
      41.8000   2.97248e-17
      41.9000   2.25580e-17
      42.0000   1.75225e-17
      42.1000   1.42827e-17
      42.2000   1.10657e-17
      42.3000   8.18344e-18
      42.4000   6.75399e-18
      42.5000   5.33457e-18
      42.6000   3.92525e-18
      42.7000   3.14071e-18
      42.8000   2.52538e-18
      42.9000   1.91434e-18
      43.0000   1.43518e-18
      43.1000   1.17304e-18
      43.2000   9.12777e-19
      43.3000   6.54365e-19
      43.4000   6.54818e-19
      43.5000   7.26536e-19
      43.6000   8.47514e-19
      43.7000   9.26616e-19
      43.8000   8.58830e-19
      43.9000   6.85928e-19
      44.0000   4.86048e-19
      44.1000   3.84354e-19
      44.2000   3.05439e-19
      44.3000   2.28001e-19
      44.4000   1.70478e-19
      44.5000   1.39057e-19
      44.6000   1.07719e-19
      44.7000   7.64648e-20
      44.8000   6.16697e-20
      44.9000   4.92325e-20
      45.0000   3.68277e-20
      45.1000   2.66489e-20
      45.2000   2.18107e-20
      45.3000   1.69856e-20
      45.4000   1.21727e-20
      45.5000   9.37961e-21
      45.6000   7.54051e-21
      45.7000   5.70633e-21
      45.8000   3.91954e-21
      45.9000   3.23296e-21
      46.0000   2.54816e-21
      46.1000   1.86515e-21
      46.2000   1.34178e-21
      46.3000   1.09213e-21
      46.4000   8.43151e-22
      46.5000   5.94809e-22
      46.6000   4.52374e-22
      46.7000   3.62953e-22
      46.8000   2.73769e-22
      46.9000   1.84814e-22
      47.0000   1.49715e-22
      47.1000   1.18350e-22
      47.2000   8.70660e-23
      47.3000   5.94528e-23
      47.4000   4.86503e-23
      47.5000   3.78753e-23
      47.6000   2.71286e-23
      47.7000   1.91437e-23
      47.8000   1.55161e-23
      47.9000   1.18975e-23
      48.0000   8.28861e-24
      48.1000   6.04980e-24
      48.2000   4.85904e-24
      48.3000   3.67130e-24
      48.4000   2.48666e-24
      48.5000   1.87605e-24
      48.6000   1.49429e-24
      48.7000   1.11351e-24
      48.8000   7.33679e-25
      48.9000   5.70717e-25
      49.0000   4.51317e-25
      49.1000   3.32225e-25
      49.2000   2.13434e-25
      49.3000   1.73281e-25
      49.4000   1.40009e-25
      49.5000   1.06822e-25
      49.6000   7.37196e-26
      49.7000   6.63865e-26
      49.8000   5.97064e-26
      49.9000   5.30433e-26
      50.0000   4.63975e-26
      50.1000   4.06943e-26
      50.2000   3.28471e-26
      50.3000   2.65589e-26
      50.4000   2.29752e-26
      50.5000   2.07054e-26
      50.6000   1.84875e-26
      50.7000   1.42893e-26
      50.8000   1.19081e-26
      50.9000   6.52067e-27
      51.0000   4.36888e-27
      51.1000   3.53228e-27
      51.2000   3.53929e-27
      51.3000   3.16996e-27
      51.4000   1.95490e-27
      51.5000   1.17887e-27
      51.6000   8.31410e-28
      51.7000   5.60668e-28
      51.8000   4.24062e-28
      51.9000   3.52880e-28
      52.0000   2.79600e-28
      52.1000   1.93264e-28
      52.2000   1.47856e-28
      52.3000   9.73905e-29
      52.4000   6.35526e-29
      52.5000   5.02214e-29
      52.6000   4.46460e-29
      52.7000   3.80892e-29
      52.8000   2.58907e-29
      52.9000   1.48093e-29
      53.0000   9.90339e-30
      53.1000   6.53020e-30
      53.2000   4.38167e-30
      53.3000   2.90806e-30
      53.4000   1.90554e-30
      53.5000   1.08770e-30
      53.6000   5.49769e-31
      53.7000   3.21172e-31
      53.8000   2.39874e-31
      53.9000   1.64738e-31
      54.0000   1.10766e-31
      54.1000   7.20752e-32
      54.2000   5.10748e-32
      54.3000   3.07644e-32
      54.4000   1.30295e-32
      54.5000   7.11464e-33
      54.6000   5.09641e-33
      54.7000   3.86738e-33
      54.8000   2.71717e-33
      54.9000   1.84226e-33
      55.0000   1.34069e-33
      55.1000   9.69567e-34
      55.2000   6.95917e-34
      55.3000   6.43128e-34
      55.4000   5.73339e-34
      55.5000   4.11917e-34
      55.6000   2.64093e-34
      55.7000   1.90046e-34
      55.8000   1.29773e-34
      55.9000   9.09854e-35
      56.0000   6.65622e-35
      56.1000   4.60005e-35
      56.2000   4.26236e-35
      56.3000   3.47602e-35
      56.4000   2.51761e-35
      56.5000   1.73521e-35
      56.6000   1.19558e-35
      56.7000   8.71114e-36
      56.8000   6.39101e-36
      56.9000   4.52860e-36
      57.0000   3.02400e-36
      57.1000   2.01953e-36
      57.2000   1.39090e-36
      57.3000   9.84555e-37
      57.4000   7.03146e-37
      57.5000   4.98893e-37
      57.6000   3.24420e-37
      57.7000   2.25492e-37
      57.8000   2.04356e-37
      57.9000   1.53017e-37
      58.0000   1.09021e-37
      58.1000   7.19056e-38
      58.2000   4.13910e-38
      58.3000   2.72276e-38
      58.4000   2.05985e-38
      58.5000   1.64241e-38
      58.6000   1.12102e-38
      58.7000   7.57102e-39
      58.8000   5.08221e-39
      58.9000   3.42360e-39
      59.0000   2.48760e-39
      59.1000   1.84593e-39
      59.2000   1.36542e-39
      59.3000   1.00653e-39
      59.4000   7.39241e-40
      59.5000   5.20679e-40
      59.6000   3.44424e-40
      59.7000   2.63754e-40
      59.8000   1.83330e-40
      59.9000   1.08968e-40
      60.0000   8.02482e-41
      60.1000   5.91993e-41
      60.2000   4.35341e-41
      60.3000   3.19020e-41
      60.4000   2.33106e-41
      60.5000   1.71799e-41
      60.6000   1.27700e-41
      60.7000   1.00543e-41
      60.8000   8.29989e-42
      60.9000   6.83694e-42
      61.0000   5.64863e-42
      61.1000   4.68034e-42
      61.2000   3.89421e-42
      61.3000   3.22719e-42
      61.4000   2.67087e-42
      61.5000   2.22106e-42
      61.6000   1.76704e-42
      61.7000   1.39009e-42
      61.8000   1.09301e-42
      61.9000   8.66002e-43
      62.0000   6.61413e-43
      62.1000   4.79244e-43
      62.2000   3.39114e-43
      62.3000   2.46629e-43
      62.4000   2.01787e-43
      62.5000   1.75162e-43
      62.6000   1.49939e-43
      62.7000   1.27518e-43
      62.8000   1.12104e-43
      62.9000   8.26766e-44
      63.0000   5.74532e-44
      63.1000   3.78351e-44
      63.2000   3.50325e-44
      63.3000   2.52234e-44
      63.4000   2.24208e-44
      63.5000   1.54143e-44
      63.6000   1.26117e-44
      63.7000   9.80909e-45
      63.8000   9.80909e-45
      63.9000   7.00649e-45
      64.0000   2.80260e-45
      64.1000   2.80260e-45
      64.2000   2.80260e-45
      64.3000   2.80260e-45
      64.4000       0.00000
      64.5000       0.00000
      64.6000       0.00000
      64.7000       0.00000
      64.8000       0.00000
      64.9000       0.00000
      65.0000       0.00000
      65.1000       0.00000
      65.2000       0.00000
      65.3000       0.00000
      65.4000       0.00000
      65.5000       0.00000
      65.6000       0.00000
      65.7000       0.00000
      65.8000       0.00000
      65.9000       0.00000
      66.0000       0.00000
      66.1000       0.00000
      66.2000       0.00000
      66.3000       0.00000
      66.4000       0.00000
      66.5000       0.00000
      66.6000       0.00000
      66.7000       0.00000
      66.8000       0.00000
      66.9000       0.00000
      67.0000       0.00000
      67.1000       0.00000
      67.2000       0.00000
      67.3000       0.00000
      67.4000       0.00000
      67.5000       0.00000
      67.6000       0.00000
      67.7000       0.00000
      67.8000       0.00000
      67.9000       0.00000
      68.0000       0.00000
      68.1000       0.00000
      68.2000       0.00000
      68.3000       0.00000
      68.4000       0.00000
      68.5000       0.00000
      68.6000       0.00000
      68.7000       0.00000
      68.8000       0.00000
      68.9000       0.00000
      69.0000       0.00000
      69.1000       0.00000
      69.2000       0.00000
      69.3000       0.00000
      69.4000       0.00000
      69.5000       0.00000
      69.6000       0.00000
      69.7000       0.00000
      69.8000       0.00000
      69.9000       0.00000
      70.0000       0.00000
      70.1000       0.00000
      70.2000       0.00000
      70.3000       0.00000
      70.4000       0.00000
      70.5000       0.00000
      70.6000       0.00000
      70.7000       0.00000
      70.8000       0.00000
      70.9000       0.00000
      71.0000       0.00000
      71.1000       0.00000
      71.2000       0.00000
      71.3000       0.00000
      71.4000       0.00000
      71.5000       0.00000
      71.6000       0.00000
      71.7000       0.00000
      71.8000       0.00000
      71.9000       0.00000
      72.0000       0.00000
      72.1000       0.00000
      72.2000       0.00000
      72.3000       0.00000
      72.4000       0.00000
      72.5000       0.00000
      72.6000       0.00000
      72.7000       0.00000
      72.8000       0.00000
      72.9000       0.00000
      73.0000       0.00000
      73.1000       0.00000
      73.2000       0.00000
      73.3000       0.00000
      73.4000       0.00000
      73.5000       0.00000
      73.6000       0.00000
      73.7000       0.00000
      73.8000       0.00000
      73.9000       0.00000
      74.0000       0.00000
      74.1000       0.00000
      74.2000       0.00000
      74.3000       0.00000
      74.4000       0.00000
      74.5000       0.00000
      74.6000       0.00000
      74.7000       0.00000
      74.8000       0.00000
      74.9000       0.00000
      75.0000       0.00000
      75.1000       0.00000
      75.2000       0.00000
      75.3000       0.00000
      75.4000       0.00000
      75.5000       0.00000
      75.6000       0.00000
      75.7000       0.00000
      75.8000       0.00000
      75.9000       0.00000
      76.0000       0.00000
      76.1000       0.00000
      76.2000       0.00000
      76.3000       0.00000
      76.4000       0.00000
      76.5000       0.00000
      76.6000       0.00000
      76.7000       0.00000
      76.8000       0.00000
      76.9000       0.00000
      77.0000       0.00000
      77.1000       0.00000
      77.2000       0.00000
      77.3000       0.00000
      77.4000       0.00000
      77.5000       0.00000
      77.6000       0.00000
      77.7000       0.00000
      77.8000       0.00000
      77.9000       0.00000
      78.0000       0.00000
      78.1000       0.00000
      78.2000       0.00000
      78.3000       0.00000
      78.4000       0.00000
      78.5000       0.00000
      78.6000       0.00000
      78.7000       0.00000
      78.8000       0.00000
      78.9000       0.00000
      79.0000       0.00000
      79.1000       0.00000
      79.2000       0.00000
      79.3000       0.00000
      79.4000       0.00000
      79.5000       0.00000
      79.6000       0.00000
      79.7000       0.00000
      79.8000       0.00000
      79.9000       0.00000
      80.0000       0.00000
      80.1000       0.00000
      80.2000       0.00000
      80.3000       0.00000
      80.4000       0.00000
      80.5000       0.00000
      80.6000       0.00000
      80.7000       0.00000
      80.8000       0.00000
      80.9000       0.00000
      81.0000       0.00000
      81.1000       0.00000
      81.2000       0.00000
      81.3000       0.00000
      81.4000       0.00000
      81.5000       0.00000
      81.6000       0.00000
      81.7000       0.00000
      81.8000       0.00000
      81.9000       0.00000
      82.0000       0.00000
      82.1000       0.00000
      82.2000       0.00000
      82.3000       0.00000
      82.4000       0.00000
      82.5000       0.00000
      82.6000       0.00000
      82.7000       0.00000
      82.8000       0.00000
      82.9000       0.00000
      83.0000       0.00000
      83.1000       0.00000
      83.2000       0.00000
      83.3000       0.00000
      83.4000       0.00000
      83.5000       0.00000
      83.6000       0.00000
      83.7000       0.00000
      83.8000       0.00000
      83.9000       0.00000
      84.0000       0.00000
      84.1000       0.00000
      84.2000       0.00000
      84.3000       0.00000
      84.4000       0.00000
      84.5000       0.00000
      84.6000       0.00000
      84.7000       0.00000
      84.8000       0.00000
      84.9000       0.00000
      85.0000       0.00000
      85.1000       0.00000
      85.2000       0.00000
      85.3000       0.00000
      85.4000       0.00000
      85.5000       0.00000
      85.6000       0.00000
      85.7000       0.00000
      85.8000       0.00000
      85.9000       0.00000
      86.0000       0.00000
      86.1000       0.00000
      86.2000       0.00000
      86.3000       0.00000
      86.4000       0.00000
      86.5000       0.00000
      86.6000       0.00000
      86.7000       0.00000
      86.8000       0.00000
      86.9000       0.00000
      87.0000       0.00000
      87.1000       0.00000
      87.2000       0.00000
      87.3000       0.00000
      87.4000       0.00000
      87.5000       0.00000
      87.6000       0.00000
      87.7000       0.00000
      87.8000       0.00000
      87.9000       0.00000
      88.0000       0.00000
      88.1000       0.00000
      88.2000       0.00000
      88.3000       0.00000
      88.4000       0.00000
      88.5000       0.00000
      88.6000       0.00000
      88.7000       0.00000
      88.8000       0.00000
      88.9000       0.00000
      89.0000       0.00000
      89.1000       0.00000
      89.2000       0.00000
      89.3000       0.00000
      89.4000       0.00000
      89.5000       0.00000
      89.6000       0.00000
      89.7000       0.00000
      89.8000       0.00000
      89.9000       0.00000
      90.0000       0.00000
      90.1000       0.00000
      90.2000       0.00000
      90.3000       0.00000
      90.4000       0.00000
      90.5000       0.00000
      90.6000       0.00000
      90.7000       0.00000
      90.8000       0.00000
      90.9000       0.00000
      91.0000       0.00000
      91.1000       0.00000
      91.2000       0.00000
      91.3000       0.00000
      91.4000       0.00000
      91.5000       0.00000
      91.6000       0.00000
      91.7000       0.00000
      91.8000       0.00000
      91.9000       0.00000
      92.0000       0.00000
      92.1000       0.00000
      92.2000       0.00000
      92.3000       0.00000
      92.4000       0.00000
      92.5000       0.00000
      92.6000       0.00000
      92.7000       0.00000
      92.8000       0.00000
      92.9000       0.00000
      93.0000       0.00000
      93.1000       0.00000
      93.2000       0.00000
      93.3000       0.00000
      93.4000       0.00000
      93.5000       0.00000
      93.6000       0.00000
      93.7000       0.00000
      93.8000       0.00000
      93.9000       0.00000
      94.0000       0.00000
      94.1000       0.00000
      94.2000       0.00000
      94.3000       0.00000
      94.4000       0.00000
      94.5000       0.00000
      94.6000       0.00000
      94.7000       0.00000
      94.8000       0.00000
      94.9000       0.00000
      95.0000       0.00000
      95.1000       0.00000
      95.2000       0.00000
      95.3000       0.00000
      95.4000       0.00000
      95.5000       0.00000
      95.6000       0.00000
      95.7000       0.00000
      95.8000       0.00000
      95.9000       0.00000
      96.0000       0.00000
      96.1000       0.00000
      96.2000       0.00000
      96.3000       0.00000
      96.4000       0.00000
      96.5000       0.00000
      96.6000       0.00000
      96.7000       0.00000
      96.8000       0.00000
      96.9000       0.00000
      97.0000       0.00000
      97.1000       0.00000
      97.2000       0.00000
      97.3000       0.00000
      97.4000       0.00000
      97.5000       0.00000
      97.6000       0.00000
      97.7000       0.00000
      97.8000       0.00000
      97.9000       0.00000
      98.0000       0.00000
      98.1000       0.00000
      98.2000       0.00000
      98.3000       0.00000
      98.4000       0.00000
      98.5000       0.00000
      98.6000       0.00000
      98.7000       0.00000
      98.8000       0.00000
      98.9000       0.00000
      99.0000       0.00000
      99.1000       0.00000
      99.2000       0.00000
      99.3000       0.00000
      99.4000       0.00000
      99.5000       0.00000
      99.6000       0.00000
      99.7000       0.00000
      99.8000       0.00000
      99.9000       0.00000
      100.000       0.00000
      100.100       0.00000
      100.200       0.00000
      100.300       0.00000
      100.400       0.00000
      100.500       0.00000
      100.600       0.00000
      100.700       0.00000
      100.800       0.00000
      100.900       0.00000
      101.000       0.00000
      101.100       0.00000
      101.200       0.00000
      101.300       0.00000
      101.400       0.00000
      101.500       0.00000
      101.600       0.00000
      101.700       0.00000
      101.800       0.00000
      101.900       0.00000
      102.000       0.00000
      102.100       0.00000
      102.200       0.00000
      102.300       0.00000
      102.400       0.00000
      102.500       0.00000
      102.600       0.00000
      102.700       0.00000
      102.800       0.00000
      102.900       0.00000
      103.000       0.00000
      103.100       0.00000
      103.200       0.00000
      103.300       0.00000
      103.400       0.00000
      103.500       0.00000
      103.600       0.00000
      103.700       0.00000
      103.800       0.00000
      103.900       0.00000
      104.000       0.00000
      104.100       0.00000
      104.200       0.00000
      104.300       0.00000
      104.400       0.00000
      104.500       0.00000
      104.600       0.00000
      104.700       0.00000
      104.800       0.00000
      104.900       0.00000
      105.000       0.00000
      105.100       0.00000
      105.200       0.00000
      105.300       0.00000
      105.400       0.00000
      105.500       0.00000
      105.600       0.00000
      105.700       0.00000
      105.800       0.00000
      105.900       0.00000
      106.000       0.00000
      106.100       0.00000
      106.200       0.00000
      106.300       0.00000
      106.400       0.00000
      106.500       0.00000
      106.600       0.00000
      106.700       0.00000
      106.800       0.00000
      106.900       0.00000
      107.000       0.00000
      107.100       0.00000
      107.200       0.00000
      107.300       0.00000
      107.400       0.00000
      107.500       0.00000
      107.600       0.00000
      107.700       0.00000
      107.800       0.00000
      107.900       0.00000
      108.000       0.00000
      108.100       0.00000
      108.200       0.00000
      108.300       0.00000
      108.400       0.00000
      108.500       0.00000
      108.600       0.00000
      108.700       0.00000
      108.800       0.00000
      108.900       0.00000
      109.000       0.00000
      109.100       0.00000
      109.200       0.00000
      109.300       0.00000
      109.400       0.00000
      109.500       0.00000
      109.600       0.00000
      109.700       0.00000
      109.800       0.00000
      109.900       0.00000
      110.000       0.00000
      110.100       0.00000
      110.200       0.00000
      110.300       0.00000
      110.400       0.00000
      110.500       0.00000
      110.600   1.05910e-41
      110.700   2.73039e-29
      110.800   7.51905e-20
      110.900   2.68242e-15
      111.000   9.30914e-13
      111.100   3.35172e-11
      111.200   1.08151e-10
      111.300   2.05615e-10
      111.400   3.24171e-10
      111.500   3.60804e-10
      111.600   4.02171e-10
      111.700   4.98882e-10
      111.800   6.27818e-10
      111.900   6.94375e-10
      112.000   8.19908e-10
      112.100   1.01955e-09
      112.200   1.19498e-09
      112.300   1.31259e-09
      112.400   1.42576e-09
      112.500   1.58184e-09
      112.600   1.79757e-09
      112.700   2.01677e-09
      112.800   2.12576e-09
      112.900   2.33442e-09
      113.000   2.56043e-09
      113.100   2.73656e-09
      113.200   2.88147e-09
      113.300   2.90150e-09
      113.400   3.14643e-09
      113.500   3.40142e-09
      113.600   3.43876e-09
      113.700   3.68045e-09
      113.800   3.85657e-09
      113.900   4.01081e-09
      114.000   4.10545e-09
      114.100   4.16643e-09
      114.200   4.55598e-09
      114.300   4.81073e-09
      114.400   4.75764e-09
      114.500   4.60563e-09
      114.600   4.60325e-09
      114.700   4.63109e-09
      114.800   4.70428e-09
      114.900   4.88318e-09
      115.000   5.05562e-09
      115.100   5.16406e-09
      115.200   5.19260e-09
      115.300   5.22609e-09
      115.400   5.25505e-09
      115.500   5.28641e-09
      115.600   5.31588e-09
      115.700   5.34238e-09
      115.800   5.37302e-09
      115.900   5.40159e-09
      116.000   5.42758e-09
      116.100   5.44279e-09
      116.200   5.45558e-09
      116.300   5.46722e-09
      116.400   5.46947e-09
      116.500   5.43104e-09
      116.600   5.39159e-09
      116.700   5.35340e-09
      116.800   5.31427e-09
      116.900   5.27050e-09
      117.000   5.23253e-09
      117.100   5.21047e-09
      117.200   5.19950e-09
      117.300   5.17774e-09
      117.400   5.15532e-09
      117.500   5.12411e-09
      117.600   5.06837e-09
      117.700   5.00572e-09
      117.800   4.94062e-09
      117.900   4.87470e-09
      118.000   4.80662e-09
      118.100   4.73664e-09
      118.200   4.66984e-09
      118.300   4.60488e-09
      118.400   4.53001e-09
      118.500   4.45715e-09
      118.600   4.39019e-09
      118.700   4.32249e-09
      118.800   4.25348e-09
      118.900   4.18705e-09
      119.000   4.11612e-09
      119.100   4.04011e-09
      119.200   3.98293e-09
      119.300   3.95188e-09
      119.400   3.92900e-09
      119.500   3.90060e-09
      119.600   3.85918e-09
      119.700   3.81116e-09
      119.800   3.75563e-09
      119.900   3.69019e-09
      120.000   3.62889e-09
      120.100   3.57097e-09
      120.200   3.52651e-09
      120.300   3.48982e-09
      120.400   3.45337e-09
      120.500   3.40703e-09
      120.600   3.35347e-09
      120.700   3.29806e-09
      120.800   3.24491e-09
      120.900   3.20540e-09
      121.000   3.18649e-09
      121.100   3.16593e-09
      121.200   3.14110e-09
      121.300   3.10955e-09
      121.400   3.07284e-09
      121.500   3.03200e-09
      121.600   2.96337e-09
      121.700   2.89876e-09
      121.800   2.82975e-09
      121.900   2.76119e-09
      122.000   2.69015e-09
      122.100   2.62302e-09
      122.200   2.55750e-09
      122.300   2.50554e-09
      122.400   2.46777e-09
      122.500   2.43332e-09
      122.600   2.39762e-09
      122.700   2.36228e-09
      122.800   2.32447e-09
      122.900   2.28885e-09
      123.000   2.26853e-09
      123.100   2.27426e-09
      123.200   2.28581e-09
      123.300   2.32382e-09
      123.400   2.37264e-09
      123.500   2.43691e-09
      123.600   2.49112e-09
      123.700   2.51065e-09
      123.800   2.50977e-09
      123.900   2.51601e-09
      124.000   2.53367e-09
      124.100   2.58988e-09
      124.200   2.73255e-09
      124.300   2.95369e-09
      124.400   3.16445e-09
      124.500   3.21446e-09
      124.600   3.18783e-09
      124.700   3.14205e-09
      124.800   3.09773e-09
      124.900   3.05396e-09
      125.000   3.01065e-09
      125.100   2.96691e-09
      125.200   2.92367e-09
      125.300   2.88099e-09
      125.400   2.83893e-09
      125.500   2.79746e-09
      125.600   2.74477e-09
      125.700   2.69031e-09
      125.800   2.64378e-09
      125.900   2.62601e-09
      126.000   2.61031e-09
      126.100   2.59471e-09
      126.200   2.57919e-09
      126.300   2.56377e-09
      126.400   2.54843e-09
      126.500   2.53316e-09
      126.600   2.51800e-09
      126.700   2.50292e-09
      126.800   2.48793e-09
      126.900   2.47302e-09
      127.000   2.45812e-09
      127.100   2.43810e-09
      127.200   2.41229e-09
      127.300   2.38478e-09
      127.400   2.35755e-09
      127.500   2.33062e-09
      127.600   2.30398e-09
      127.700   2.27763e-09
      127.800   2.25156e-09
      127.900   2.22576e-09
      128.000   2.20024e-09
      128.100   2.17499e-09
      128.200   2.15000e-09
      128.300   2.12528e-09
      128.400   2.10084e-09
      128.500   2.07665e-09
      128.600   2.05272e-09
      128.700   2.02906e-09
      128.800   2.00565e-09
      128.900   1.98249e-09
      129.000   1.95959e-09
      129.100   1.93691e-09
      129.200   1.91435e-09
      129.300   1.89204e-09
      129.400   1.86998e-09
      129.500   1.84817e-09
      129.600   1.82660e-09
      129.700   1.80528e-09
      129.800   1.78420e-09
      129.900   1.76336e-09
      130.000   1.74276e-09
      130.100   1.72240e-09
      130.200   1.70226e-09
      130.300   1.68236e-09
      130.400   1.66269e-09
      130.500   1.64323e-09
      130.600   1.62393e-09
      130.700   1.60482e-09
      130.800   1.58594e-09
      130.900   1.56727e-09
      131.000   1.54881e-09
      131.100   1.53057e-09
      131.200   1.51252e-09
      131.300   1.49464e-09
      131.400   1.47697e-09
      131.500   1.45949e-09
      131.600   1.44221e-09
      131.700   1.42512e-09
      131.800   1.40822e-09
      131.900   1.39150e-09
      132.000   1.37498e-09
      132.100   1.35863e-09
      132.200   1.34247e-09
      132.300   1.32648e-09
      132.400   1.31067e-09
      132.500   1.29505e-09
      132.600   1.27961e-09
      132.700   1.26345e-09
      132.800   1.24718e-09
      132.900   1.23107e-09
      133.000   1.21515e-09
      133.100   1.19943e-09
      133.200   1.18390e-09
      133.300   1.16856e-09
      133.400   1.15340e-09
      133.500   1.13843e-09
      133.600   1.12364e-09
      133.700   1.10904e-09
      133.800   1.09463e-09
      133.900   1.08041e-09
      134.000   1.06637e-09
      134.100   1.05251e-09
      134.200   1.03883e-09
      134.300   1.02532e-09
      134.400   1.01198e-09
      134.500   9.98817e-10
      134.600   9.85817e-10
      134.700   9.72983e-10
      134.800   9.60316e-10
      134.900   9.47816e-10
      135.000   9.35473e-10
      135.100   9.23296e-10
      135.200   9.11276e-10
      135.300   8.99408e-10
      135.400   8.87688e-10
      135.500   8.76088e-10
      135.600   8.64614e-10
      135.700   8.53283e-10
      135.800   8.42093e-10
      135.900   8.31045e-10
      136.000   8.20132e-10
      136.100   8.09354e-10
      136.200   7.98725e-10
      136.300   7.88224e-10
      136.400   7.77858e-10
      136.500   7.67622e-10
      136.600   7.57510e-10
      136.700   7.47525e-10
      136.800   7.37666e-10
      136.900   7.27933e-10
      137.000   7.18329e-10
      137.100   7.08860e-10
      137.200   6.99514e-10
      137.300   6.90295e-10
      137.400   6.81195e-10
      137.500   6.72207e-10
      137.600   6.63329e-10
      137.700   6.54553e-10
      137.800   6.45883e-10
      137.900   6.37322e-10
      138.000   6.28873e-10
      138.100   6.20531e-10
      138.200   6.12309e-10
      138.300   6.04192e-10
      138.400   5.96183e-10
      138.500   5.88276e-10
      138.600   5.80471e-10
      138.700   5.72768e-10
      138.800   5.65164e-10
      138.900   5.57659e-10
      139.000   5.50250e-10
      139.100   5.42946e-10
      139.200   5.35773e-10
      139.300   5.28730e-10
      139.400   5.21788e-10
      139.500   5.14935e-10
      139.600   5.08166e-10
      139.700   5.01484e-10
      139.800   4.94886e-10
      139.900   4.88370e-10
      140.000   4.81942e-10
      140.100   4.75594e-10
      140.200   4.69327e-10
      140.300   4.63138e-10
      140.400   4.57027e-10
      140.500   4.50991e-10
      140.600   4.45029e-10
      140.700   4.39142e-10
      140.800   4.33338e-10
      140.900   4.27607e-10
      141.000   4.21945e-10
      141.100   4.16354e-10
      141.200   4.10835e-10
      141.300   4.05382e-10
      141.400   4.00015e-10
      141.500   3.94796e-10
      141.600   3.89697e-10
      141.700   3.84663e-10
      141.800   3.79691e-10
      141.900   3.74780e-10
      142.000   3.69929e-10
      142.100   3.65281e-10
      142.200   3.61106e-10
      142.300   3.57333e-10
      142.400   3.53601e-10
      142.500   3.49903e-10
      142.600   3.46239e-10
      142.700   3.42609e-10
      142.800   3.39015e-10
      142.900   3.35455e-10
      143.000   3.31929e-10
      143.100   3.28438e-10
      143.200   3.24984e-10
      143.300   3.21561e-10
      143.400   3.18173e-10
      143.500   3.14817e-10
      143.600   3.11493e-10
      143.700   3.08226e-10
      143.800   3.05335e-10
      143.900   3.02530e-10
      144.000   2.99754e-10
      144.100   2.97001e-10
      144.200   2.94271e-10
      144.300   2.91562e-10
      144.400   2.88907e-10
      144.500   2.86705e-10
      144.600   2.84652e-10
      144.700   2.82625e-10
      144.800   2.80607e-10
      144.900   2.78598e-10
      145.000   2.76599e-10
      145.100   2.74610e-10
      145.200   2.72630e-10
      145.300   2.70660e-10
      145.400   2.68700e-10
      145.500   2.66748e-10
      145.600   2.64804e-10
      145.700   2.62869e-10
      145.800   2.60945e-10
      145.900   2.59031e-10
      146.000   2.57123e-10
      146.100   2.55198e-10
      146.200   2.53263e-10
      146.300   2.51338e-10
      146.400   2.49421e-10
      146.500   2.47517e-10
      146.600   2.45622e-10
      146.700   2.43738e-10
      146.800   2.41849e-10
      146.900   2.39949e-10
      147.000   2.38059e-10
      147.100   2.36181e-10
      147.200   2.34315e-10
      147.300   2.32459e-10
      147.400   2.30616e-10
      147.500   2.28783e-10
      147.600   2.26961e-10
      147.700   2.25151e-10
      147.800   2.23353e-10
      147.900   2.21566e-10
      148.000   2.19790e-10
      148.100   2.18025e-10
      148.200   2.16272e-10
      148.300   2.14531e-10
      148.400   2.13124e-10
      148.500   2.11974e-10
      148.600   2.10915e-10
      148.700   2.09858e-10
      148.800   2.08804e-10
      148.900   2.07754e-10
      149.000   2.06707e-10
      149.100   2.05662e-10
      149.200   2.04620e-10
      149.300   2.03580e-10
      149.400   2.02543e-10
      149.500   2.01509e-10
      149.600   2.00478e-10
      149.700   1.99449e-10
      149.800   1.98423e-10
      149.900   1.97400e-10
      150.000   1.96380e-10
      150.100   1.95364e-10
      150.200   1.94347e-10
      150.300   1.93335e-10
      150.400   1.92326e-10
      150.500   1.91319e-10
      150.600   1.90315e-10
      150.700   1.89313e-10
      150.800   1.88314e-10
      150.900   1.87318e-10
      151.000   1.86323e-10
      151.100   1.85332e-10
      151.200   1.84343e-10
      151.300   1.83357e-10
      151.400   1.82373e-10
      151.500   1.81393e-10
      151.600   1.80417e-10
      151.700   1.79447e-10
      151.800   1.78480e-10
      151.900   1.77515e-10
      152.000   1.76619e-10
      152.100   1.76414e-10
      152.200   1.76295e-10
      152.300   1.76172e-10
      152.400   1.76046e-10
      152.500   1.75920e-10
      152.600   1.75791e-10
      152.700   1.74970e-10
      152.800   1.73903e-10
      152.900   1.72837e-10
      153.000   1.71776e-10
      153.100   1.70720e-10
      153.200   1.69668e-10
      153.300   1.68842e-10
      153.400   1.68231e-10
      153.500   1.67644e-10
      153.600   1.67058e-10
      153.700   1.66474e-10
      153.800   1.65889e-10
      153.900   1.65304e-10
      154.000   1.64740e-10
      154.100   1.64221e-10
      154.200   1.63715e-10
      154.300   1.63209e-10
      154.400   1.62704e-10
      154.500   1.62198e-10
      154.600   1.61692e-10
      154.700   1.61187e-10
      154.800   1.60682e-10
      154.900   1.60176e-10
      155.000   1.59670e-10
      155.100   1.59165e-10
      155.200   1.58658e-10
      155.300   1.58152e-10
      155.400   1.57645e-10
      155.500   1.57139e-10
      155.600   1.56631e-10
      155.700   1.56123e-10
      155.800   1.55615e-10
      155.900   1.55106e-10
      156.000   1.54597e-10
      156.100   1.54087e-10
      156.200   1.53577e-10
      156.300   1.53067e-10
      156.400   1.52556e-10
      156.500   1.52038e-10
      156.600   1.51486e-10
      156.700   1.50932e-10
      156.800   1.50378e-10
      156.900   1.49824e-10
      157.000   1.49272e-10
      157.100   1.48668e-10
      157.200   1.47725e-10
      157.300   1.46419e-10
      157.400   1.45123e-10
      157.500   1.43835e-10
      157.600   1.42558e-10
      157.700   1.41289e-10
      157.800   1.40029e-10
      157.900   1.39542e-10
      158.000   1.39123e-10
      158.100   1.38705e-10
      158.200   1.38285e-10
      158.300   1.37866e-10
      158.400   1.37446e-10
      158.500   1.37027e-10
      158.600   1.36606e-10
      158.700   1.36184e-10
      158.800   1.35764e-10
      158.900   1.35343e-10
      159.000   1.34922e-10
      159.100   1.34477e-10
      159.200   1.33760e-10
      159.300   1.32600e-10
      159.400   1.31449e-10
      159.500   1.30306e-10
      159.600   1.29171e-10
      159.700   1.28046e-10
      159.800   1.26927e-10
      159.900   1.26358e-10
      160.000   1.26161e-10
      160.100   1.25973e-10
      160.200   1.25785e-10
      160.300   1.25596e-10
      160.400   1.25407e-10
      160.500   1.25154e-10
      160.600   1.24545e-10
      160.700   1.23675e-10
      160.800   1.22810e-10
      160.900   1.21949e-10
      161.000   1.21093e-10
      161.100   1.20242e-10
      161.200   1.19395e-10
      161.300   1.18552e-10
      161.400   1.17714e-10
      161.500   1.16881e-10
      161.600   1.16052e-10
      161.700   1.15225e-10
      161.800   1.14403e-10
      161.900   1.13601e-10
      162.000   1.12936e-10
      162.100   1.12354e-10
      162.200   1.11773e-10
      162.300   1.11193e-10
      162.400   1.10616e-10
      162.500   1.10039e-10
      162.600   1.09464e-10
      162.700   1.08891e-10
      162.800   1.08318e-10
      162.900   1.07748e-10
      163.000   1.07180e-10
      163.100   1.06613e-10
      163.200   1.06047e-10
      163.300   1.05482e-10
      163.400   1.04920e-10
      163.500   1.04359e-10
      163.600   1.03800e-10
      163.700   1.03242e-10
      163.800   1.02687e-10
      163.900   1.02133e-10
      164.000   1.01580e-10
      164.100   1.00911e-10
      164.200   9.99209e-11
      164.300   9.89451e-11
      164.400   9.79779e-11
      164.500   9.70193e-11
      164.600   9.60692e-11
      164.700   9.51267e-11
      164.800   9.43038e-11
      164.900   9.37306e-11
      165.000   9.32584e-11
      165.100   9.27875e-11
      165.200   9.23181e-11
      165.300   9.18504e-11
      165.400   9.13848e-11
      165.500   9.09206e-11
      165.600   9.01479e-11
      165.700   8.92466e-11
      165.800   8.83432e-11
      165.900   8.74483e-11
      166.000   8.65623e-11
      166.100   8.56844e-11
      166.200   8.48148e-11
      166.300   8.39534e-11
      166.400   8.30998e-11
      166.500   8.22539e-11
      166.600   8.14160e-11
      166.700   8.05858e-11
      166.800   7.97624e-11
      166.900   7.89471e-11
      167.000   7.81406e-11
      167.100   7.73401e-11
      167.200   7.65471e-11
      167.300   7.57614e-11
      167.400   7.49832e-11
      167.500   7.42119e-11
      167.600   7.34477e-11
      167.700   7.26909e-11
      167.800   7.19410e-11
      167.900   7.11978e-11
      168.000   7.04615e-11
      168.100   6.97320e-11
      168.200   6.90092e-11
      168.300   6.82930e-11
      168.400   6.75835e-11
      168.500   6.68866e-11
      168.600   6.63413e-11
      168.700   6.58768e-11
      168.800   6.54149e-11
      168.900   6.49557e-11
      169.000   6.44992e-11
      169.100   6.40447e-11
      169.200   6.35932e-11
      169.300   6.31440e-11
      169.400   6.26973e-11
      169.500   6.22494e-11
      169.600   6.17894e-11
      169.700   6.13156e-11
      169.800   6.08399e-11
      169.900   6.03665e-11
      170.000   5.98956e-11
      170.100   5.92244e-11
      170.200   5.82633e-11
      170.300   7.58783e-11
      170.400   1.62884e-10
      170.500   3.08437e-10
      170.600   4.53624e-10
      170.700   5.69136e-10
      170.800   6.21972e-10
      170.900   6.24477e-10
      171.000   6.15815e-10
      171.100   6.07490e-10
      171.200   5.99240e-10
      171.300   5.91063e-10
      171.400   5.82962e-10
      171.500   5.74936e-10
      171.600   5.66987e-10
      171.700   5.59123e-10
      171.800   5.51343e-10
      171.900   5.43654e-10
      172.000   5.36062e-10
      172.100   5.28567e-10
      172.200   5.21176e-10
      172.300   5.13871e-10
      172.400   5.06567e-10
      172.500   4.99349e-10
      172.600   4.92239e-10
      172.700   4.85237e-10
      172.800   4.78339e-10
      172.900   4.71544e-10
      173.000   4.64856e-10
      173.100   4.58271e-10
      173.200   4.51784e-10
      173.300   4.45399e-10
      173.400   4.39108e-10
      173.500   4.32915e-10
      173.600   4.26819e-10
      173.700   4.20812e-10
      173.800   4.14900e-10
      173.900   4.09077e-10
      174.000   4.03339e-10
      174.100   3.97687e-10
      174.200   3.92119e-10
      174.300   3.86631e-10
      174.400   3.81224e-10
      174.500   3.75892e-10
      174.600   3.70635e-10
      174.700   3.65454e-10
      174.800   3.60347e-10
      174.900   3.55308e-10
      175.000   3.50337e-10
      175.100   3.45432e-10
      175.200   3.40609e-10
      175.300   3.35846e-10
      175.400   3.31148e-10
      175.500   3.26516e-10
      175.600   3.21945e-10
      175.700   3.17437e-10
      175.800   3.12988e-10
      175.900   3.08601e-10
      176.000   3.04272e-10
      176.100   3.00004e-10
      176.200   2.95794e-10
      176.300   2.91639e-10
      176.400   2.87543e-10
      176.500   2.83493e-10
      176.600   2.77902e-10
      176.700   2.71668e-10
      176.800   2.65569e-10
      176.900   2.59605e-10
      177.000   2.53770e-10
      177.100   2.48061e-10
      177.200   2.42479e-10
      177.300   2.37019e-10
      177.400   2.31675e-10
      177.500   2.26447e-10
      177.600   2.21334e-10
      177.700   2.16333e-10
      177.800   2.11441e-10
      177.900   2.06653e-10
      178.000   2.01983e-10
      178.100   1.97417e-10
      178.200   1.92949e-10
      178.300   1.88577e-10
      178.400   1.84303e-10
      178.500   1.80122e-10
      178.600   1.76110e-10
      178.700   1.72613e-10
      178.800   1.69855e-10
      178.900   1.67139e-10
      179.000   1.64464e-10
      179.100   1.61830e-10
      179.200   1.59236e-10
      179.300   1.56683e-10
      179.400   1.54169e-10
      179.500   1.51695e-10
      179.600   1.49260e-10
      179.700   1.46864e-10
      179.800   1.44506e-10
      179.900   1.42185e-10
      180.000   1.39901e-10
      180.100   1.37653e-10
      180.200   1.35443e-10
      180.300   1.33268e-10
      180.400   1.31129e-10
      180.500   1.29025e-10
      180.600   1.26954e-10
      180.700   1.24918e-10
      180.800   1.22916e-10
      180.900   1.20945e-10
      181.000   1.19007e-10
      181.100   1.17101e-10
      181.200   1.15226e-10
      181.300   1.13382e-10
      181.400   1.11569e-10
      181.500   1.09785e-10
      181.600   1.08030e-10
      181.700   1.06304e-10
      181.800   1.04606e-10
      181.900   1.02936e-10
      182.000   1.01294e-10
      182.100   9.96768e-11
      182.200   9.80987e-11
      182.300   9.66540e-11
      182.400   9.52384e-11
      182.500   9.38434e-11
      182.600   9.24690e-11
      182.700   9.11146e-11
      182.800   8.97801e-11
      182.900   8.84648e-11
      183.000   8.71690e-11
      183.100   8.58923e-11
      183.200   8.46338e-11
      183.300   8.33933e-11
      183.400   8.21708e-11
      183.500   8.09661e-11
      183.600   7.97788e-11
      183.700   7.86086e-11
      183.800   7.74564e-11
      183.900   7.63212e-11
      184.000   7.52024e-11
      184.100   7.41003e-11
      184.200   7.30140e-11
      184.300   7.19437e-11
      184.400   7.08892e-11
      184.500   6.98500e-11
      184.600   6.88256e-11
      184.700   6.78162e-11
      184.800   6.68215e-11
      184.900   6.58411e-11
      185.000   6.48749e-11
      185.100   6.39324e-11
      185.200   6.30523e-11
      185.300   6.22480e-11
      185.400   6.14536e-11
      185.500   6.06689e-11
      185.600   5.98940e-11
      185.700   5.91288e-11
      185.800   5.83736e-11
      185.900   5.76278e-11
      186.000   5.68912e-11
      186.100   5.61635e-11
      186.200   5.54447e-11
      186.300   5.47343e-11
      186.400   5.40329e-11
      186.500   5.33401e-11
      186.600   5.26553e-11
      186.700   5.19785e-11
      186.800   5.13097e-11
      186.900   5.06491e-11
      187.000   4.99963e-11
      187.100   4.93508e-11
      187.200   4.87136e-11
      187.300   4.80842e-11
      187.400   4.74622e-11
      187.500   4.68477e-11
      187.600   4.62406e-11
      187.700   4.56408e-11
      187.800   4.50482e-11
      187.900   4.44627e-11
      188.000   4.38845e-11
      188.100   4.32879e-11
      188.200   4.26099e-11
      188.300   4.18302e-11
      188.400   4.10643e-11
      188.500   4.03121e-11
      188.600   3.95735e-11
      188.700   3.88485e-11
      188.800   3.81367e-11
      188.900   3.74377e-11
      189.000   3.67510e-11
      189.100   3.60766e-11
      189.200   3.54143e-11
      189.300   3.47640e-11
      189.400   3.41257e-11
      189.500   3.35018e-11
      189.600   3.29328e-11
      189.700   3.25413e-11
      189.800   3.21573e-11
      189.900   3.17783e-11
      190.000   3.14040e-11
      190.100   3.10343e-11
      190.200   3.06691e-11
      190.300   3.03083e-11
      190.400   2.99517e-11
      190.500   2.95995e-11
      190.600   2.92516e-11
      190.700   2.89079e-11
      190.800   2.85683e-11
      190.900   2.82329e-11
      191.000   2.79017e-11
      191.100   2.75747e-11
      191.200   2.72513e-11
      191.300   2.69320e-11
      191.400   2.66166e-11
      191.500   2.63048e-11
      191.600   2.59968e-11
      191.700   2.56924e-11
      191.800   2.53915e-11
      191.900   2.50942e-11
      192.000   2.48007e-11
      192.100   2.45105e-11
      192.200   2.42242e-11
      192.300   2.39411e-11
      192.400   2.36613e-11
      192.500   2.33686e-11
      192.600   2.30269e-11
      192.700   2.26482e-11
      192.800   2.22756e-11
      192.900   2.19088e-11
      193.000   2.15481e-11
      193.100   2.11936e-11
      193.200   2.08450e-11
      193.300   2.05023e-11
      193.400   2.01653e-11
      193.500   1.98338e-11
      193.600   1.95076e-11
      193.700   1.91867e-11
      193.800   1.88713e-11
      193.900   1.85611e-11
      194.000   1.82612e-11
      194.100   1.80711e-11
      194.200   1.79185e-11
      194.300   1.77699e-11
      194.400   1.76225e-11
      194.500   1.74766e-11
      194.600   1.73318e-11
      194.700   1.71884e-11
      194.800   1.70462e-11
      194.900   1.69051e-11
      195.000   1.67654e-11
      195.100   1.66269e-11
      195.200   1.64895e-11
      195.300   1.63533e-11
      195.400   1.62182e-11
      195.500   1.60823e-11
      195.600   1.58976e-11
      195.700   1.56318e-11
      195.800   1.53703e-11
      195.900   1.51130e-11
      196.000   1.48572e-11
      196.100   1.46056e-11
      196.200   1.43581e-11
      196.300   1.41145e-11
      196.400   1.38750e-11
      196.500   1.36392e-11
      196.600   1.34073e-11
      196.700   1.31791e-11
      196.800   1.29547e-11
      196.900   1.27342e-11
      197.000   1.25172e-11
      197.100   1.23038e-11
      197.200   1.20938e-11
      197.300   1.18871e-11
      197.400   1.16836e-11
      197.500   1.14835e-11
      197.600   1.12866e-11
      197.700   1.10933e-11
      197.800   1.09032e-11
      197.900   1.07160e-11
      198.000   1.05319e-11
      198.100   1.03508e-11
      198.200   1.01727e-11
      198.300   9.99733e-12
      198.400   9.82497e-12
      198.500   9.65568e-12
      198.600   9.48924e-12
      198.700   9.33960e-12
      198.800   9.21212e-12
      198.900   9.09600e-12
      199.000   8.98122e-12
      199.100   8.86782e-12
      199.200   8.75581e-12
      199.300   8.64533e-12
      199.400   8.53621e-12
      199.500   8.42844e-12
      199.600   8.32195e-12
      199.700   8.21679e-12
      199.800   8.11294e-12
      199.900   8.01035e-12
      200.000   7.90900e-12
      200.100   7.80943e-12
      200.200   7.71073e-12
      200.300   7.61334e-12
      200.400   7.51713e-12
      200.500   7.42210e-12
      200.600   7.32831e-12
      200.700   7.23570e-12
      200.800   7.14419e-12
      200.900   7.05391e-12
      201.000   6.96475e-12
      201.100   6.87677e-12
      201.200   6.78990e-12
      201.300   6.70410e-12
      201.400   6.61943e-12
      201.500   6.53581e-12
      201.600   6.45322e-12
      201.700   6.37170e-12
      201.800   6.29120e-12
      201.900   6.20985e-12
      202.000   6.09949e-12
      202.100   5.97680e-12
      202.200   5.85659e-12
      202.300   5.73931e-12
      202.400   5.62542e-12
      202.500   5.51407e-12
      202.600   5.40484e-12
      202.700   5.29781e-12
      202.800   5.19291e-12
      202.900   5.09013e-12
      203.000   4.98940e-12
      203.100   4.89071e-12
      203.200   4.79391e-12
      203.300   4.69898e-12
      203.400   4.60594e-12
      203.500   4.51475e-12
      203.600   4.42832e-12
      203.700   4.35185e-12
      203.800   4.27781e-12
      203.900   4.20510e-12
      204.000   4.13362e-12
      204.100   4.06338e-12
      204.200   3.99436e-12
      204.300   3.92652e-12
      204.400   3.85986e-12
      204.500   3.79434e-12
      204.600   3.72994e-12
      204.700   3.66665e-12
      204.800   3.60452e-12
      204.900   3.54347e-12
      205.000   3.48347e-12
      205.100   3.42451e-12
      205.200   3.36655e-12
      205.300   3.30960e-12
      205.400   3.25363e-12
      205.500   3.19860e-12
      205.600   3.14452e-12
      205.700   3.09089e-12
      205.800   3.03806e-12
      205.900   2.98615e-12
      206.000   2.93517e-12
      206.100   2.88505e-12
      206.200   2.83576e-12
      206.300   2.78734e-12
      206.400   2.73975e-12
      206.500   2.69294e-12
      206.600   2.64693e-12
      206.700   2.60170e-12
      206.800   2.55722e-12
      206.900   2.51348e-12
      207.000   2.47049e-12
      207.100   2.42824e-12
      207.200   2.38672e-12
      207.300   2.34588e-12
      207.400   2.30571e-12
      207.500   2.26621e-12
      207.600   2.22737e-12
      207.700   2.18916e-12
      207.800   2.15159e-12
      207.900   2.11464e-12
      208.000   2.07830e-12
      208.100   2.04257e-12
      208.200   2.00743e-12
      208.300   1.97287e-12
      208.400   1.93890e-12
      208.500   1.90550e-12
      208.600   1.87263e-12
      208.700   1.84031e-12
      208.800   1.80853e-12
      208.900   1.77622e-12
      209.000   1.73999e-12
      209.100   1.70150e-12
      209.200   1.66383e-12
      209.300   1.62694e-12
      209.400   1.59087e-12
      209.500   1.55556e-12
      209.600   1.52100e-12
      209.700   1.48721e-12
      209.800   1.45418e-12
      209.900   1.42184e-12
      210.000   1.39020e-12
      210.100   1.35925e-12
      210.200   1.32897e-12
      210.300   1.29934e-12
      210.400   1.27035e-12
      210.500   1.24199e-12
      210.600   1.21424e-12
      210.700   1.18710e-12
      210.800   1.16055e-12
      210.900   1.13458e-12
      211.000   1.10917e-12
      211.100   1.08431e-12
      211.200   1.06000e-12
      211.300   1.03624e-12
      211.400   1.01302e-12
      211.500   9.90290e-13
      211.600   9.68062e-13
      211.700   9.46324e-13
      211.800   9.25050e-13
      211.900   9.04245e-13
      212.000   8.83909e-13
      212.100   8.64012e-13
      212.200   8.44549e-13
      212.300   8.24754e-13
      212.400   8.03189e-13
      212.500   7.81302e-13
      212.600   7.59999e-13
      212.700   7.39261e-13
      212.800   7.19075e-13
      212.900   6.99435e-13
      213.000   6.80315e-13
      213.100   6.61725e-13
      213.200   6.43631e-13
      213.300   6.26022e-13
      213.400   6.08881e-13
      213.500   5.92200e-13
      213.600   5.75964e-13
      213.700   5.60168e-13
      213.800   5.44792e-13
      213.900   5.29838e-13
      214.000   5.15281e-13
      214.100   5.01348e-13
      214.200   4.90560e-13
      214.300   4.81822e-13
      214.400   4.73238e-13
      214.500   4.64807e-13
      214.600   4.56526e-13
      214.700   4.48393e-13
      214.800   4.40405e-13
      214.900   4.32562e-13
      215.000   4.24855e-13
      215.100   4.17287e-13
      215.200   4.09859e-13
      215.300   4.02567e-13
      215.400   3.95403e-13
      215.500   3.88368e-13
      215.600   3.81465e-13
      215.700   3.74681e-13
      215.800   3.68018e-13
      215.900   3.61479e-13
      216.000   3.54506e-13
      216.100   3.46350e-13
      216.200   3.37888e-13
      216.300   3.29634e-13
      216.400   3.21581e-13
      216.500   3.13721e-13
      216.600   3.06055e-13
      216.700   2.98578e-13
      216.800   2.91283e-13
      216.900   2.84167e-13
      217.000   2.77224e-13
      217.100   2.70449e-13
      217.200   2.63841e-13
      217.300   2.57395e-13
      217.400   2.51105e-13
      217.500   2.44971e-13
      217.600   2.38984e-13
      217.700   2.33141e-13
      217.800   2.27443e-13
      217.900   2.21865e-13
      218.000   2.15888e-13
      218.100   2.10070e-13
      218.200   2.04408e-13
      218.300   1.98900e-13
      218.400   1.93544e-13
      218.500   1.88329e-13
      218.600   1.83254e-13
      218.700   1.78313e-13
      218.800   1.73503e-13
      218.900   1.68824e-13
      219.000   1.64267e-13
      219.100   1.59831e-13
      219.200   1.55513e-13
      219.300   1.51311e-13
      219.400   1.47220e-13
      219.500   1.43237e-13
      219.600   1.39361e-13
      219.700   1.35587e-13
      219.800   1.31915e-13
      219.900   1.28340e-13
      220.000   1.24859e-13
      220.100   1.21471e-13
      220.200   1.18173e-13
      220.300   1.14963e-13
      220.400   1.11838e-13
      220.500   1.08797e-13
      220.600   1.05838e-13
      220.700   1.02956e-13
      220.800   1.00150e-13
      220.900   9.74215e-14
      221.000   9.47643e-14
      221.100   9.21774e-14
      221.200   8.96610e-14
      221.300   8.72114e-14
      221.400   8.48268e-14
      221.500   8.25067e-14
      221.600   8.02483e-14
      221.700   7.80502e-14
      221.800   7.60513e-14
      221.900   7.44727e-14
      222.000   7.30297e-14
      222.100   7.16133e-14
      222.200   7.02241e-14
      222.300   6.88610e-14
      222.400   6.75240e-14
      222.500   6.62122e-14
      222.600   6.49256e-14
      222.700   6.36632e-14
      222.800   6.24244e-14
      222.900   6.12094e-14
      223.000   6.00175e-14
      223.100   5.88479e-14
      223.200   5.77009e-14
      223.300   5.65755e-14
      223.400   5.54718e-14
      223.500   5.43887e-14
      223.600   5.33268e-14
      223.700   5.22849e-14
      223.800   5.12441e-14
      223.900   5.00945e-14
      224.000   4.89512e-14
      224.100   4.78336e-14
      224.200   4.67409e-14
      224.300   4.56727e-14
      224.400   4.46279e-14
      224.500   4.36070e-14
      224.600   4.26085e-14
      224.700   4.16329e-14
      224.800   4.06786e-14
      224.900   3.97456e-14
      225.000   3.88337e-14
      225.100   3.79421e-14
      225.200   3.70703e-14
      225.300   3.62187e-14
      225.400   3.53855e-14
      225.500   3.45712e-14
      225.600   3.37751e-14
      225.700   3.29972e-14
      225.800   3.22365e-14
      225.900   3.16700e-14
      226.000   3.11854e-14
      226.100   3.07154e-14
      226.200   3.02524e-14
      226.300   2.97982e-14
      226.400   2.93520e-14
      226.500   2.89116e-14
      226.600   2.84770e-14
      226.700   2.80484e-14
      226.800   2.76258e-14
      226.900   2.72094e-14
      227.000   2.67989e-14
      227.100   2.63944e-14
      227.200   2.59961e-14
      227.300   2.56038e-14
      227.400   2.52172e-14
      227.500   2.48363e-14
      227.600   2.44612e-14
      227.700   2.40917e-14
      227.800   2.37278e-14
      227.900   2.33404e-14
      228.000   2.28841e-14
      228.100   2.23940e-14
      228.200   2.19142e-14
      228.300   2.14447e-14
      228.400   2.09853e-14
      228.500   2.05356e-14
      228.600   2.00956e-14
      228.700   1.96649e-14
      228.800   1.92433e-14
      228.900   1.88310e-14
      229.000   1.84275e-14
      229.100   1.80325e-14
      229.200   1.76460e-14
      229.300   1.72679e-14
      229.400   1.68978e-14
      229.500   1.65358e-14
      229.600   1.61814e-14
      229.700   1.58347e-14
      229.800   1.54955e-14
      229.900   1.51636e-14
      230.000   1.48352e-14
      230.100   1.44866e-14
      230.200   1.41297e-14
      230.300   1.37819e-14
      230.400   1.34424e-14
      230.500   1.31114e-14
      230.600   1.27887e-14
      230.700   1.24739e-14
      230.800   1.21668e-14
      230.900   1.18674e-14
      231.000   1.15752e-14
      231.100   1.12902e-14
      231.200   1.10123e-14
      231.300   1.07412e-14
      231.400   1.04768e-14
      231.500   1.02189e-14
      231.600   9.96717e-15
      231.700   9.72175e-15
      231.800   9.48239e-15
      231.900   9.24886e-15
      232.000   9.02105e-15
      232.100   8.79882e-15
      232.200   8.61063e-15
      232.300   8.46656e-15
      232.400   8.33559e-15
      232.500   8.20667e-15
      232.600   8.07979e-15
      232.700   7.95490e-15
      232.800   7.83197e-15
      232.900   7.71090e-15
      233.000   7.59160e-15
      233.100   7.47419e-15
      233.200   7.35864e-15
      233.300   7.24489e-15
      233.400   7.13293e-15
      233.500   7.02270e-15
      233.600   6.91424e-15
      233.700   6.80745e-15
      233.800   6.69954e-15
      233.900   6.59289e-15
      234.000   6.48797e-15
      234.100   6.38470e-15
      234.200   6.28314e-15
      234.300   6.18316e-15
      234.400   6.08477e-15
      234.500   5.98795e-15
      234.600   5.89266e-15
      234.700   5.79892e-15
      234.800   5.70668e-15
      234.900   5.61588e-15
      235.000   5.52651e-15
      235.100   5.43856e-15
      235.200   5.35203e-15
      235.300   5.26687e-15
      235.400   5.18303e-15
      235.500   5.10056e-15
      235.600   5.01941e-15
      235.700   4.93950e-15
      235.800   4.86092e-15
      235.900   4.78358e-15
      236.000   4.70749e-15
      236.100   4.63257e-15
      236.200   4.55884e-15
      236.300   4.48627e-15
      236.400   4.41487e-15
      236.500   4.34458e-15
      236.600   4.27840e-15
      236.700   4.21982e-15
      236.800   4.16620e-15
      236.900   4.11324e-15
      237.000   4.06093e-15
      237.100   4.00928e-15
      237.200   3.95828e-15
      237.300   3.90792e-15
      237.400   3.85818e-15
      237.500   3.80907e-15
      237.600   3.76049e-15
      237.700   3.71257e-15
      237.800   3.66525e-15
      237.900   3.61849e-15
      238.000   3.57233e-15
      238.100   3.52672e-15
      238.200   3.48169e-15
      238.300   3.43720e-15
      238.400   3.39325e-15
      238.500   3.34985e-15
      238.600   3.30698e-15
      238.700   3.26464e-15
      238.800   3.22282e-15
      238.900   3.18399e-15
      239.000   3.15427e-15
      239.100   3.12581e-15
      239.200   3.09759e-15
      239.300   3.06959e-15
      239.400   3.04182e-15
      239.500   3.01430e-15
      239.600   2.98697e-15
      239.700   2.95988e-15
      239.800   2.93302e-15
      239.900   2.90637e-15
      240.000   2.87993e-15
      240.100   2.85370e-15
      240.200   2.82769e-15
      240.300   2.80190e-15
      240.400   2.77631e-15
      240.500   2.75093e-15
      240.600   2.72577e-15
      240.700   2.70080e-15
      240.800   2.67602e-15
      240.900   2.65147e-15
      241.000   2.62711e-15
      241.100   2.60296e-15
      241.200   2.57901e-15
      241.300   2.55524e-15
      241.400   2.53169e-15
      241.500   2.50833e-15
      241.600   2.48516e-15
      241.700   2.46219e-15
      241.800   2.43941e-15
      241.900   2.41682e-15
      242.000   2.39443e-15
      242.100   2.37223e-15
      242.200   2.35023e-15
      242.300   2.32843e-15
      242.400   2.30680e-15
      242.500   2.28537e-15
      242.600   2.26413e-15
      242.700   2.24306e-15
      242.800   2.22220e-15
      242.900   2.20151e-15
      243.000   2.18101e-15
      243.100   2.16069e-15
      243.200   2.14055e-15
      243.300   2.12058e-15
      243.400   2.10081e-15
      243.500   2.08122e-15
      243.600   2.06181e-15
      243.700   2.04258e-15
      243.800   2.02352e-15
      243.900   2.00464e-15
      244.000   1.98593e-15
      244.100   1.96740e-15
      244.200   1.94904e-15
      244.300   1.93085e-15
      244.400   1.91282e-15
      244.500   1.89498e-15
      244.600   1.87729e-15
      244.700   1.85977e-15
      244.800   1.84244e-15
      244.900   1.82526e-15
      245.000   1.80824e-15
      245.100   1.79138e-15
      245.200   1.77468e-15
      245.300   1.75815e-15
      245.400   1.74176e-15
      245.500   1.72554e-15
      245.600   1.70948e-15
      245.700   1.69356e-15
      245.800   1.67779e-15
      245.900   1.66219e-15
      246.000   1.64674e-15
      246.100   1.63144e-15
      246.200   1.61628e-15
      246.300   1.60127e-15
      246.400   1.58641e-15
      246.500   1.57169e-15
      246.600   1.55710e-15
      246.700   1.54266e-15
      246.800   1.52836e-15
      246.900   1.51420e-15
      247.000   1.50018e-15
      247.100   1.48629e-15
      247.200   1.47255e-15
      247.300   1.45894e-15
      247.400   1.44545e-15
      247.500   1.43210e-15
      247.600   1.41887e-15
      247.700   1.40578e-15
      247.800   1.39281e-15
      247.900   1.37996e-15
      248.000   1.36724e-15
      248.100   1.35466e-15
      248.200   1.34220e-15
      248.300   1.32985e-15
      248.400   1.31762e-15
      248.500   1.30236e-15
      248.600   1.28206e-15
      248.700   1.25873e-15
      248.800   1.23582e-15
      248.900   1.21333e-15
      249.000   1.19125e-15
      249.100   1.16961e-15
      249.200   1.14837e-15
      249.300   1.12751e-15
      249.400   1.10702e-15
      249.500   1.08691e-15
      249.600   1.06717e-15
      249.700   1.04778e-15
      249.800   1.02874e-15
      249.900   1.01005e-15
      250.000   9.91694e-16
      250.100   9.73702e-16
      250.200   9.56029e-16
      250.300   9.38697e-16
      250.400   9.21673e-16
      250.500   9.04958e-16
      250.600   8.88552e-16
      250.700   8.72438e-16
      250.800   8.56618e-16
      250.900   8.41087e-16
      251.000   8.25836e-16
      251.100   8.10861e-16
      251.200   7.96167e-16
      251.300   7.81750e-16
      251.400   7.67597e-16
      251.500   7.53696e-16
      251.600   7.34875e-16
      251.700   7.06609e-16
      251.800   6.77985e-16
      251.900   6.50492e-16
      252.000   6.24085e-16
      252.100   5.98738e-16
      252.200   5.74387e-16
      252.300   5.51034e-16
      252.400   5.28638e-16
      252.500   5.07143e-16
      252.600   4.87584e-16
      252.700   4.75219e-16
      252.800   4.69759e-16
      252.900   4.64364e-16
      253.000   4.59030e-16
      253.100   4.53759e-16
      253.200   4.48549e-16
      253.300   4.43503e-16
      253.400   4.38563e-16
      253.500   4.33682e-16
      253.600   4.28857e-16
      253.700   4.24008e-16
      253.800   4.18850e-16
      253.900   4.13682e-16
      254.000   4.08578e-16
      254.100   4.03534e-16
      254.200   3.98552e-16
      254.300   3.93631e-16
      254.400   3.88770e-16
      254.500   3.83968e-16
      254.600   3.79223e-16
      254.700   3.74537e-16
      254.800   3.69911e-16
      254.900   3.65339e-16
      255.000   3.60823e-16
      255.100   3.56358e-16
      255.200   3.51949e-16
      255.300   3.47592e-16
      255.400   3.43287e-16
      255.500   3.39034e-16
      255.600   3.34832e-16
      255.700   3.30681e-16
      255.800   3.26578e-16
      255.900   3.22524e-16
      256.000   3.18517e-16
      256.100   3.14561e-16
      256.200   3.10651e-16
      256.300   3.06787e-16
      256.400   3.02974e-16
      256.500   2.99202e-16
      256.600   2.95475e-16
      256.700   2.91793e-16
      256.800   2.88154e-16
      256.900   2.83907e-16
      257.000   2.78674e-16
      257.100   2.73211e-16
      257.200   2.67854e-16
      257.300   2.62598e-16
      257.400   2.57481e-16
      257.500   2.52475e-16
      257.600   2.47569e-16
      257.700   2.42756e-16
      257.800   2.38032e-16
      257.900   2.33400e-16
      258.000   2.28855e-16
      258.100   2.24395e-16
      258.200   2.20021e-16
      258.300   2.15730e-16
      258.400   2.11518e-16
      258.500   2.07387e-16
      258.600   2.03335e-16
      258.700   1.99359e-16
      258.800   1.95459e-16
      258.900   1.91635e-16
      259.000   1.87881e-16
      259.100   1.84201e-16
      259.200   1.80590e-16
      259.300   1.77052e-16
      259.400   1.73580e-16
      259.500   1.70174e-16
      259.600   1.66834e-16
      259.700   1.63559e-16
      259.800   1.60345e-16
      259.900   1.57192e-16
      260.000   1.54101e-16
      260.100   1.50874e-16
      260.200   1.47471e-16
      260.300   1.44099e-16
      260.400   1.40804e-16
      260.500   1.37583e-16
      260.600   1.34432e-16
      260.700   1.31352e-16
      260.800   1.28344e-16
      260.900   1.25401e-16
      261.000   1.22526e-16
      261.100   1.19716e-16
      261.200   1.16956e-16
      261.300   1.14257e-16
      261.400   1.11619e-16
      261.500   1.09044e-16
      261.600   1.06536e-16
      261.700   1.04087e-16
      261.800   1.01693e-16
      261.900   9.93518e-17
      262.000   9.70644e-17
      262.100   9.48286e-17
      262.200   9.26448e-17
      262.300   9.05096e-17
      262.400   8.84232e-17
      262.500   8.63836e-17
      262.600   8.43902e-17
      262.700   8.24428e-17
      262.800   8.05397e-17
      262.900   7.86790e-17
      263.000   7.68625e-17
      263.100   7.50867e-17
      263.200   7.33524e-17
      263.300   7.16577e-17
      263.400   7.00014e-17
      263.500   6.83836e-17
      263.600   6.68027e-17
      263.700   6.52578e-17
      263.800   6.37478e-17
      263.900   6.22737e-17
      264.000   6.08327e-17
      264.100   5.94242e-17
      264.200   5.80479e-17
      264.300   5.67043e-17
      264.400   5.53912e-17
      264.500   5.41078e-17
      264.600   5.28538e-17
      264.700   5.16292e-17
      264.800   5.04320e-17
      264.900   4.92631e-17
      265.000   4.81210e-17
      265.100   4.70047e-17
      265.200   4.59144e-17
      265.300   4.48492e-17
      265.400   4.37958e-17
      265.500   4.27619e-17
      265.600   4.17526e-17
      265.700   4.07662e-17
      265.800   3.98044e-17
      265.900   3.88648e-17
      266.000   3.79479e-17
      266.100   3.70525e-17
      266.200   3.61782e-17
      266.300   3.53241e-17
      266.400   3.44905e-17
      266.500   3.36761e-17
      266.600   3.28810e-17
      266.700   3.21046e-17
      266.800   3.13469e-17
      266.900   3.06068e-17
      267.000   2.98839e-17
      267.100   2.91781e-17
      267.200   2.84894e-17
      267.300   2.78167e-17
      267.400   2.71597e-17
      267.500   2.65182e-17
      267.600   2.58919e-17
      267.700   2.52805e-17
      267.800   2.46832e-17
      267.900   2.41002e-17
      268.000   2.35311e-17
      268.100   2.29753e-17
      268.200   2.24328e-17
      268.300   2.19032e-17
      268.400   2.13858e-17
      268.500   2.08807e-17
      268.600   2.03875e-17
      268.700   1.99061e-17
      268.800   1.94360e-17
      268.900   1.89771e-17
      269.000   1.85290e-17
      269.100   1.80915e-17
      269.200   1.76644e-17
      269.300   1.72474e-17
      269.400   1.68400e-17
      269.500   1.64424e-17
      269.600   1.60542e-17
      269.700   1.56231e-17
      269.800   1.51907e-17
      269.900   1.47699e-17
      270.000   1.43608e-17
      270.100   1.39630e-17
      270.200   1.35766e-17
      270.300   1.32006e-17
      270.400   1.28351e-17
      270.500   1.24796e-17
      270.600   1.21339e-17
      270.700   1.17977e-17
      270.800   1.14710e-17
      270.900   1.11530e-17
      271.000   1.08440e-17
      271.100   1.05434e-17
      271.200   1.02510e-17
      271.300   9.96676e-18
      271.400   9.69028e-18
      271.500   9.42155e-18
      271.600   9.16003e-18
      271.700   8.90585e-18
      271.800   8.65869e-18
      271.900   8.41831e-18
      272.000   8.18462e-18
      272.100   7.95728e-18
      272.200   7.73626e-18
      272.300   7.52126e-18
      272.400   7.31219e-18
      272.500   7.10897e-18
      272.600   6.91125e-18
      272.700   6.71899e-18
      272.800   6.53980e-18
      272.900   6.38801e-18
      273.000   6.25005e-18
      273.100   6.11499e-18
      273.200   5.98283e-18
      273.300   5.85358e-18
      273.400   5.72705e-18
      273.500   5.60325e-18
      273.600   5.48211e-18
      273.700   5.36355e-18
      273.800   5.24753e-18
      273.900   5.11726e-18
      274.000   4.95729e-18
      274.100   4.80187e-18
      274.200   4.65125e-18
      274.300   4.50532e-18
      274.400   4.36335e-18
      274.500   4.22439e-18
      274.600   4.08953e-18
      274.700   3.95896e-18
      274.800   3.83245e-18
      274.900   3.70990e-18
      275.000   3.59124e-18
      275.100   3.47631e-18
      275.200   3.36501e-18
      275.300   3.25719e-18
      275.400   3.15280e-18
      275.500   3.05172e-18
      275.600   2.95376e-18
      275.700   2.85895e-18
      275.800   2.76715e-18
      275.900   2.67822e-18
      276.000   2.59777e-18
      276.100   2.53468e-18
      276.200   2.47605e-18
      276.300   2.41874e-18
      276.400   2.36275e-18
      276.500   2.30802e-18
      276.600   2.25455e-18
      276.700   2.20228e-18
      276.800   2.15123e-18
      276.900   2.10132e-18
      277.000   2.05255e-18
      277.100   2.00489e-18
      277.200   1.95833e-18
      277.300   1.91282e-18
      277.400   1.86835e-18
      277.500   1.82488e-18
      277.600   1.78243e-18
      277.700   1.74092e-18
      277.800   1.70036e-18
      277.900   1.66075e-18
      278.000   1.62204e-18
      278.100   1.58338e-18
      278.200   1.53602e-18
      278.300   1.48775e-18
      278.400   1.44097e-18
      278.500   1.39560e-18
      278.600   1.35164e-18
      278.700   1.30906e-18
      278.800   1.26780e-18
      278.900   1.22778e-18
      279.000   1.18897e-18
      279.100   1.15138e-18
      279.200   1.11657e-18
      279.300   1.08625e-18
      279.400   1.05706e-18
      279.500   1.02866e-18
      279.600   1.00101e-18
      279.700   9.74092e-19
      279.800   9.47877e-19
      279.900   9.22347e-19
      280.000   8.97498e-19
      280.100   8.73298e-19
      280.200   8.49750e-19
      280.300   8.26818e-19
      280.400   8.04489e-19
      280.500   7.82767e-19
      280.600   7.61614e-19
      280.700   7.41021e-19
      280.800   7.20977e-19
      280.900   7.01461e-19
      281.000   6.82464e-19
      281.100   6.63972e-19
      281.200   6.45969e-19
      281.300   6.29392e-19
      281.400   6.15003e-19
      281.500   6.01810e-19
      281.600   5.88892e-19
      281.700   5.76247e-19
      281.800   5.63875e-19
      281.900   5.51757e-19
      282.000   5.39894e-19
      282.100   5.28281e-19
      282.200   5.16924e-19
      282.300   5.05797e-19
      282.400   4.94906e-19
      282.500   4.84242e-19
      282.600   4.73808e-19
      282.700   4.63591e-19
      282.800   4.53589e-19
      282.900   4.43808e-19
      283.000   4.34229e-19
      283.100   4.24858e-19
      283.200   4.15685e-19
      283.300   4.06709e-19
      283.400   3.97924e-19
      283.500   3.88282e-19
      283.600   3.78630e-19
      283.700   3.69199e-19
      283.800   3.60002e-19
      283.900   3.51034e-19
      284.000   3.42282e-19
      284.100   3.33743e-19
      284.200   3.25415e-19
      284.300   3.17294e-19
      284.400   3.09371e-19
      284.500   3.01644e-19
      284.600   2.94108e-19
      284.700   2.86759e-19
      284.800   2.79590e-19
      284.900   2.72597e-19
      285.000   2.65775e-19
      285.100   2.59121e-19
      285.200   2.52635e-19
      285.300   2.46307e-19
      285.400   2.40135e-19
      285.500   2.34117e-19
      285.600   2.28250e-19
      285.700   2.22526e-19
      285.800   2.16947e-19
      285.900   2.11506e-19
      286.000   2.06203e-19
      286.100   2.01034e-19
      286.200   1.95988e-19
      286.300   1.91071e-19
      286.400   1.86277e-19
      286.500   1.81599e-19
      286.600   1.76846e-19
      286.700   1.71707e-19
      286.800   1.66486e-19
      286.900   1.61421e-19
      287.000   1.56509e-19
      287.100   1.51744e-19
      287.200   1.47125e-19
      287.300   1.42643e-19
      287.400   1.38296e-19
      287.500   1.34080e-19
      287.600   1.29991e-19
      287.700   1.26025e-19
      287.800   1.22180e-19
      287.900   1.18451e-19
      288.000   1.14836e-19
      288.100   1.11329e-19
      288.200   1.07933e-19
      288.300   1.04640e-19
      288.400   1.01446e-19
      288.500   9.83488e-20
      288.600   9.53436e-20
      288.700   9.24636e-20
      288.800   9.01802e-20
      288.900   8.82006e-20
      289.000   8.62638e-20
      289.100   8.43691e-20
      289.200   8.25164e-20
      289.300   8.07047e-20
      289.400   7.89322e-20
      289.500   7.71990e-20
      289.600   7.55036e-20
      289.700   7.38464e-20
      289.800   7.22248e-20
      289.900   7.06382e-20
      290.000   6.90873e-20
      290.100   6.75708e-20
      290.200   6.60887e-20
      290.300   6.46390e-20
      290.400   6.32213e-20
      290.500   6.18353e-20
      290.600   6.04789e-20
      290.700   5.91525e-20
      290.800   5.78560e-20
      290.900   5.65873e-20
      291.000   5.53458e-20
      291.100   5.41320e-20
      291.200   5.29453e-20
      291.300   5.17841e-20
      291.400   5.06489e-20
      291.500   4.95384e-20
      291.600   4.84519e-20
      291.700   4.73898e-20
      291.800   4.63512e-20
      291.900   4.53365e-20
      292.000   4.40252e-20
      292.100   4.27022e-20
      292.200   4.14158e-20
      292.300   4.01670e-20
      292.400   3.89560e-20
      292.500   3.77806e-20
      292.600   3.66405e-20
      292.700   3.55349e-20
      292.800   3.44623e-20
      292.900   3.34220e-20
      293.000   3.24127e-20
      293.100   3.14334e-20
      293.200   3.04833e-20
      293.300   2.95620e-20
      293.400   2.86688e-20
      293.500   2.78032e-20
      293.600   2.69636e-20
      293.700   2.61491e-20
      293.800   2.53590e-20
      293.900   2.45927e-20
      294.000   2.38572e-20
      294.100   2.32111e-20
      294.200   2.26330e-20
      294.300   2.20692e-20
      294.400   2.15190e-20
      294.500   2.09828e-20
      294.600   2.04597e-20
      294.700   1.99496e-20
      294.800   1.94520e-20
      294.900   1.89673e-20
      295.000   1.84948e-20
      295.100   1.80342e-20
      295.200   1.75849e-20
      295.300   1.71466e-20
      295.400   1.67193e-20
      295.500   1.63027e-20
      295.600   1.58962e-20
      295.700   1.54999e-20
      295.800   1.51133e-20
      295.900   1.47360e-20
      296.000   1.43683e-20
      296.100   1.40095e-20
      296.200   1.36598e-20
      296.300   1.33189e-20
      296.400   1.29870e-20
      296.500   1.26629e-20
      296.600   1.23470e-20
      296.700   1.20388e-20
      296.800   1.17384e-20
      296.900   1.14452e-20
      297.000   1.11594e-20
      297.100   1.08805e-20
      297.200   1.06086e-20
      297.300   1.03433e-20
      297.400   1.00846e-20
      297.500   9.83229e-21
      297.600   9.58640e-21
      297.700   9.34673e-21
      297.800   9.11307e-21
      297.900   8.88518e-21
      298.000   8.66296e-21
      298.100   8.44617e-21
      298.200   8.23475e-21
      298.300   8.01151e-21
      298.400   7.76802e-21
      298.500   7.52280e-21
      298.600   7.28516e-21
      298.700   7.05495e-21
      298.800   6.83178e-21
      298.900   6.61621e-21
      299.000   6.40738e-21
      299.100   6.20498e-21
      299.200   6.00877e-21
      299.300   5.81870e-21
      299.400   5.63451e-21
      299.500   5.45604e-21
      299.600   5.28314e-21
      299.700   5.11562e-21
      299.800   4.95318e-21
      299.900   4.79596e-21
      300.000   4.64360e-21
      300.100   4.49608e-21
      300.192   4.36455e-21
      300.285   4.23537e-21
      300.377   4.11135e-21
      300.470   3.98965e-21
      300.562   3.87275e-21
      300.654   3.75920e-21
      300.747   3.64773e-21
      300.839   3.54072e-21
      300.932   3.43561e-21
      301.025   3.33360e-21
      301.117   3.23569e-21
      301.210   3.13955e-21
      301.303   3.04621e-21
      301.395   2.95667e-21
      301.488   2.87473e-21
      301.581   2.81490e-21
      301.674   2.75686e-21
      301.766   2.70062e-21
      301.859   2.64489e-21
      301.952   2.59032e-21
      302.045   2.53685e-21
      302.138   2.48449e-21
      302.231   2.43327e-21
      302.324   2.38307e-21
      302.417   2.33389e-21
      302.510   2.28567e-21
      302.603   2.23852e-21
      302.696   2.19226e-21
      302.789   2.14695e-21
      302.882   2.10255e-21
      302.976   2.05863e-21
      303.069   2.01602e-21
      303.162   1.97431e-21
      303.255   1.93343e-21
      303.349   1.89294e-21
      303.442   1.85369e-21
      303.535   1.81529e-21
      303.629   1.77725e-21
      303.722   1.74039e-21
      303.816   1.70388e-21
      303.909   1.66852e-21
      304.003   1.63350e-21
      304.096   1.59955e-21
      304.190   1.56594e-21
      304.283   1.53337e-21
      304.377   1.50115e-21
      304.471   1.46957e-21
      304.564   1.43897e-21
      304.658   1.40730e-21
      304.752   1.36748e-21
      304.846   1.32786e-21
      304.939   1.28977e-21
      305.033   1.25236e-21
      305.127   1.21601e-21
      305.221   1.18071e-21
      305.315   1.14642e-21
      305.409   1.11310e-21
      305.503   1.08074e-21
      305.597   1.04931e-21
      305.691   1.01877e-21
      305.785   9.97733e-22
      305.879   9.79461e-22
      305.973   9.61693e-22
      306.067   9.44225e-22
      306.161   9.27081e-22
      306.255   9.10240e-22
      306.350   8.93516e-22
      306.444   8.77264e-22
      306.538   8.61302e-22
      306.633   8.45471e-22
      306.727   8.30076e-22
      306.821   8.14955e-22
      306.916   7.99954e-22
      307.010   7.85375e-22
      307.105   7.70912e-22
      307.199   7.56860e-22
      307.294   7.42904e-22
      307.388   7.29353e-22
      307.483   7.15902e-22
      307.577   7.02833e-22
      307.672   6.89863e-22
      307.767   6.77128e-22
      307.861   6.62877e-22
      307.956   6.45672e-22
      308.051   6.28357e-22
      308.146   6.11506e-22
      308.240   5.95272e-22
      308.335   5.79292e-22
      308.430   5.63727e-22
      308.525   5.48579e-22
      308.620   5.33839e-22
      308.715   5.19487e-22
      308.810   5.05516e-22
      308.905   4.91912e-22
      309.000   4.78673e-22
      309.095   4.65782e-22
      309.190   4.53241e-22
      309.285   4.41026e-22
      309.380   4.29139e-22
      309.476   4.17451e-22
      309.571   4.06188e-22
      309.666   3.95226e-22
      309.761   3.84558e-22
      309.857   3.74068e-22
      309.952   3.64013e-22
      310.047   3.54714e-22
      310.143   3.45678e-22
      310.238   3.36960e-22
      310.334   3.28373e-22
      310.429   3.20085e-22
      310.525   3.11922e-22
      310.620   3.04048e-22
      310.716   2.96288e-22
      310.811   2.88661e-22
      310.907   2.81105e-22
      311.003   2.73744e-22
      311.098   2.66644e-22
      311.194   2.59656e-22
      311.290   2.52850e-22
      311.386   2.46222e-22
      311.481   2.39831e-22
      311.577   2.33542e-22
      311.673   2.27414e-22
      311.769   2.21445e-22
      311.865   2.15634e-22
      311.961   2.09979e-22
      312.057   2.04500e-22
      312.153   1.99176e-22
      312.249   1.93987e-22
      312.345   1.88935e-22
      312.441   1.84010e-22
      312.537   1.79215e-22
      312.633   1.74545e-22
      312.730   1.69945e-22
      312.826   1.65514e-22
      312.922   1.61198e-22
      313.018   1.56993e-22
      313.115   1.52855e-22
      313.211   1.48866e-22
      313.307   1.44980e-22
      313.404   1.41158e-22
      313.500   1.37472e-22
      313.597   1.33847e-22
      313.693   1.30353e-22
      313.790   1.26914e-22
      313.886   1.23864e-22
      313.983   1.21610e-22
      314.079   1.19688e-22
      314.176   1.17777e-22
      314.273   1.15895e-22
      314.369   1.14064e-22
      314.466   1.12244e-22
      314.563   1.10452e-22
      314.660   1.08689e-22
      314.756   1.06972e-22
      314.853   1.05264e-22
      314.950   1.03585e-22
      315.047   1.01933e-22
      315.144   1.00307e-22
      315.241   9.87074e-23
      315.338   9.71332e-23
      315.435   9.55846e-23
      315.532   9.40613e-23
      315.629   9.25628e-23
      315.726   9.10880e-23
      315.823   8.96363e-23
      315.921   8.81942e-23
      316.018   8.67896e-23
      316.115   8.54086e-23
      316.212   8.40489e-23
      316.310   8.24713e-23
      316.407   8.06486e-23
      316.504   7.87755e-23
      316.602   7.69276e-23
      316.699   7.51418e-23
      316.796   7.33979e-23
      316.894   7.16772e-23
      316.991   7.00151e-23
      317.089   6.83854e-23
      317.187   6.67993e-23
      317.284   6.52654e-23
      317.382   6.37515e-23
      317.479   6.22873e-23
      317.577   6.08430e-23
      317.675   5.94324e-23
      317.773   5.80543e-23
      317.870   5.67221e-23
      317.968   5.54062e-23
      318.066   5.41215e-23
      318.164   5.28667e-23
      318.262   5.16413e-23
      318.360   5.04439e-23
      318.458   4.92749e-23
      318.556   4.81335e-23
      318.654   4.70184e-23
      318.752   4.56982e-23
      318.850   4.41426e-23
      318.948   4.25576e-23
      319.046   4.10291e-23
      319.144   3.95547e-23
      319.242   3.81337e-23
      319.341   3.67494e-23
      319.439   3.54283e-23
      319.537   3.41546e-23
      319.635   3.29261e-23
      319.734   3.17298e-23
      319.832   3.05880e-23
      319.930   2.94868e-23
      320.029   2.84147e-23
      320.127   2.73915e-23
      320.226   2.63948e-23
      320.324   2.54434e-23
      320.423   2.45168e-23
      320.522   2.36244e-23
      320.620   2.27727e-23
      320.719   2.19429e-23
      320.818   2.11433e-23
      320.916   2.03802e-23
      321.015   1.96369e-23
      321.114   1.89206e-23
      321.213   1.82302e-23
      321.311   1.75717e-23
      321.410   1.69305e-23
      321.509   1.63121e-23
      321.608   1.57166e-23
      321.707   1.51424e-23
      321.806   1.45889e-23
      321.905   1.40558e-23
      322.004   1.35417e-23
      322.103   1.30466e-23
      322.202   1.25692e-23
      322.301   1.21093e-23
      322.401   1.16617e-23
      322.500   1.12347e-23
      322.599   1.08233e-23
      322.698   1.04268e-23
      322.798   1.00410e-23
      322.897   9.67285e-24
      322.996   9.31822e-24
      323.096   8.97289e-24
      323.195   8.64364e-24
      323.294   8.32641e-24
      323.394   8.01775e-24
      323.493   7.72324e-24
      323.593   7.43672e-24
      323.692   7.16344e-24
      323.792   6.89752e-24
      323.892   6.64138e-24
      323.991   6.39699e-24
      324.091   6.15932e-24
      324.191   5.93031e-24
      324.291   5.70977e-24
      324.390   5.49955e-24
      324.490   5.29480e-24
      324.590   5.09777e-24
      324.690   4.90800e-24
      324.790   4.72516e-24
      324.890   4.54914e-24
      324.990   4.37953e-24
      325.090   4.21616e-24
      325.190   4.05891e-24
      325.290   3.90751e-24
      325.390   3.76155e-24
      325.490   3.62113e-24
      325.590   3.48591e-24
      325.690   3.35558e-24
      325.790   3.23013e-24
      325.891   3.10814e-24
      325.991   2.99185e-24
      326.091   2.87984e-24
      326.192   2.77095e-24
      326.292   2.66714e-24
      326.392   2.56721e-24
      326.493   2.47002e-24
      326.593   2.37736e-24
      326.694   2.28733e-24
      326.794   2.20147e-24
      326.895   2.11799e-24
      326.995   2.03840e-24
      327.096   1.96107e-24
      327.197   1.88661e-24
      327.297   1.81563e-24
      327.398   1.74664e-24
      327.499   1.68024e-24
      327.599   1.61694e-24
      327.700   1.55540e-24
      327.801   1.49619e-24
      327.902   1.43923e-24
      328.003   1.38438e-24
      328.104   1.33160e-24
      328.205   1.28081e-24
      328.306   1.23194e-24
      328.407   1.18492e-24
      328.508   1.13966e-24
      328.609   1.09610e-24
      328.710   1.05421e-24
      328.811   1.01389e-24
      328.912   9.75092e-25
      329.013   9.37762e-25
      329.115   9.01507e-25
      329.216   8.66957e-25
      329.317   8.33716e-25
      329.419   8.01444e-25
      329.520   7.70679e-25
      329.621   7.41079e-25
      329.723   7.12325e-25
      329.824   6.84965e-25
      329.926   6.58375e-25
      330.027   6.33041e-25
      330.129   6.08435e-25
      330.230   5.85015e-25
      330.332   5.62252e-25
      330.434   5.40370e-25
      330.535   5.19522e-25
      330.637   4.99277e-25
      330.739   4.79821e-25
      330.840   4.61285e-25
      330.942   4.43281e-25
      331.044   4.25974e-25
      331.146   4.09332e-25
      331.248   3.93333e-25
      331.350   3.77954e-25
      331.452   3.63168e-25
      331.554   3.49040e-25
      331.656   3.35573e-25
      331.758   3.22624e-25
      331.860   3.10161e-25
      331.962   2.98177e-25
      332.064   2.86647e-25
      332.166   2.75563e-25
      332.268   2.64895e-25
      332.371   2.54544e-25
      332.473   2.44679e-25
      332.575   2.35189e-25
      332.677   2.26068e-25
      332.780   2.17214e-25
      332.882   2.08780e-25
      332.985   2.00594e-25
      333.087   1.92793e-25
      333.190   1.85223e-25
      333.292   1.77992e-25
      333.395   1.70909e-25
      333.497   1.64151e-25
      333.600   1.57593e-25
      333.702   1.51353e-25
      333.805   1.45303e-25
      333.908   1.39485e-25
      334.011   1.33902e-25
      334.113   1.28588e-25
      334.216   1.23432e-25
      334.319   1.18482e-25
      334.422   1.13726e-25
      334.525   1.09159e-25
      334.628   1.04773e-25
      334.731   1.00563e-25
      334.834   9.65186e-26
      334.937   9.26334e-26
      335.040   8.89015e-26
      335.143   8.53211e-26
      335.246   8.18811e-26
      335.349   7.85783e-26
      335.452   7.54071e-26
      335.555   7.23629e-26
      335.659   6.94109e-26
      335.762   6.66044e-26
      335.865   6.39114e-26
      335.969   6.13001e-26
      336.072   5.88162e-26
      336.175   5.64342e-26
      336.279   5.41252e-26
      336.382   5.19301e-26
      336.486   4.98021e-26
      336.589   4.77795e-26
      336.693   4.58207e-26
      336.796   4.39587e-26
      336.900   4.21537e-26
      337.004   4.04211e-26
      337.107   3.87762e-26
      337.211   3.71813e-26
      337.315   3.56521e-26
      337.419   3.41843e-26
      337.523   3.27761e-26
      337.626   3.14380e-26
      337.730   3.01421e-26
      337.834   2.88985e-26
      337.938   2.77060e-26
      338.042   2.65624e-26
      338.146   2.54687e-26
      338.250   2.44204e-26
      338.354   2.34144e-26
      338.458   2.24491e-26
      338.562   2.15232e-26
      338.667   2.06270e-26
      338.771   1.97753e-26
      338.875   1.89586e-26
      338.979   1.81748e-26
      339.084   1.74168e-26
      339.188   1.66964e-26
      339.292   1.60056e-26
      339.397   1.53365e-26
      339.501   1.47014e-26
      339.606   1.40861e-26
      339.710   1.35020e-26
      339.815   1.29365e-26
      339.919   1.23998e-26
      340.024   1.18798e-26
      340.128   1.13865e-26
      340.233   1.09086e-26
      340.338   1.04509e-26
      340.442   1.00160e-26
      340.547   9.59522e-27
      340.652   9.19188e-27
      340.757   8.80533e-27
      340.862   8.43479e-27
      340.966   8.08310e-27
      341.071   7.74276e-27
      341.176   7.41656e-27
      341.281   7.10394e-27
      341.386   6.80450e-27
      341.491   6.51732e-27
      341.596   6.24235e-27
      341.702   5.97636e-27
      341.807   5.72390e-27
      341.912   5.48202e-27
      342.017   5.25022e-27
      342.122   5.02809e-27
      342.228   4.81349e-27
      342.333   4.60970e-27
      342.438   4.41446e-27
      342.544   4.22577e-27
      342.649   4.04662e-27
      342.754   3.87513e-27
      342.860   3.70922e-27
      342.965   3.55171e-27
      343.071   3.39968e-27
      343.176   3.25529e-27
      343.282   3.11566e-27
      343.388   2.98205e-27
      343.493   2.85544e-27
      343.599   2.73466e-27
      343.705   2.61908e-27
      343.810   2.50933e-27
      343.916   2.40321e-27
      344.022   2.30153e-27
      344.128   2.20413e-27
      344.234   2.11077e-27
      344.340   2.02138e-27
      344.446   1.93570e-27
      344.552   1.85362e-27
      344.658   1.77502e-27
      344.764   1.69976e-27
      344.870   1.62760e-27
      344.976   1.55854e-27
      345.082   1.49233e-27
      345.188   1.42896e-27
      345.294   1.36821e-27
      345.401   1.30952e-27
      345.507   1.25382e-27
      345.613   1.20051e-27
      345.719   1.14941e-27
      345.826   1.10004e-27
      345.932   1.05319e-27
      346.039   1.00792e-27
      346.145   9.64961e-28
      346.252   9.23463e-28
      346.358   8.84084e-28
      346.465   8.46053e-28
      346.571   8.09946e-28
      346.678   7.75055e-28
      346.785   7.41654e-28
      346.891   7.09991e-28
      346.998   6.79399e-28
      347.105   6.50105e-28
      347.212   6.22059e-28
      347.319   5.95213e-28
      347.425   5.69744e-28
      347.532   5.45141e-28
      347.639   5.21606e-28
      347.746   4.99069e-28
      347.853   4.77487e-28
      347.960   4.56846e-28
      348.067   4.37096e-28
      348.174   4.18197e-28
      348.281   4.00101e-28
      348.389   3.82629e-28
      348.496   3.66057e-28
      348.603   3.50213e-28
      348.710   3.35043e-28
      348.818   3.20394e-28
      348.925   3.06504e-28
      349.032   2.93217e-28
      349.140   2.80379e-28
      349.247   2.68211e-28
      349.355   2.56472e-28
      349.462   2.45335e-28
      349.570   2.34576e-28
      349.677   2.24388e-28
      349.785   2.14544e-28
      349.892   2.05219e-28
      350.000   1.96216e-28
      350.100   1.88229e-28
      350.193   1.81093e-28
      350.287   1.74147e-28
      350.380   1.67545e-28
      350.473   1.61187e-28
      350.567   1.55000e-28
      350.660   1.49116e-28
      350.754   1.43393e-28
      350.847   1.37949e-28
      350.941   1.32653e-28
      351.034   1.27613e-28
      351.128   1.22711e-28
      351.221   1.18048e-28
      351.315   1.13510e-28
      351.409   1.09144e-28
      351.502   1.04994e-28
      351.596   1.00957e-28
      351.690   9.70704e-29
      351.783   9.33773e-29
      351.877   8.97842e-29
      351.971   8.63276e-29
      352.065   8.30031e-29
      352.159   7.98056e-29
      352.252   7.67639e-29
      352.346   7.38049e-29
      352.440   7.09609e-29
      352.534   6.82275e-29
      352.628   6.55955e-29
      352.722   6.30645e-29
      352.816   6.06320e-29
      352.910   5.82935e-29
      353.004   5.60441e-29
      353.098   5.38798e-29
      353.192   5.17988e-29
      353.287   4.97769e-29
      353.381   4.78528e-29
      353.475   4.60045e-29
      353.569   4.42253e-29
      353.663   4.25162e-29
      353.758   4.08550e-29
      353.852   3.92748e-29
      353.946   3.77552e-29
      354.041   3.62785e-29
      354.135   3.48740e-29
      354.229   3.35234e-29
      354.324   3.22112e-29
      354.418   3.09635e-29
      354.513   2.97507e-29
      354.607   2.85982e-29
      354.702   2.74765e-29
      354.796   2.64072e-29
      354.891   2.53682e-29
      354.985   2.43807e-29
      355.080   2.34215e-29
      355.175   2.24990e-29
      355.269   2.16223e-29
      355.364   2.07703e-29
      355.459   1.99522e-29
      355.553   1.91737e-29
      355.648   1.84181e-29
      355.743   1.76922e-29
      355.838   1.69937e-29
      355.933   1.63235e-29
      356.027   1.56861e-29
      356.122   1.50665e-29
      356.217   1.44715e-29
      356.312   1.39002e-29
      356.407   1.33509e-29
      356.502   1.28233e-29
      356.597   1.23161e-29
      356.692   1.18292e-29
      356.787   1.13613e-29
      356.882   1.09114e-29
      356.977   1.04798e-29
      357.073   1.00606e-29
      357.168   9.66187e-30
      357.263   9.27919e-30
      357.358   8.91137e-30
      357.453   8.55820e-30
      357.549   8.21530e-30
      357.644   7.88943e-30
      357.739   7.57660e-30
      357.835   7.27256e-30
      357.930   6.98382e-30
      358.025   6.70646e-30
      358.121   6.43730e-30
      358.216   6.18147e-30
      358.312   5.93309e-30
      358.407   5.69723e-30
      358.503   5.46824e-30
      358.598   5.25077e-30
      358.694   5.03962e-30
      358.790   4.83676e-30
      358.885   4.64408e-30
      358.981   4.45707e-30
      359.076   4.27952e-30
      359.172   4.10719e-30
      359.268   3.94156e-30
      359.364   3.78261e-30
      359.459   3.63176e-30
      359.555   3.48523e-30
      359.651   3.34457e-30
      359.747   3.20957e-30
      359.843   3.07995e-30
      359.939   2.95552e-30
      360.035   2.83609e-30
      360.131   2.72150e-30
      360.227   2.61134e-30
      360.323   2.50573e-30
      360.419   2.40299e-30
      360.515   2.29190e-30
      360.611   2.18252e-30
      360.707   2.07822e-30
      360.803   1.97906e-30
      360.899   1.88445e-30
      360.995   1.79439e-30
      361.092   1.70768e-30
      361.188   1.62594e-30
      361.284   1.54808e-30
      361.380   1.47393e-30
      361.477   1.40254e-30
      361.573   1.33526e-30
      361.669   1.27122e-30
      361.766   1.20955e-30
      361.862   1.15148e-30
      361.959   1.09559e-30
      362.055   1.04288e-30
      362.152   9.92224e-31
      362.248   9.44474e-31
      362.345   8.98504e-31
      362.441   8.55233e-31
      362.538   8.13601e-31
      362.635   7.73969e-31
      362.731   7.36613e-31
      362.828   7.00688e-31
      362.925   6.66505e-31
      363.021   6.34285e-31
      363.118   6.03318e-31
      363.215   5.73824e-31
      363.312   5.45758e-31
      363.409   5.19066e-31
      363.505   4.93917e-31
      363.602   4.69715e-31
      363.699   4.46701e-31
      363.796   4.24801e-31
      363.893   4.03962e-31
      363.990   3.84137e-31
      364.087   3.65275e-31
      364.184   3.47328e-31
      364.281   3.30250e-31
      364.378   3.14007e-31
      364.475   2.98553e-31
      364.573   2.83700e-31
      364.670   2.69723e-31
      364.767   2.56429e-31
      364.864   2.43779e-31
      364.961   2.31749e-31
      365.059   2.20190e-31
      365.156   2.09316e-31
      365.253   1.98969e-31
      365.351   1.89028e-31
      365.448   1.79672e-31
      365.545   1.70777e-31
      365.643   1.62229e-31
      365.740   1.54185e-31
      365.838   1.46461e-31
      365.935   1.39196e-31
      366.033   1.32214e-31
      366.130   1.25645e-31
      366.228   1.19330e-31
      366.326   1.12633e-31
      366.423   1.06026e-31
      366.521   9.97388e-32
      366.618   9.38764e-32
      366.716   8.83020e-32
      366.814   8.30568e-32
      366.912   7.81207e-32
      367.010   7.34701e-32
      367.107   6.91388e-32
      367.205   6.50177e-32
      367.303   6.11406e-32
      367.401   5.74929e-32
      367.499   5.40588e-32
      367.597   5.08285e-32
      367.695   4.77898e-32
      367.793   4.49313e-32
      367.891   4.22415e-32
      367.989   3.97087e-32
      368.087   3.73280e-32
      368.185   3.50887e-32
      368.283   3.29812e-32
      368.381   3.09983e-32
      368.480   2.91163e-32
      368.578   2.73637e-32
      368.676   2.57163e-32
      368.774   2.41669e-32
      368.873   2.26952e-32
      368.971   2.13257e-32
      369.069   2.00378e-32
      369.168   1.88143e-32
      369.266   1.76766e-32
      369.364   1.66068e-32
      369.463   1.55909e-32
      369.561   1.46461e-32
      369.660   1.37491e-32
      369.758   1.29147e-32
      369.857   1.21227e-32
      369.955   1.13860e-32
      370.054   1.06866e-32
      370.153   1.00297e-32
      370.251   9.41894e-33
      370.350   8.83922e-33
      370.449   8.29498e-33
      370.547   7.78880e-33
      370.646   7.30810e-33
      370.745   6.85715e-33
      370.844   6.43360e-33
      370.943   6.03595e-33
      371.041   5.66635e-33
      371.140   5.31554e-33
      371.239   4.98615e-33
      371.338   4.67712e-33
      371.437   4.38707e-33
      371.536   4.11484e-33
      371.635   3.85913e-33
      371.734   3.61928e-33
      371.833   3.39420e-33
      371.932   3.18293e-33
      372.032   2.98269e-33
      372.131   2.79674e-33
      372.230   2.62234e-33
      372.329   2.45864e-33
      372.428   2.30505e-33
      372.528   2.15959e-33
      372.627   2.02455e-33
      372.726   1.89786e-33
      372.826   1.77784e-33
      372.925   1.66638e-33
      373.024   1.56184e-33
      373.124   1.46282e-33
      373.223   1.37100e-33
      373.323   1.28400e-33
      373.422   1.20323e-33
      373.522   1.12675e-33
      373.621   1.05582e-33
      373.721   9.88621e-34
      373.820   9.26290e-34
      373.920   8.67267e-34
      374.020   8.11924e-34
      374.119   7.60641e-34
      374.219   7.12048e-34
      374.319   6.66558e-34
      374.419   6.23961e-34
      374.518   5.84415e-34
      374.618   5.46997e-34
      374.718   5.11923e-34
      374.818   4.79118e-34
      374.918   4.48397e-34
      375.018   4.19600e-34
      375.118   3.92650e-34
      375.218   3.67399e-34
      375.318   3.43766e-34
      375.418   3.21625e-34
      375.518   3.00914e-34
      375.618   2.81522e-34
      375.718   2.63359e-34
      375.818   2.46362e-34
      375.918   2.30451e-34
      376.019   2.15416e-34
      376.119   2.01480e-34
      376.219   1.88444e-34
      376.319   1.76235e-34
      376.420   1.64707e-34
      376.520   1.54028e-34
      376.620   1.44036e-34
      376.721   1.34591e-34
      376.821   1.25848e-34
      376.922   1.17588e-34
      377.022   1.09936e-34
      377.122   1.02781e-34
      377.223   9.60220e-35
      377.323   8.97642e-35
      377.424   8.38505e-35
      377.525   7.83261e-35
      377.625   7.32116e-35
      377.726   6.83820e-35
      377.827   6.38675e-35
      377.927   5.96876e-35
      378.028   5.57433e-35
      378.129   5.20553e-35
      378.230   4.86094e-35
      378.330   4.54215e-35
      378.431   4.24124e-35
      378.532   3.96026e-35
      378.633   3.69749e-35
      378.734   3.45201e-35
      378.835   3.22278e-35
      378.936   3.00864e-35
      379.037   2.80860e-35
      379.138   2.62171e-35
      379.239   2.44710e-35
      379.340   2.28415e-35
      379.441   2.13188e-35
      379.542   1.98965e-35
      379.643   1.85687e-35
      379.745   1.73168e-35
      379.846   1.61593e-35
      379.947   1.50785e-35
      380.048   1.40699e-35
      380.150   1.31187e-35
      380.251   1.22397e-35
      380.352   1.14194e-35
      380.454   1.06464e-35
      380.555   9.93175e-36
      380.656   9.26459e-36
      380.758   8.63600e-36
      380.859   8.05536e-36
      380.961   7.50849e-36
      381.062   7.00311e-36
      381.164   6.52679e-36
      381.266   6.08271e-36
      381.367   5.67241e-36
      381.469   5.28602e-36
      381.570   4.92918e-36
      381.672   4.59308e-36
      381.774   4.27953e-36
      381.876   3.98733e-36
      381.977   3.71745e-36
      382.079   3.46332e-36
      382.181   3.22639e-36
      382.283   3.00567e-36
      382.385   2.79982e-36
      382.487   2.60784e-36
      382.589   2.42908e-36
      382.691   2.26245e-36
      382.793   2.10717e-36
      382.895   1.96244e-36
      382.997   1.82754e-36
      383.099   1.70185e-36
      383.201   1.58477e-36
      383.303   1.47563e-36
      383.405   1.37397e-36
      383.507   1.27928e-36
      383.610   1.19024e-36
      383.712   1.10807e-36
      383.814   1.03160e-36
      383.916   9.60341e-37
      384.019   8.93333e-37
      384.121   8.31533e-37
      384.223   7.73997e-37
      384.326   7.19915e-37
      384.428   6.70033e-37
      384.531   6.23154e-37
      384.633   5.79934e-37
      384.736   5.39302e-37
      384.838   5.01843e-37
      384.941   4.66647e-37
      385.043   4.34200e-37
      385.146   4.03718e-37
      385.249   3.75359e-37
      385.351   3.49215e-37
      385.454   3.24648e-37
      385.557   3.01810e-37
      385.660   2.80555e-37
      385.762   2.60978e-37
      385.865   2.42584e-37
      385.968   2.25470e-37
      386.071   2.09554e-37
      386.174   1.94756e-37
      386.277   1.81000e-37
      386.380   1.68207e-37
      386.483   1.56309e-37
      386.586   1.45252e-37
      386.689   1.34967e-37
      386.792   1.25403e-37
      386.895   1.16515e-37
      386.998   1.08252e-37
      387.101   1.00573e-37
      387.204   9.34285e-38
      387.308   8.67293e-38
      387.411   8.05635e-38
      387.514   7.48336e-38
      387.617   6.95091e-38
      387.721   6.45157e-38
      387.824   5.99201e-38
      387.927   5.56462e-38
      388.031   5.16413e-38
      388.134   4.79561e-38
      388.238   4.45028e-38
      388.341   4.13222e-38
      388.445   3.83411e-38
      388.548   3.55982e-38
      388.652   3.30279e-38
      388.755   3.06636e-38
      388.859   2.84472e-38
      388.962   2.64083e-38
      389.066   2.44964e-38
      389.170   2.27235e-38
      389.274   2.10768e-38
      389.377   1.95625e-38
      389.481   1.81431e-38
      389.585   1.68269e-38
      389.689   1.56050e-38
      389.793   1.44708e-38
      389.897   1.34193e-38
      390.000   1.24517e-38
      390.104   1.15459e-38
      390.208   1.07050e-38
      390.312   9.92501e-39
      390.416   9.20171e-39
      390.520   8.53038e-39
      390.625   7.90162e-39
      390.729   7.32480e-39
      390.833   6.78940e-39
      390.937   6.29285e-39
      391.041   5.83258e-39
      391.145   5.40576e-39
      391.250   5.00610e-39
      391.354   4.63940e-39
      391.458   4.29926e-39
      391.563   3.98096e-39
      391.667   3.68878e-39
      391.771   3.41792e-39
      391.876   3.16442e-39
      391.980   2.93172e-39
      392.085   2.71410e-39
      392.189   2.51432e-39
      392.294   2.32742e-39
      392.398   2.15593e-39
      392.503   1.99552e-39
      392.607   1.84833e-39
      392.712   1.71068e-39
      392.817   1.58314e-39
      392.921   1.46618e-39
      393.026   1.35678e-39
      393.131   1.25551e-39
      393.236   1.16169e-39
      393.340   1.07565e-39
      393.445   9.95227e-40
      393.550   9.20775e-40
      393.655   8.51819e-40
      393.760   7.88030e-40
      393.865   7.28960e-40
      393.970   6.74322e-40
      394.075   6.23707e-40
      394.180   5.76898e-40
      394.285   5.33556e-40
      394.390   4.93464e-40
      394.495   4.56343e-40
      394.600   4.22007e-40
      394.706   3.89952e-40
      394.811   3.60584e-40
      394.916   3.33391e-40
      395.021   3.08246e-40
      395.126   2.84997e-40
      395.232   2.63280e-40
      395.337   2.43386e-40
      395.443   2.24826e-40
      395.548   2.07822e-40
      395.653   1.92100e-40
      395.759   1.77416e-40
      395.864   1.63979e-40
      395.970   1.51434e-40
      396.075   1.39949e-40
      396.181   1.29229e-40
      396.286   1.19412e-40
      396.392   1.10261e-40
      396.498   1.01804e-40
      396.603   9.40566e-41
      396.709   8.68329e-41
      396.815   8.01613e-41
      396.921   7.39956e-41
      397.026   6.83567e-41
      397.132   6.30907e-41
      397.238   5.82310e-41
      397.344   5.37398e-41
      397.450   4.96018e-41
      397.556   4.57706e-41
      397.662   4.22379e-41
      397.768   3.89757e-41
      397.874   3.59629e-41
      397.980   3.31799e-41
      398.086   3.06114e-41
      398.192   2.82404e-41
      398.298   2.60515e-41
      398.404   2.40323e-41
      398.510   2.21671e-41
      398.617   2.04323e-41
      398.723   1.88475e-41
      398.829   1.73803e-41
      398.935   1.60295e-41
      399.042   1.47697e-41
      399.148   1.36206e-41
      399.255   1.25500e-41
      399.361   1.15719e-41
      399.467   1.06681e-41
      399.574   9.82731e-42
      399.680   9.06080e-42
      399.787   8.34473e-42
      399.893       0.00000
      400.000       0.00000
