Filter Be-thin
observation_date 22-Sept-2006 22:40:45
wavelength effective area 
      1.00000   2.78442e-10
      1.10000   7.94913e-10
      1.20000   2.06660e-09
      1.30000   4.94193e-09
      1.40000   1.12143e-08
      1.50000   2.39259e-08
      1.60000   4.84387e-08
      1.70000   9.40434e-08
      1.80000   1.75095e-07
      1.90000   3.14719e-07
      2.00000   5.47171e-07
      2.10000   9.24255e-07
      2.20000   1.52408e-06
      2.30000   2.45009e-06
      2.40000   3.84668e-06
      2.50000   5.87895e-06
      2.60000   8.97203e-06
      2.70000   1.33766e-05
      2.80000   1.95618e-05
      2.90000   2.83126e-05
      3.00000   4.03379e-05
      3.10000   5.67318e-05
      3.20000   7.89165e-05
      3.30000   0.000108658
      3.40000   0.000148046
      3.50000   0.000199755
      3.60000   0.000268277
      3.70000   0.000356469
      3.80000   0.000471676
      3.90000   0.000620635
      4.00000   0.000811526
      4.10000    0.00105618
      4.20000    0.00136969
      4.30000    0.00177117
      4.40000    0.00228412
      4.50000    0.00293743
      4.60000    0.00376477
      4.70000    0.00482473
      4.80000    0.00617648
      4.90000    0.00780497
      5.00000     0.0101218
      5.10000     0.0129408
      5.20000     0.0165928
      5.30000     0.0210943
      5.40000     0.0267719
      5.50000     0.0340348
      5.60000     0.0419381
      5.70000     0.0544387
      5.80000     0.0637245
      5.90000     0.0971425
      6.00000      0.130364
      6.10000      0.166320
      6.20000      0.203869
      6.30000      0.239525
      6.40000      0.269918
      6.50000      0.292042
      6.60000      0.301655
      6.70000      0.310354
      6.80000      0.310050
      6.90000      0.405776
      7.00000      0.440152
      7.10000      0.464253
      7.20000      0.482973
      7.30000      0.497820
      7.40000      0.508658
      7.50000      0.516839
      7.60000      0.522487
      7.70000      0.524239
      7.80000      0.521127
      7.90000      0.518570
      8.00000      0.746783
      8.10000      0.813995
      8.20000      0.823545
      8.30000      0.829275
      8.40000      0.831538
      8.50000      0.832305
      8.60000      0.831337
      8.70000      0.829216
      8.80000      0.825686
      8.90000      0.821185
      9.00000      0.815666
      9.10000      0.809193
      9.20000      0.801949
      9.30000      0.793871
      9.40000      0.785094
      9.50000      0.775683
      9.60000      0.765612
      9.70000      0.754985
      9.80000      0.743905
      9.90000      0.732409
      10.0000      0.720553
      10.1000      0.708365
      10.2000      0.695877
      10.3000      0.683081
      10.4000      0.670015
      10.5000      0.656710
      10.6000      0.643203
      10.7000      0.629521
      10.8000      0.615690
      10.9000      0.601750
      11.0000      0.587712
      11.1000      0.573615
      11.2000      0.559474
      11.3000      0.545317
      11.4000      0.531149
      11.5000      0.516981
      11.6000      0.502835
      11.7000      0.488692
      11.8000      0.474603
      11.9000      0.460487
      12.0000      0.445903
      12.1000      0.433022
      12.2000      0.427798
      12.3000      0.418082
      12.4000      0.405382
      12.5000      0.392584
      12.6000      0.379863
      12.7000      0.367291
      12.8000      0.354894
      12.9000      0.342680
      13.0000      0.330675
      13.1000      0.318894
      13.2000      0.307365
      13.3000      0.296150
      13.4000      0.285233
      13.5000      0.274599
      13.6000      0.264262
      13.7000      0.254181
      13.8000      0.244350
      13.9000      0.234778
      14.0000      0.225461
      14.1000      0.216377
      14.2000      0.207519
      14.3000      0.198891
      14.4000      0.190495
      14.5000      0.182349
      14.6000      0.174460
      14.7000      0.166800
      14.8000      0.159369
      14.9000      0.152165
      15.0000      0.145184
      15.1000      0.138429
      15.2000      0.131941
      15.3000      0.125680
      15.4000      0.119632
      15.5000      0.113795
      15.6000      0.108169
      15.7000      0.102771
      15.8000     0.0976076
      15.9000     0.0926386
      16.0000     0.0878577
      16.1000     0.0832608
      16.2000     0.0788906
      16.3000     0.0747072
      16.4000     0.0706874
      16.5000     0.0668259
      16.6000     0.0631464
      16.7000     0.0596500
      16.8000     0.0562949
      16.9000     0.0530766
      17.0000     0.0500223
      17.1000     0.0471427
      17.2000     0.0443962
      17.3000     0.0417772
      17.4000     0.0393209
      17.5000     0.0369869
      17.6000     0.0347706
      17.7000     0.0327012
      17.8000     0.0308245
      17.9000     0.0290321
      18.0000     0.0273115
      18.1000     0.0257056
      18.2000     0.0241510
      18.3000     0.0226407
      18.4000     0.0211874
      18.5000     0.0197941
      18.6000     0.0184441
      18.7000     0.0171505
      18.8000     0.0159391
      18.9000     0.0147841
      19.0000     0.0137122
      19.1000     0.0127117
      19.2000     0.0117590
      19.3000     0.0108829
      19.4000     0.0100716
      19.5000    0.00930637
      19.6000    0.00863102
      19.7000    0.00799214
      19.8000    0.00738580
      19.9000    0.00683826
      20.0000    0.00631519
      20.1000    0.00582819
      20.2000    0.00538062
      20.3000    0.00495307
      20.4000    0.00456552
      20.5000    0.00420092
      20.6000    0.00385690
      20.7000    0.00354763
      20.8000    0.00325165
      20.9000    0.00298248
      21.0000    0.00273203
      21.1000    0.00249586
      21.2000    0.00228488
      21.3000    0.00208264
      21.4000    0.00190137
      21.5000    0.00173153
      21.6000    0.00157322
      21.7000    0.00143097
      21.8000    0.00129439
      21.9000    0.00117414
      22.0000    0.00105896
      22.1000   0.000955290
      22.2000   0.000858427
      22.3000   0.000767521
      22.4000   0.000676281
      22.5000   0.000585158
      22.6000   0.000470137
      22.7000   0.000380457
      22.8000   0.000420226
      22.9000   0.000482779
      23.0000   0.000569352
      23.1000   0.000605430
      23.2000   0.000594116
      23.3000   0.000558495
      23.4000   0.000510864
      23.5000   0.000467924
      23.6000   0.000426226
      23.7000   0.000389056
      23.8000   0.000352540
      23.9000   0.000321231
      24.0000   0.000290604
      24.1000   0.000264013
      24.2000   0.000238357
      24.3000   0.000216062
      24.4000   0.000194782
      24.5000   0.000176151
      24.6000   0.000158545
      24.7000   0.000143103
      24.8000   0.000128607
      24.9000   0.000115861
      25.0000   0.000103952
      25.1000   9.34977e-05
      25.2000   8.37411e-05
      25.3000   7.52038e-05
      25.4000   6.72249e-05
      25.5000   6.02956e-05
      25.6000   5.37862e-05
      25.7000   4.81897e-05
      25.8000   4.28870e-05
      25.9000   3.83913e-05
      26.0000   3.40787e-05
      26.1000   3.04847e-05
      26.2000   2.69813e-05
      26.3000   2.41254e-05
      26.4000   2.12855e-05
      26.5000   1.90275e-05
      26.6000   1.67775e-05
      26.7000   1.49537e-05
      26.8000   1.31865e-05
      26.9000   1.17100e-05
      27.0000   1.03278e-05
      27.1000   9.13194e-06
      27.2000   8.05564e-06
      27.3000   7.10216e-06
      27.4000   6.30099e-06
      27.5000   5.54410e-06
      27.6000   4.90864e-06
      27.7000   4.28344e-06
      27.8000   3.79542e-06
      27.9000   3.30902e-06
      28.0000   2.92025e-06
      28.1000   2.55149e-06
      28.2000   2.23715e-06
      28.3000   1.95942e-06
      28.4000   1.70606e-06
      28.5000   1.49829e-06
      28.6000   1.29486e-06
      28.7000   1.14062e-06
      28.8000   9.86895e-07
      28.9000   8.64251e-07
      29.0000   7.50732e-07
      29.1000   6.51423e-07
      29.2000   5.68171e-07
      29.3000   4.88271e-07
      29.4000   4.27667e-07
      29.5000   3.67269e-07
      29.6000   3.20053e-07
      29.7000   2.76415e-07
      29.8000   2.38057e-07
      29.9000   2.06762e-07
      30.0000   1.75923e-07
      30.1000   1.53652e-07
      30.2000   1.31455e-07
      30.3000   1.14880e-07
      30.4000   1.01538e-07
      30.5000   8.85764e-08
      30.6000   7.69040e-08
      30.7000   6.52706e-08
      30.8000   5.63577e-08
      30.9000   4.82809e-08
      31.0000   4.10191e-08
      31.1000   3.55666e-08
      31.2000   3.01323e-08
      31.3000   2.60725e-08
      31.4000   2.23167e-08
      31.5000   1.89456e-08
      31.6000   1.63710e-08
      31.7000   1.38051e-08
      31.8000   1.18949e-08
      31.9000   1.01539e-08
      32.0000   8.57039e-09
      32.1000   7.43219e-09
      32.2000   6.29773e-09
      32.3000   5.41536e-09
      32.4000   4.64556e-09
      32.5000   3.90551e-09
      32.6000   3.38787e-09
      32.7000   2.87192e-09
      32.8000   2.44288e-09
      32.9000   2.09844e-09
      33.0000   1.75515e-09
      33.1000   1.51375e-09
      33.2000   1.28680e-09
      33.3000   1.07856e-09
      33.4000   9.29581e-10
      33.5000   7.81093e-10
      33.6000   6.62055e-10
      33.7000   5.65466e-10
      33.8000   4.69181e-10
      33.9000   4.02797e-10
      34.0000   3.40716e-10
      34.1000   2.82583e-10
      34.2000   2.42938e-10
      34.3000   2.03404e-10
      34.4000   1.70229e-10
      34.5000   1.45216e-10
      34.6000   1.20274e-10
      34.7000   1.01655e-10
      34.8000   8.59995e-11
      34.9000   7.03876e-11
      35.0000   6.01345e-11
      35.1000   5.04600e-11
      35.2000   4.12107e-11
      35.3000   3.52764e-11
      35.4000   2.93585e-11
      35.5000   2.41170e-11
      35.6000   2.05246e-11
      35.7000   1.69422e-11
      35.8000   1.39974e-11
      35.9000   1.18455e-11
      36.0000   9.69962e-12
      36.1000   8.05735e-12
      36.2000   6.78256e-12
      36.3000   5.51122e-12
      36.4000   4.60070e-12
      36.5000   3.85377e-12
      36.6000   3.10891e-12
      36.7000   2.60596e-12
      36.8000   2.17325e-12
      36.9000   1.74174e-12
      37.0000   1.46432e-12
      37.1000   1.21650e-12
      37.2000   9.69349e-13
      37.3000   8.16228e-13
      37.4000   6.75973e-13
      37.5000   5.36103e-13
      37.6000   4.51346e-13
      37.7000   3.72932e-13
      37.8000   2.94731e-13
      37.9000   2.47585e-13
      38.0000   2.04272e-13
      38.1000   1.61074e-13
      38.2000   1.34695e-13
      38.3000   1.11061e-13
      38.4000   8.74901e-14
      38.5000   7.26506e-14
      38.6000   5.99245e-14
      38.7000   4.72321e-14
      38.8000   3.88465e-14
      38.9000   3.20843e-14
      39.0000   2.53397e-14
      39.1000   2.05874e-14
      39.2000   1.70409e-14
      39.3000   1.35035e-14
      39.4000   1.07982e-14
      39.5000   8.94192e-15
      39.6000   7.09058e-15
      39.7000   5.55170e-15
      39.8000   4.61437e-15
      39.9000   3.67943e-15
      40.0000   2.82146e-15
      40.1000   2.35594e-15
      40.2000   1.89160e-15
      40.3000   1.42850e-15
      40.4000   1.19013e-15
      40.5000   9.62903e-16
      40.6000   7.36238e-16
      40.7000   5.94351e-16
      40.8000   4.84801e-16
      40.9000   3.75535e-16
      41.0000   2.93144e-16
      41.1000   2.41180e-16
      41.2000   1.89352e-16
      41.3000   1.42720e-16
      41.4000   1.18474e-16
      41.5000   9.42859e-17
      41.6000   7.01583e-17
      41.7000   5.74189e-17
      41.8000   4.63098e-17
      41.9000   3.52275e-17
      42.0000   2.74288e-17
      42.1000   2.24107e-17
      42.2000   1.74045e-17
      42.3000   1.29020e-17
      42.4000   1.06739e-17
      42.5000   8.45101e-18
      42.6000   6.23340e-18
      42.7000   4.99963e-18
      42.8000   4.02986e-18
      42.9000   3.06225e-18
      43.0000   2.30138e-18
      43.1000   1.88564e-18
      43.2000   1.47088e-18
      43.3000   1.05707e-18
      43.4000   1.06042e-18
      43.5000   1.09545e-18
      43.6000   1.13041e-18
      43.7000   1.06033e-18
      43.8000   8.66224e-19
      43.9000   6.72584e-19
      44.0000   4.79372e-19
      44.1000   3.94605e-19
      44.2000   3.14686e-19
      44.3000   2.34952e-19
      44.4000   1.75711e-19
      44.5000   1.43355e-19
      44.6000   1.11071e-19
      44.7000   7.88606e-20
      44.8000   6.36153e-20
      44.9000   5.07963e-20
      45.0000   3.80054e-20
      45.1000   2.75069e-20
      45.2000   2.25177e-20
      45.3000   1.75399e-20
      45.4000   1.25726e-20
      45.5000   9.68984e-21
      45.6000   7.79158e-21
      45.7000   5.89760e-21
      45.8000   4.05180e-21
      45.9000   3.34278e-21
      46.0000   2.63529e-21
      46.1000   1.92935e-21
      46.2000   1.38827e-21
      46.3000   1.13022e-21
      46.4000   8.72755e-22
      46.5000   6.15831e-22
      46.6000   4.68468e-22
      46.7000   3.75951e-22
      46.8000   2.83637e-22
      46.9000   1.91520e-22
      47.0000   1.55182e-22
      47.1000   1.22699e-22
      47.2000   9.02868e-23
      47.3000   6.16663e-23
      47.4000   5.04733e-23
      47.5000   3.93037e-23
      47.6000   2.81583e-23
      47.7000   1.98750e-23
      47.8000   1.61127e-23
      47.9000   1.23579e-23
      48.0000   8.61141e-24
      48.1000   6.28692e-24
      48.2000   5.05071e-24
      48.3000   3.81705e-24
      48.4000   2.58601e-24
      48.5000   1.95148e-24
      48.6000   1.55475e-24
      48.7000   1.15885e-24
      48.8000   7.63741e-25
      48.9000   5.94248e-25
      49.0000   4.70041e-25
      49.1000   3.46095e-25
      49.2000   2.22400e-25
      49.3000   1.80605e-25
      49.4000   1.45964e-25
      49.5000   1.11394e-25
      49.6000   7.68944e-26
      49.7000   6.92633e-26
      49.8000   6.23098e-26
      49.9000   5.53706e-26
      50.0000   4.84459e-26
      50.1000   4.25020e-26
      50.2000   3.43141e-26
      50.3000   2.77515e-26
      50.4000   2.40125e-26
      50.5000   2.16452e-26
      50.6000   1.93311e-26
      50.7000   1.49449e-26
      50.8000   1.24574e-26
      50.9000   6.82301e-27
      51.0000   4.57248e-27
      51.1000   3.69773e-27
      51.2000   3.70592e-27
      51.3000   3.31996e-27
      51.4000   2.04787e-27
      51.5000   1.23522e-27
      51.6000   8.71355e-28
      51.7000   5.87743e-28
      51.8000   4.44648e-28
      51.9000   3.70102e-28
      52.0000   2.93318e-28
      52.1000   2.02797e-28
      52.2000   1.55188e-28
      52.3000   1.02245e-28
      52.4000   6.67371e-29
      52.5000   5.27511e-29
      52.6000   4.69066e-29
      52.7000   4.00280e-29
      52.8000   2.72155e-29
      52.9000   1.55710e-29
      53.0000   1.04154e-29
      53.1000   6.86959e-30
      53.2000   4.61059e-30
      53.3000   3.06077e-30
      53.4000   2.00613e-30
      53.5000   1.14541e-30
      53.6000   5.79091e-31
      53.7000   3.38390e-31
      53.8000   2.52801e-31
      53.9000   1.73661e-31
      54.0000   1.16797e-31
      54.1000   7.60200e-32
      54.2000   5.38847e-32
      54.3000   3.24657e-32
      54.4000   1.37538e-32
      54.5000   7.51212e-33
      54.6000   5.38260e-33
      54.7000   4.08566e-33
      54.8000   2.87131e-33
      54.9000   1.94730e-33
      55.0000   1.41752e-33
      55.1000   1.02541e-33
      55.2000   7.36200e-34
      55.3000   6.80542e-34
      55.4000   6.06860e-34
      55.5000   4.36120e-34
      55.6000   2.79688e-34
      55.7000   2.01324e-34
      55.8000   1.37513e-34
      55.9000   9.64391e-35
      56.0000   7.05719e-35
      56.1000   4.87855e-35
      56.2000   4.52174e-35
      56.3000   3.68862e-35
      56.4000   2.67237e-35
      56.5000   1.84242e-35
      56.6000   1.26982e-35
      56.7000   9.25484e-36
      56.8000   6.79192e-36
      56.9000   4.81411e-36
      57.0000   3.21562e-36
      57.1000   2.14814e-36
      57.2000   1.47993e-36
      57.3000   1.04789e-36
      57.4000   7.48610e-37
      57.5000   5.31312e-37
      57.6000   3.45607e-37
      57.7000   2.40292e-37
      57.8000   2.17836e-37
      57.9000   1.63161e-37
      58.0000   1.16285e-37
      58.1000   7.67200e-38
      58.2000   4.41761e-38
      58.3000   2.90688e-38
      58.4000   2.19983e-38
      58.5000   1.75458e-38
      58.6000   1.19796e-38
      58.7000   8.09320e-39
      58.8000   5.43447e-39
      58.9000   3.66207e-39
      59.0000   2.66172e-39
      59.1000   1.97578e-39
      59.2000   1.46194e-39
      59.3000   1.07802e-39
      59.4000   7.92008e-40
      59.5000   5.58025e-40
      59.6000   3.69251e-40
      59.7000   2.82856e-40
      59.8000   1.96672e-40
      59.9000   1.16936e-40
      60.0000   8.61462e-41
      60.1000   6.35727e-41
      60.2000   4.67641e-41
      60.3000   3.42814e-41
      60.4000   2.50580e-41
      60.5000   1.84733e-41
      60.6000   1.37355e-41
      60.7000   1.08180e-41
      60.8000   8.93328e-42
      60.9000   7.36102e-42
      61.0000   6.08304e-42
      61.1000   5.04187e-42
      61.2000   4.19549e-42
      61.3000   3.47942e-42
      61.4000   2.87827e-42
      61.5000   2.39622e-42
      61.6000   1.90717e-42
      61.7000   1.50219e-42
      61.8000   1.17849e-42
      61.9000   9.33265e-43
      62.0000   7.16064e-43
      62.1000   5.17079e-43
      62.2000   3.64338e-43
      62.3000   2.64845e-43
      62.4000   2.17201e-43
      62.5000   1.89175e-43
      62.6000   1.62551e-43
      62.7000   1.40130e-43
      62.8000   1.21913e-43
      62.9000   8.96831e-44
      63.0000   6.44597e-44
      63.1000   4.48416e-44
      63.2000   3.50325e-44
      63.3000   2.52234e-44
      63.4000   2.24208e-44
      63.5000   1.54143e-44
      63.6000   1.26117e-44
      63.7000   9.80909e-45
      63.8000   9.80909e-45
      63.9000   7.00649e-45
      64.0000   2.80260e-45
      64.1000   2.80260e-45
      64.2000   2.80260e-45
      64.3000   2.80260e-45
      64.4000       0.00000
      64.5000       0.00000
      64.6000       0.00000
      64.7000       0.00000
      64.8000       0.00000
      64.9000       0.00000
      65.0000       0.00000
      65.1000       0.00000
      65.2000       0.00000
      65.3000       0.00000
      65.4000       0.00000
      65.5000       0.00000
      65.6000       0.00000
      65.7000       0.00000
      65.8000       0.00000
      65.9000       0.00000
      66.0000       0.00000
      66.1000       0.00000
      66.2000       0.00000
      66.3000       0.00000
      66.4000       0.00000
      66.5000       0.00000
      66.6000       0.00000
      66.7000       0.00000
      66.8000       0.00000
      66.9000       0.00000
      67.0000       0.00000
      67.1000       0.00000
      67.2000       0.00000
      67.3000       0.00000
      67.4000       0.00000
      67.5000       0.00000
      67.6000       0.00000
      67.7000       0.00000
      67.8000       0.00000
      67.9000       0.00000
      68.0000       0.00000
      68.1000       0.00000
      68.2000       0.00000
      68.3000       0.00000
      68.4000       0.00000
      68.5000       0.00000
      68.6000       0.00000
      68.7000       0.00000
      68.8000       0.00000
      68.9000       0.00000
      69.0000       0.00000
      69.1000       0.00000
      69.2000       0.00000
      69.3000       0.00000
      69.4000       0.00000
      69.5000       0.00000
      69.6000       0.00000
      69.7000       0.00000
      69.8000       0.00000
      69.9000       0.00000
      70.0000       0.00000
      70.1000       0.00000
      70.2000       0.00000
      70.3000       0.00000
      70.4000       0.00000
      70.5000       0.00000
      70.6000       0.00000
      70.7000       0.00000
      70.8000       0.00000
      70.9000       0.00000
      71.0000       0.00000
      71.1000       0.00000
      71.2000       0.00000
      71.3000       0.00000
      71.4000       0.00000
      71.5000       0.00000
      71.6000       0.00000
      71.7000       0.00000
      71.8000       0.00000
      71.9000       0.00000
      72.0000       0.00000
      72.1000       0.00000
      72.2000       0.00000
      72.3000       0.00000
      72.4000       0.00000
      72.5000       0.00000
      72.6000       0.00000
      72.7000       0.00000
      72.8000       0.00000
      72.9000       0.00000
      73.0000       0.00000
      73.1000       0.00000
      73.2000       0.00000
      73.3000       0.00000
      73.4000       0.00000
      73.5000       0.00000
      73.6000       0.00000
      73.7000       0.00000
      73.8000       0.00000
      73.9000       0.00000
      74.0000       0.00000
      74.1000       0.00000
      74.2000       0.00000
      74.3000       0.00000
      74.4000       0.00000
      74.5000       0.00000
      74.6000       0.00000
      74.7000       0.00000
      74.8000       0.00000
      74.9000       0.00000
      75.0000       0.00000
      75.1000       0.00000
      75.2000       0.00000
      75.3000       0.00000
      75.4000       0.00000
      75.5000       0.00000
      75.6000       0.00000
      75.7000       0.00000
      75.8000       0.00000
      75.9000       0.00000
      76.0000       0.00000
      76.1000       0.00000
      76.2000       0.00000
      76.3000       0.00000
      76.4000       0.00000
      76.5000       0.00000
      76.6000       0.00000
      76.7000       0.00000
      76.8000       0.00000
      76.9000       0.00000
      77.0000       0.00000
      77.1000       0.00000
      77.2000       0.00000
      77.3000       0.00000
      77.4000       0.00000
      77.5000       0.00000
      77.6000       0.00000
      77.7000       0.00000
      77.8000       0.00000
      77.9000       0.00000
      78.0000       0.00000
      78.1000       0.00000
      78.2000       0.00000
      78.3000       0.00000
      78.4000       0.00000
      78.5000       0.00000
      78.6000       0.00000
      78.7000       0.00000
      78.8000       0.00000
      78.9000       0.00000
      79.0000       0.00000
      79.1000       0.00000
      79.2000       0.00000
      79.3000       0.00000
      79.4000       0.00000
      79.5000       0.00000
      79.6000       0.00000
      79.7000       0.00000
      79.8000       0.00000
      79.9000       0.00000
      80.0000       0.00000
      80.1000       0.00000
      80.2000       0.00000
      80.3000       0.00000
      80.4000       0.00000
      80.5000       0.00000
      80.6000       0.00000
      80.7000       0.00000
      80.8000       0.00000
      80.9000       0.00000
      81.0000       0.00000
      81.1000       0.00000
      81.2000       0.00000
      81.3000       0.00000
      81.4000       0.00000
      81.5000       0.00000
      81.6000       0.00000
      81.7000       0.00000
      81.8000       0.00000
      81.9000       0.00000
      82.0000       0.00000
      82.1000       0.00000
      82.2000       0.00000
      82.3000       0.00000
      82.4000       0.00000
      82.5000       0.00000
      82.6000       0.00000
      82.7000       0.00000
      82.8000       0.00000
      82.9000       0.00000
      83.0000       0.00000
      83.1000       0.00000
      83.2000       0.00000
      83.3000       0.00000
      83.4000       0.00000
      83.5000       0.00000
      83.6000       0.00000
      83.7000       0.00000
      83.8000       0.00000
      83.9000       0.00000
      84.0000       0.00000
      84.1000       0.00000
      84.2000       0.00000
      84.3000       0.00000
      84.4000       0.00000
      84.5000       0.00000
      84.6000       0.00000
      84.7000       0.00000
      84.8000       0.00000
      84.9000       0.00000
      85.0000       0.00000
      85.1000       0.00000
      85.2000       0.00000
      85.3000       0.00000
      85.4000       0.00000
      85.5000       0.00000
      85.6000       0.00000
      85.7000       0.00000
      85.8000       0.00000
      85.9000       0.00000
      86.0000       0.00000
      86.1000       0.00000
      86.2000       0.00000
      86.3000       0.00000
      86.4000       0.00000
      86.5000       0.00000
      86.6000       0.00000
      86.7000       0.00000
      86.8000       0.00000
      86.9000       0.00000
      87.0000       0.00000
      87.1000       0.00000
      87.2000       0.00000
      87.3000       0.00000
      87.4000       0.00000
      87.5000       0.00000
      87.6000       0.00000
      87.7000       0.00000
      87.8000       0.00000
      87.9000       0.00000
      88.0000       0.00000
      88.1000       0.00000
      88.2000       0.00000
      88.3000       0.00000
      88.4000       0.00000
      88.5000       0.00000
      88.6000       0.00000
      88.7000       0.00000
      88.8000       0.00000
      88.9000       0.00000
      89.0000       0.00000
      89.1000       0.00000
      89.2000       0.00000
      89.3000       0.00000
      89.4000       0.00000
      89.5000       0.00000
      89.6000       0.00000
      89.7000       0.00000
      89.8000       0.00000
      89.9000       0.00000
      90.0000       0.00000
      90.1000       0.00000
      90.2000       0.00000
      90.3000       0.00000
      90.4000       0.00000
      90.5000       0.00000
      90.6000       0.00000
      90.7000       0.00000
      90.8000       0.00000
      90.9000       0.00000
      91.0000       0.00000
      91.1000       0.00000
      91.2000       0.00000
      91.3000       0.00000
      91.4000       0.00000
      91.5000       0.00000
      91.6000       0.00000
      91.7000       0.00000
      91.8000       0.00000
      91.9000       0.00000
      92.0000       0.00000
      92.1000       0.00000
      92.2000       0.00000
      92.3000       0.00000
      92.4000       0.00000
      92.5000       0.00000
      92.6000       0.00000
      92.7000       0.00000
      92.8000       0.00000
      92.9000       0.00000
      93.0000       0.00000
      93.1000       0.00000
      93.2000       0.00000
      93.3000       0.00000
      93.4000       0.00000
      93.5000       0.00000
      93.6000       0.00000
      93.7000       0.00000
      93.8000       0.00000
      93.9000       0.00000
      94.0000       0.00000
      94.1000       0.00000
      94.2000       0.00000
      94.3000       0.00000
      94.4000       0.00000
      94.5000       0.00000
      94.6000       0.00000
      94.7000       0.00000
      94.8000       0.00000
      94.9000       0.00000
      95.0000       0.00000
      95.1000       0.00000
      95.2000       0.00000
      95.3000       0.00000
      95.4000       0.00000
      95.5000       0.00000
      95.6000       0.00000
      95.7000       0.00000
      95.8000       0.00000
      95.9000       0.00000
      96.0000       0.00000
      96.1000       0.00000
      96.2000       0.00000
      96.3000       0.00000
      96.4000       0.00000
      96.5000       0.00000
      96.6000       0.00000
      96.7000       0.00000
      96.8000       0.00000
      96.9000       0.00000
      97.0000       0.00000
      97.1000       0.00000
      97.2000       0.00000
      97.3000       0.00000
      97.4000       0.00000
      97.5000       0.00000
      97.6000       0.00000
      97.7000       0.00000
      97.8000       0.00000
      97.9000       0.00000
      98.0000       0.00000
      98.1000       0.00000
      98.2000       0.00000
      98.3000       0.00000
      98.4000       0.00000
      98.5000       0.00000
      98.6000       0.00000
      98.7000       0.00000
      98.8000       0.00000
      98.9000       0.00000
      99.0000       0.00000
      99.1000       0.00000
      99.2000       0.00000
      99.3000       0.00000
      99.4000       0.00000
      99.5000       0.00000
      99.6000       0.00000
      99.7000       0.00000
      99.8000       0.00000
      99.9000       0.00000
      100.000       0.00000
      100.100       0.00000
      100.200       0.00000
      100.300       0.00000
      100.400       0.00000
      100.500       0.00000
      100.600       0.00000
      100.700       0.00000
      100.800       0.00000
      100.900       0.00000
      101.000       0.00000
      101.100       0.00000
      101.200       0.00000
      101.300       0.00000
      101.400       0.00000
      101.500       0.00000
      101.600       0.00000
      101.700       0.00000
      101.800       0.00000
      101.900       0.00000
      102.000       0.00000
      102.100       0.00000
      102.200       0.00000
      102.300       0.00000
      102.400       0.00000
      102.500       0.00000
      102.600       0.00000
      102.700       0.00000
      102.800       0.00000
      102.900       0.00000
      103.000       0.00000
      103.100       0.00000
      103.200       0.00000
      103.300       0.00000
      103.400       0.00000
      103.500       0.00000
      103.600       0.00000
      103.700       0.00000
      103.800       0.00000
      103.900       0.00000
      104.000       0.00000
      104.100       0.00000
      104.200       0.00000
      104.300       0.00000
      104.400       0.00000
      104.500       0.00000
      104.600       0.00000
      104.700       0.00000
      104.800       0.00000
      104.900       0.00000
      105.000       0.00000
      105.100       0.00000
      105.200       0.00000
      105.300       0.00000
      105.400       0.00000
      105.500       0.00000
      105.600       0.00000
      105.700       0.00000
      105.800       0.00000
      105.900       0.00000
      106.000       0.00000
      106.100       0.00000
      106.200       0.00000
      106.300       0.00000
      106.400       0.00000
      106.500       0.00000
      106.600       0.00000
      106.700       0.00000
      106.800       0.00000
      106.900       0.00000
      107.000       0.00000
      107.100       0.00000
      107.200       0.00000
      107.300       0.00000
      107.400       0.00000
      107.500       0.00000
      107.600       0.00000
      107.700       0.00000
      107.800       0.00000
      107.900       0.00000
      108.000       0.00000
      108.100       0.00000
      108.200       0.00000
      108.300       0.00000
      108.400       0.00000
      108.500       0.00000
      108.600       0.00000
      108.700       0.00000
      108.800       0.00000
      108.900       0.00000
      109.000       0.00000
      109.100       0.00000
      109.200       0.00000
      109.300       0.00000
      109.400       0.00000
      109.500       0.00000
      109.600       0.00000
      109.700       0.00000
      109.800       0.00000
      109.900       0.00000
      110.000       0.00000
      110.100       0.00000
      110.200       0.00000
      110.300       0.00000
      110.400       0.00000
      110.500       0.00000
      110.600   1.42176e-41
      110.700   3.66742e-29
      110.800   1.01054e-19
      110.900   3.60722e-15
      111.000   1.25259e-12
      111.100   4.51256e-11
      111.200   1.45694e-10
      111.300   2.77154e-10
      111.400   4.37217e-10
      111.500   4.86912e-10
      111.600   5.43058e-10
      111.700   6.74047e-10
      111.800   8.48756e-10
      111.900   9.39292e-10
      112.000   1.10976e-09
      112.100   1.38079e-09
      112.200   1.61934e-09
      112.300   1.77977e-09
      112.400   1.93437e-09
      112.500   2.14741e-09
      112.600   2.44171e-09
      112.700   2.74109e-09
      112.800   2.89094e-09
      112.900   3.17660e-09
      113.000   3.48621e-09
      113.100   3.72825e-09
      113.200   3.92801e-09
      113.300   3.95767e-09
      113.400   4.29432e-09
      113.500   4.64509e-09
      113.600   4.69888e-09
      113.700   5.03215e-09
      113.800   5.27609e-09
      113.900   5.49037e-09
      114.000   5.62328e-09
      114.100   5.71021e-09
      114.200   6.24784e-09
      114.300   6.60113e-09
      114.400   6.53219e-09
      114.500   6.32725e-09
      114.600   6.32778e-09
      114.700   6.36986e-09
      114.800   6.47440e-09
      114.900   6.72465e-09
      115.000   6.96630e-09
      115.100   7.11999e-09
      115.200   7.16364e-09
      115.300   7.21418e-09
      115.400   7.25852e-09
      115.500   7.30624e-09
      115.600   7.35139e-09
      115.700   7.39250e-09
      115.800   7.43939e-09
      115.900   7.48348e-09
      116.000   7.52403e-09
      116.100   7.54969e-09
      116.200   7.57202e-09
      116.300   7.59279e-09
      116.400   7.60053e-09
      116.500   7.55173e-09
      116.600   7.50145e-09
      116.700   7.45287e-09
      116.800   7.40291e-09
      116.900   7.34645e-09
      117.000   7.29800e-09
      117.100   7.27170e-09
      117.200   7.26086e-09
      117.300   7.23493e-09
      117.400   7.20805e-09
      117.500   7.16885e-09
      117.600   7.09527e-09
      117.700   7.01193e-09
      117.800   6.92503e-09
      117.900   6.83690e-09
      118.000   6.74563e-09
      118.100   6.65158e-09
      118.200   6.56189e-09
      118.300   6.47468e-09
      118.400   6.37342e-09
      118.500   6.27486e-09
      118.600   6.18450e-09
      118.700   6.09299e-09
      118.800   5.99952e-09
      118.900   5.90957e-09
      119.000   5.81316e-09
      119.100   5.70945e-09
      119.200   5.63223e-09
      119.300   5.59190e-09
      119.400   5.56309e-09
      119.500   5.52642e-09
      119.600   5.47126e-09
      119.700   5.40665e-09
      119.800   5.33131e-09
      119.900   5.24180e-09
      120.000   5.15805e-09
      120.100   5.07903e-09
      120.200   5.01905e-09
      120.300   4.97005e-09
      120.400   4.92133e-09
      120.500   4.85847e-09
      120.600   4.78521e-09
      120.700   4.70922e-09
      120.800   4.63635e-09
      120.900   4.58289e-09
      121.000   4.55884e-09
      121.100   4.53240e-09
      121.200   4.49981e-09
      121.300   4.45755e-09
      121.400   4.40781e-09
      121.500   4.35210e-09
      121.600   4.25639e-09
      121.700   4.16634e-09
      121.800   4.06983e-09
      121.900   3.97384e-09
      122.000   3.87416e-09
      122.100   3.77999e-09
      122.200   3.68801e-09
      122.300   3.61547e-09
      122.400   3.56332e-09
      122.500   3.51590e-09
      122.600   3.46662e-09
      122.700   3.41778e-09
      122.800   3.36531e-09
      122.900   3.31594e-09
      123.000   3.28868e-09
      123.100   3.29917e-09
      123.200   3.31813e-09
      123.300   3.37554e-09
      123.400   3.44874e-09
      123.500   3.54451e-09
      123.600   3.62577e-09
      123.700   3.65661e-09
      123.800   3.65776e-09
      123.900   3.66928e-09
      124.000   3.69748e-09
      124.100   3.78202e-09
      124.200   3.99302e-09
      124.300   4.31902e-09
      124.400   4.63029e-09
      124.500   4.70658e-09
      124.600   4.67069e-09
      124.700   4.60666e-09
      124.800   4.54471e-09
      124.900   4.48347e-09
      125.000   4.42281e-09
      125.100   4.36130e-09
      125.200   4.30043e-09
      125.300   4.24033e-09
      125.400   4.18104e-09
      125.500   4.12255e-09
      125.600   4.04746e-09
      125.700   3.96964e-09
      125.800   3.90344e-09
      125.900   3.87964e-09
      126.000   3.85887e-09
      126.100   3.83822e-09
      126.200   3.81768e-09
      126.300   3.79724e-09
      126.400   3.77689e-09
      126.500   3.75664e-09
      126.600   3.73651e-09
      126.700   3.71648e-09
      126.800   3.69656e-09
      126.900   3.67673e-09
      127.000   3.65689e-09
      127.100   3.62937e-09
      127.200   3.59319e-09
      127.300   3.55441e-09
      127.400   3.51602e-09
      127.500   3.47801e-09
      127.600   3.44041e-09
      127.700   3.40318e-09
      127.800   3.36632e-09
      127.900   3.32983e-09
      128.000   3.29372e-09
      128.100   3.25796e-09
      128.200   3.22256e-09
      128.300   3.18751e-09
      128.400   3.15284e-09
      128.500   3.11850e-09
      128.600   3.08451e-09
      128.700   3.05089e-09
      128.800   3.01760e-09
      128.900   2.98465e-09
      129.000   2.95206e-09
      129.100   2.91975e-09
      129.200   2.88759e-09
      129.300   2.85576e-09
      129.400   2.82427e-09
      129.500   2.79312e-09
      129.600   2.76230e-09
      129.700   2.73182e-09
      129.800   2.70165e-09
      129.900   2.67182e-09
      130.000   2.64232e-09
      130.100   2.61315e-09
      130.200   2.58428e-09
      130.300   2.55573e-09
      130.400   2.52750e-09
      130.500   2.49955e-09
      130.600   2.47181e-09
      130.700   2.44433e-09
      130.800   2.41715e-09
      130.900   2.39027e-09
      131.000   2.36368e-09
      131.100   2.33738e-09
      131.200   2.31135e-09
      131.300   2.28554e-09
      131.400   2.26002e-09
      131.500   2.23476e-09
      131.600   2.20976e-09
      131.700   2.18504e-09
      131.800   2.16057e-09
      131.900   2.13636e-09
      132.000   2.11240e-09
      132.100   2.08868e-09
      132.200   2.06522e-09
      132.300   2.04201e-09
      132.400   2.01903e-09
      132.500   1.99631e-09
      132.600   1.97384e-09
      132.700   1.95023e-09
      132.800   1.92642e-09
      132.900   1.90283e-09
      133.000   1.87950e-09
      133.100   1.85644e-09
      133.200   1.83366e-09
      133.300   1.81112e-09
      133.400   1.78885e-09
      133.500   1.76683e-09
      133.600   1.74507e-09
      133.700   1.72357e-09
      133.800   1.70233e-09
      133.900   1.68137e-09
      134.000   1.66066e-09
      134.100   1.64020e-09
      134.200   1.61998e-09
      134.300   1.60001e-09
      134.400   1.58028e-09
      134.500   1.56079e-09
      134.600   1.54153e-09
      134.700   1.52251e-09
      134.800   1.50372e-09
      134.900   1.48516e-09
      135.000   1.46683e-09
      135.100   1.44873e-09
      135.200   1.43085e-09
      135.300   1.41319e-09
      135.400   1.39573e-09
      135.500   1.37844e-09
      135.600   1.36132e-09
      135.700   1.34440e-09
      135.800   1.32768e-09
      135.900   1.31116e-09
      136.000   1.29483e-09
      136.100   1.27869e-09
      136.200   1.26276e-09
      136.300   1.24701e-09
      136.400   1.23146e-09
      136.500   1.21609e-09
      136.600   1.20089e-09
      136.700   1.18587e-09
      136.800   1.17103e-09
      136.900   1.15638e-09
      137.000   1.14190e-09
      137.100   1.12762e-09
      137.200   1.11351e-09
      137.300   1.09959e-09
      137.400   1.08584e-09
      137.500   1.07224e-09
      137.600   1.05881e-09
      137.700   1.04551e-09
      137.800   1.03237e-09
      137.900   1.01938e-09
      138.000   1.00655e-09
      138.100   9.93882e-10
      138.200   9.81383e-10
      138.300   9.69034e-10
      138.400   9.56842e-10
      138.500   9.44797e-10
      138.600   9.32898e-10
      138.700   9.21147e-10
      138.800   9.09540e-10
      138.900   8.98074e-10
      139.000   8.86749e-10
      139.100   8.75576e-10
      139.200   8.64600e-10
      139.300   8.53817e-10
      139.400   8.43183e-10
      139.500   8.32677e-10
      139.600   8.22293e-10
      139.700   8.12036e-10
      139.800   8.01902e-10
      139.900   7.91886e-10
      140.000   7.81998e-10
      140.100   7.72227e-10
      140.200   7.62573e-10
      140.300   7.53035e-10
      140.400   7.43609e-10
      140.500   7.34292e-10
      140.600   7.25084e-10
      140.700   7.15984e-10
      140.800   7.07008e-10
      140.900   6.98139e-10
      141.000   6.89370e-10
      141.100   6.80706e-10
      141.200   6.72147e-10
      141.300   6.63686e-10
      141.400   6.55352e-10
      141.500   6.47250e-10
      141.600   6.39335e-10
      141.700   6.31515e-10
      141.800   6.23787e-10
      141.900   6.16147e-10
      142.000   6.08596e-10
      142.100   6.01370e-10
      142.200   5.94912e-10
      142.300   5.89109e-10
      142.400   5.83366e-10
      142.500   5.77671e-10
      142.600   5.72024e-10
      142.700   5.66426e-10
      142.800   5.60880e-10
      142.900   5.55382e-10
      143.000   5.49933e-10
      143.100   5.44535e-10
      143.200   5.39191e-10
      143.300   5.33892e-10
      143.400   5.28643e-10
      143.500   5.23441e-10
      143.600   5.18284e-10
      143.700   5.13217e-10
      143.800   5.08767e-10
      143.900   5.04456e-10
      144.000   5.00187e-10
      144.100   4.95950e-10
      144.200   4.91746e-10
      144.300   4.87572e-10
      144.400   4.83483e-10
      144.500   4.80145e-10
      144.600   4.77055e-10
      144.700   4.74002e-10
      144.800   4.70961e-10
      144.900   4.67931e-10
      145.000   4.64914e-10
      145.100   4.61909e-10
      145.200   4.58915e-10
      145.300   4.55935e-10
      145.400   4.52967e-10
      145.500   4.50008e-10
      145.600   4.47060e-10
      145.700   4.44121e-10
      145.800   4.41197e-10
      145.900   4.38287e-10
      146.000   4.35383e-10
      146.100   4.32444e-10
      146.200   4.29486e-10
      146.300   4.26540e-10
      146.400   4.23604e-10
      146.500   4.20685e-10
      146.600   4.17779e-10
      146.700   4.14885e-10
      146.800   4.11979e-10
      146.900   4.09051e-10
      147.000   4.06136e-10
      147.100   4.03235e-10
      147.200   4.00352e-10
      147.300   3.97483e-10
      147.400   3.94630e-10
      147.500   3.91791e-10
      147.600   3.88966e-10
      147.700   3.86158e-10
      147.800   3.83366e-10
      147.900   3.80589e-10
      148.000   3.77825e-10
      148.100   3.75078e-10
      148.200   3.72347e-10
      148.300   3.69632e-10
      148.400   3.67488e-10
      148.500   3.65786e-10
      148.600   3.64237e-10
      148.700   3.62690e-10
      148.800   3.61145e-10
      148.900   3.59605e-10
      149.000   3.58068e-10
      149.100   3.56533e-10
      149.200   3.54999e-10
      149.300   3.53466e-10
      149.400   3.51937e-10
      149.500   3.50410e-10
      149.600   3.48885e-10
      149.700   3.47361e-10
      149.800   3.45841e-10
      149.900   3.44324e-10
      150.000   3.42809e-10
      150.100   3.41298e-10
      150.200   3.39785e-10
      150.300   3.38276e-10
      150.400   3.36770e-10
      150.500   3.35266e-10
      150.600   3.33764e-10
      150.700   3.32264e-10
      150.800   3.30765e-10
      150.900   3.29270e-10
      151.000   3.27774e-10
      151.100   3.26282e-10
      151.200   3.24792e-10
      151.300   3.23304e-10
      151.400   3.21819e-10
      151.500   3.20336e-10
      151.600   3.18859e-10
      151.700   3.17389e-10
      151.800   3.15922e-10
      151.900   3.14456e-10
      152.000   3.13112e-10
      152.100   3.12989e-10
      152.200   3.13020e-10
      152.300   3.13042e-10
      152.400   3.13060e-10
      152.500   3.13077e-10
      152.600   3.13089e-10
      152.700   3.11867e-10
      152.800   3.10204e-10
      152.900   3.08541e-10
      153.000   3.06883e-10
      153.100   3.05232e-10
      153.200   3.03585e-10
      153.300   3.02340e-10
      153.400   3.01477e-10
      153.500   3.00656e-10
      153.600   2.99836e-10
      153.700   2.99017e-10
      153.800   2.98196e-10
      153.900   2.97374e-10
      154.000   2.96588e-10
      154.100   2.95880e-10
      154.200   2.95195e-10
      154.300   2.94509e-10
      154.400   2.93824e-10
      154.500   2.93136e-10
      154.600   2.92446e-10
      154.700   2.91757e-10
      154.800   2.91067e-10
      154.900   2.90374e-10
      155.000   2.89679e-10
      155.100   2.88985e-10
      155.200   2.88286e-10
      155.300   2.87586e-10
      155.400   2.86886e-10
      155.500   2.86184e-10
      155.600   2.85479e-10
      155.700   2.84772e-10
      155.800   2.84064e-10
      155.900   2.83353e-10
      156.000   2.82641e-10
      156.100   2.81926e-10
      156.200   2.81209e-10
      156.300   2.80491e-10
      156.400   2.79770e-10
      156.500   2.79036e-10
      156.600   2.78237e-10
      156.700   2.77434e-10
      156.800   2.76630e-10
      156.900   2.75824e-10
      157.000   2.75019e-10
      157.100   2.74120e-10
      157.200   2.72591e-10
      157.300   2.70390e-10
      157.400   2.68205e-10
      157.500   2.66032e-10
      157.600   2.63873e-10
      157.700   2.61727e-10
      157.800   2.59596e-10
      157.900   2.58893e-10
      158.000   2.58318e-10
      158.100   2.57742e-10
      158.200   2.57163e-10
      158.300   2.56583e-10
      158.400   2.56003e-10
      158.500   2.55420e-10
      158.600   2.54836e-10
      158.700   2.54248e-10
      158.800   2.53663e-10
      158.900   2.53075e-10
      159.000   2.52485e-10
      159.100   2.51850e-10
      159.200   2.50706e-10
      159.300   2.48728e-10
      159.400   2.46763e-10
      159.500   2.44811e-10
      159.600   2.42872e-10
      159.700   2.40946e-10
      159.800   2.39031e-10
      159.900   2.38149e-10
      160.000   2.37965e-10
      160.100   2.37802e-10
      160.200   2.37635e-10
      160.300   2.37468e-10
      160.400   2.37299e-10
      160.500   2.37011e-10
      160.600   2.36047e-10
      160.700   2.34587e-10
      160.800   2.33133e-10
      160.900   2.31686e-10
      161.000   2.30244e-10
      161.100   2.28810e-10
      161.200   2.27383e-10
      161.300   2.25961e-10
      161.400   2.24546e-10
      161.500   2.23138e-10
      161.600   2.21734e-10
      161.700   2.20334e-10
      161.800   2.18941e-10
      161.900   2.17584e-10
      162.000   2.16487e-10
      162.100   2.15547e-10
      162.200   2.14609e-10
      162.300   2.13671e-10
      162.400   2.12736e-10
      162.500   2.11801e-10
      162.600   2.10869e-10
      162.700   2.09937e-10
      162.800   2.09007e-10
      162.900   2.08079e-10
      163.000   2.07153e-10
      163.100   2.06228e-10
      163.200   2.05304e-10
      163.300   2.04382e-10
      163.400   2.03462e-10
      163.500   2.02543e-10
      163.600   2.01627e-10
      163.700   2.00711e-10
      163.800   1.99799e-10
      163.900   1.98888e-10
      164.000   1.97979e-10
      164.100   1.96839e-10
      164.200   1.95073e-10
      164.300   1.93331e-10
      164.400   1.91603e-10
      164.500   1.89889e-10
      164.600   1.88189e-10
      164.700   1.86501e-10
      164.800   1.85045e-10
      164.900   1.84076e-10
      165.000   1.83305e-10
      165.100   1.82535e-10
      165.200   1.81767e-10
      165.300   1.81000e-10
      165.400   1.80237e-10
      165.500   1.79475e-10
      165.600   1.78102e-10
      165.700   1.76473e-10
      165.800   1.74837e-10
      165.900   1.73214e-10
      166.000   1.71607e-10
      166.100   1.70013e-10
      166.200   1.68433e-10
      166.300   1.66866e-10
      166.400   1.65312e-10
      166.500   1.63771e-10
      166.600   1.62243e-10
      166.700   1.60727e-10
      166.800   1.59223e-10
      166.900   1.57732e-10
      167.000   1.56256e-10
      167.100   1.54790e-10
      167.200   1.53336e-10
      167.300   1.51894e-10
      167.400   1.50465e-10
      167.500   1.49047e-10
      167.600   1.47641e-10
      167.700   1.46247e-10
      167.800   1.44864e-10
      167.900   1.43493e-10
      168.000   1.42133e-10
      168.100   1.40785e-10
      168.200   1.39447e-10
      168.300   1.38121e-10
      168.400   1.36806e-10
      168.500   1.35514e-10
      168.600   1.34527e-10
      168.700   1.33702e-10
      168.800   1.32881e-10
      168.900   1.32064e-10
      169.000   1.31251e-10
      169.100   1.30440e-10
      169.200   1.29634e-10
      169.300   1.28832e-10
      169.400   1.28033e-10
      169.500   1.27230e-10
      169.600   1.26401e-10
      169.700   1.25542e-10
      169.800   1.24677e-10
      169.900   1.23816e-10
      170.000   1.22958e-10
      170.100   1.21688e-10
      170.200   1.19818e-10
      170.300   1.56180e-10
      170.400   3.35559e-10
      170.500   6.35975e-10
      170.600   9.36165e-10
      170.700   1.17559e-09
      170.800   1.28585e-09
      170.900   1.29217e-09
      171.000   1.27537e-09
      171.100   1.25924e-09
      171.200   1.24323e-09
      171.300   1.22735e-09
      171.400   1.21159e-09
      171.500   1.19596e-09
      171.600   1.18047e-09
      171.700   1.16512e-09
      171.800   1.14992e-09
      171.900   1.13488e-09
      172.000   1.12002e-09
      172.100   1.10534e-09
      172.200   1.09084e-09
      172.300   1.07650e-09
      172.400   1.06213e-09
      172.500   1.04792e-09
      172.600   1.03391e-09
      172.700   1.02010e-09
      172.800   1.00649e-09
      172.900   9.93064e-10
      173.000   9.79842e-10
      173.100   9.66812e-10
      173.200   9.53968e-10
      173.300   9.41313e-10
      173.400   9.28835e-10
      173.500   9.16543e-10
      173.600   9.04433e-10
      173.700   8.92491e-10
      173.800   8.80726e-10
      173.900   8.69131e-10
      174.000   8.57695e-10
      174.100   8.46422e-10
      174.200   8.35308e-10
      174.300   8.24343e-10
      174.400   8.13530e-10
      174.500   8.02859e-10
      174.600   7.92329e-10
      174.700   7.81942e-10
      174.800   7.71693e-10
      174.900   7.61574e-10
      175.000   7.51581e-10
      175.100   7.41712e-10
      175.200   7.32001e-10
      175.300   7.22403e-10
      175.400   7.12926e-10
      175.500   7.03575e-10
      175.600   6.94337e-10
      175.700   6.85220e-10
      175.800   6.76214e-10
      175.900   6.67324e-10
      176.000   6.58545e-10
      176.100   6.49881e-10
      176.200   6.41327e-10
      176.300   6.32879e-10
      176.400   6.24542e-10
      176.500   6.16290e-10
      176.600   6.04670e-10
      176.700   5.91630e-10
      176.800   5.78861e-10
      176.900   5.66362e-10
      177.000   5.54123e-10
      177.100   5.42138e-10
      177.200   5.30408e-10
      177.300   5.18924e-10
      177.400   5.07675e-10
      177.500   4.96659e-10
      177.600   4.85876e-10
      177.700   4.75321e-10
      177.800   4.64985e-10
      177.900   4.54860e-10
      178.000   4.44978e-10
      178.100   4.35307e-10
      178.200   4.25834e-10
      178.300   4.16558e-10
      178.400   4.07481e-10
      178.500   3.98593e-10
      178.600   3.90064e-10
      178.700   3.82661e-10
      178.800   3.76885e-10
      178.900   3.71191e-10
      179.000   3.65579e-10
      179.100   3.60045e-10
      179.200   3.54594e-10
      179.300   3.49223e-10
      179.400   3.43928e-10
      179.500   3.38714e-10
      179.600   3.33578e-10
      179.700   3.28520e-10
      179.800   3.23536e-10
      179.900   3.18628e-10
      180.000   3.13792e-10
      180.100   3.09031e-10
      180.200   3.04344e-10
      180.300   2.99729e-10
      180.400   2.95184e-10
      180.500   2.90711e-10
      180.600   2.86307e-10
      180.700   2.81971e-10
      180.800   2.77703e-10
      180.900   2.73501e-10
      181.000   2.69363e-10
      181.100   2.65291e-10
      181.200   2.61282e-10
      181.300   2.57336e-10
      181.400   2.53453e-10
      181.500   2.49629e-10
      181.600   2.45864e-10
      181.700   2.42158e-10
      181.800   2.38509e-10
      181.900   2.34917e-10
      182.000   2.31381e-10
      182.100   2.27898e-10
      182.200   2.24497e-10
      182.300   2.21395e-10
      182.400   2.18354e-10
      182.500   2.15355e-10
      182.600   2.12398e-10
      182.700   2.09481e-10
      182.800   2.06605e-10
      182.900   2.03767e-10
      183.000   2.00969e-10
      183.100   1.98210e-10
      183.200   1.95488e-10
      183.300   1.92803e-10
      183.400   1.90154e-10
      183.500   1.87542e-10
      183.600   1.84964e-10
      183.700   1.82422e-10
      183.800   1.79917e-10
      183.900   1.77447e-10
      184.000   1.75010e-10
      184.100   1.72608e-10
      184.200   1.70238e-10
      184.300   1.67901e-10
      184.400   1.65596e-10
      184.500   1.63323e-10
      184.600   1.61080e-10
      184.700   1.58868e-10
      184.800   1.56687e-10
      184.900   1.54535e-10
      185.000   1.52412e-10
      185.100   1.50341e-10
      185.200   1.48412e-10
      185.300   1.46659e-10
      185.400   1.44926e-10
      185.500   1.43212e-10
      185.600   1.41518e-10
      185.700   1.39844e-10
      185.800   1.38191e-10
      185.900   1.36556e-10
      186.000   1.34940e-10
      186.100   1.33343e-10
      186.200   1.31763e-10
      186.300   1.30200e-10
      186.400   1.28656e-10
      186.500   1.27129e-10
      186.600   1.25618e-10
      186.700   1.24124e-10
      186.800   1.22646e-10
      186.900   1.21184e-10
      187.000   1.19739e-10
      187.100   1.18308e-10
      187.200   1.16894e-10
      187.300   1.15496e-10
      187.400   1.14113e-10
      187.500   1.12746e-10
      187.600   1.11394e-10
      187.700   1.10056e-10
      187.800   1.08734e-10
      187.900   1.07426e-10
      188.000   1.06133e-10
      188.100   1.04793e-10
      188.200   1.03253e-10
      188.300   1.01463e-10
      188.400   9.97037e-11
      188.500   9.79737e-11
      188.600   9.62736e-11
      188.700   9.46031e-11
      188.800   9.29616e-11
      188.900   9.13479e-11
      189.000   8.97613e-11
      189.100   8.82013e-11
      189.200   8.66680e-11
      189.300   8.51611e-11
      189.400   8.36803e-11
      189.500   8.22322e-11
      189.600   8.09159e-11
      189.700   8.00336e-11
      189.800   7.91681e-11
      189.900   7.83129e-11
      190.000   7.74678e-11
      190.100   7.66323e-11
      190.200   7.58061e-11
      190.300   7.49892e-11
      190.400   7.41811e-11
      190.500   7.33823e-11
      190.600   7.25926e-11
      190.700   7.18115e-11
      190.800   7.10392e-11
      190.900   7.02756e-11
      191.000   6.95210e-11
      191.100   6.87752e-11
      191.200   6.80372e-11
      191.300   6.73076e-11
      191.400   6.65862e-11
      191.500   6.58726e-11
      191.600   6.51669e-11
      191.700   6.44689e-11
      191.800   6.37784e-11
      191.900   6.30953e-11
      192.000   6.24201e-11
      192.100   6.17523e-11
      192.200   6.10926e-11
      192.300   6.04397e-11
      192.400   5.97939e-11
      192.500   5.91141e-11
      192.600   5.83089e-11
      192.700   5.74080e-11
      192.800   5.65208e-11
      192.900   5.56466e-11
      193.000   5.47860e-11
      193.100   5.39393e-11
      193.200   5.31062e-11
      193.300   5.22861e-11
      193.400   5.14790e-11
      193.500   5.06841e-11
      193.600   4.99014e-11
      193.700   4.91306e-11
      193.800   4.83720e-11
      193.900   4.76254e-11
      194.000   4.69038e-11
      194.100   4.64627e-11
      194.200   4.61175e-11
      194.300   4.57816e-11
      194.400   4.54483e-11
      194.500   4.51179e-11
      194.600   4.47900e-11
      194.700   4.44646e-11
      194.800   4.41418e-11
      194.900   4.38214e-11
      195.000   4.35035e-11
      195.100   4.31883e-11
      195.200   4.28754e-11
      195.300   4.25648e-11
      195.400   4.22563e-11
      195.500   4.19450e-11
      195.600   4.15060e-11
      195.700   4.08538e-11
      195.800   4.02115e-11
      195.900   3.95788e-11
      196.000   3.89488e-11
      196.100   3.83284e-11
      196.200   3.77175e-11
      196.300   3.71158e-11
      196.400   3.65232e-11
      196.500   3.59393e-11
      196.600   3.53645e-11
      196.700   3.47982e-11
      196.800   3.42409e-11
      196.900   3.36926e-11
      197.000   3.31527e-11
      197.100   3.26208e-11
      197.200   3.20969e-11
      197.300   3.15807e-11
      197.400   3.10722e-11
      197.500   3.05714e-11
      197.600   3.00781e-11
      197.700   2.95932e-11
      197.800   2.91159e-11
      197.900   2.86456e-11
      198.000   2.81824e-11
      198.100   2.77263e-11
      198.200   2.72772e-11
      198.300   2.68346e-11
      198.400   2.63991e-11
      198.500   2.59710e-11
      198.600   2.55496e-11
      198.700   2.51726e-11
      198.800   2.48546e-11
      198.900   2.45666e-11
      199.000   2.42816e-11
      199.100   2.39997e-11
      199.200   2.37210e-11
      199.300   2.34458e-11
      199.400   2.31738e-11
      199.500   2.29048e-11
      199.600   2.26387e-11
      199.700   2.23757e-11
      199.800   2.21157e-11
      199.900   2.18586e-11
      200.000   2.16043e-11
      200.100   2.13544e-11
      200.200   2.11063e-11
      200.300   2.08612e-11
      200.400   2.06189e-11
      200.500   2.03793e-11
      200.600   2.01426e-11
      200.700   1.99086e-11
      200.800   1.96771e-11
      200.900   1.94486e-11
      201.000   1.92226e-11
      201.100   1.89994e-11
      201.200   1.87788e-11
      201.300   1.85608e-11
      201.400   1.83453e-11
      201.500   1.81324e-11
      201.600   1.79218e-11
      201.700   1.77137e-11
      201.800   1.75081e-11
      201.900   1.72996e-11
      202.000   1.70098e-11
      202.100   1.66850e-11
      202.200   1.63664e-11
      202.300   1.60549e-11
      202.400   1.57512e-11
      202.500   1.54538e-11
      202.600   1.51618e-11
      202.700   1.48754e-11
      202.800   1.45945e-11
      202.900   1.43190e-11
      203.000   1.40488e-11
      203.100   1.37838e-11
      203.200   1.35236e-11
      203.300   1.32682e-11
      203.400   1.30176e-11
      203.500   1.27719e-11
      203.600   1.25391e-11
      203.700   1.23341e-11
      203.800   1.21356e-11
      203.900   1.19405e-11
      204.000   1.17485e-11
      204.100   1.15597e-11
      204.200   1.13740e-11
      204.300   1.11914e-11
      204.400   1.10117e-11
      204.500   1.08349e-11
      204.600   1.06610e-11
      204.700   1.04900e-11
      204.800   1.03219e-11
      204.900   1.01566e-11
      205.000   9.99403e-12
      205.100   9.83413e-12
      205.200   9.67677e-12
      205.300   9.52204e-12
      205.400   9.36981e-12
      205.500   9.22002e-12
      205.600   9.07252e-12
      205.700   8.92583e-12
      205.800   8.78114e-12
      205.900   8.63887e-12
      206.000   8.49905e-12
      206.100   8.36144e-12
      206.200   8.22601e-12
      206.300   8.09283e-12
      206.400   7.96183e-12
      206.500   7.83286e-12
      206.600   7.70598e-12
      206.700   7.58116e-12
      206.800   7.45827e-12
      206.900   7.33735e-12
      207.000   7.21838e-12
      207.100   7.10135e-12
      207.200   6.98625e-12
      207.300   6.87291e-12
      207.400   6.76135e-12
      207.500   6.65154e-12
      207.600   6.54349e-12
      207.700   6.43708e-12
      207.800   6.33235e-12
      207.900   6.22926e-12
      208.000   6.12778e-12
      208.100   6.02790e-12
      208.200   5.92958e-12
      208.300   5.83280e-12
      208.400   5.73758e-12
      208.500   5.64389e-12
      208.600   5.55162e-12
      208.700   5.46077e-12
      208.800   5.37136e-12
      208.900   5.28023e-12
      209.000   5.17726e-12
      209.100   5.06735e-12
      209.200   4.95969e-12
      209.300   4.85419e-12
      209.400   4.75091e-12
      209.500   4.64973e-12
      209.600   4.55060e-12
      209.700   4.45358e-12
      209.800   4.35867e-12
      209.900   4.26564e-12
      210.000   4.17458e-12
      210.100   4.08540e-12
      210.200   3.99805e-12
      210.300   3.91251e-12
      210.400   3.82876e-12
      210.500   3.74673e-12
      210.600   3.66641e-12
      210.700   3.58778e-12
      210.800   3.51078e-12
      210.900   3.43537e-12
      211.000   3.36154e-12
      211.100   3.28927e-12
      211.200   3.21850e-12
      211.300   3.14928e-12
      211.400   3.08155e-12
      211.500   3.01521e-12
      211.600   2.95027e-12
      211.700   2.88670e-12
      211.800   2.82443e-12
      211.900   2.76348e-12
      212.000   2.70385e-12
      212.100   2.64545e-12
      212.200   2.58827e-12
      212.300   2.52996e-12
      212.400   2.46611e-12
      212.500   2.40115e-12
      212.600   2.33787e-12
      212.700   2.27621e-12
      212.800   2.21613e-12
      212.900   2.15762e-12
      213.000   2.10060e-12
      213.100   2.04512e-12
      213.200   1.99107e-12
      213.300   1.93842e-12
      213.400   1.88711e-12
      213.500   1.83714e-12
      213.600   1.78846e-12
      213.700   1.74105e-12
      213.800   1.69486e-12
      213.900   1.64989e-12
      214.000   1.60608e-12
      214.100   1.56413e-12
      214.200   1.53191e-12
      214.300   1.50605e-12
      214.400   1.48062e-12
      214.500   1.45562e-12
      214.600   1.43105e-12
      214.700   1.40689e-12
      214.800   1.38314e-12
      214.900   1.35979e-12
      215.000   1.33684e-12
      215.100   1.31427e-12
      215.200   1.29211e-12
      215.300   1.27033e-12
      215.400   1.24891e-12
      215.500   1.22786e-12
      215.600   1.20719e-12
      215.700   1.18685e-12
      215.800   1.16686e-12
      215.900   1.14722e-12
      216.000   1.12617e-12
      216.100   1.10132e-12
      216.200   1.07544e-12
      216.300   1.05017e-12
      216.400   1.02550e-12
      216.500   1.00140e-12
      216.600   9.77868e-13
      216.700   9.54897e-13
      216.800   9.32460e-13
      216.900   9.10556e-13
      217.000   8.89167e-13
      217.100   8.68272e-13
      217.200   8.47875e-13
      217.300   8.27958e-13
      217.400   8.08505e-13
      217.500   7.89519e-13
      217.600   7.70966e-13
      217.700   7.52845e-13
      217.800   7.35158e-13
      217.900   7.17822e-13
      218.000   6.99163e-13
      218.100   6.80980e-13
      218.200   6.63269e-13
      218.300   6.46024e-13
      218.400   6.29238e-13
      218.500   6.12877e-13
      218.600   5.96942e-13
      218.700   5.81413e-13
      218.800   5.66281e-13
      218.900   5.51546e-13
      219.000   5.37182e-13
      219.100   5.23183e-13
      219.200   5.09548e-13
      219.300   4.96264e-13
      219.400   4.83316e-13
      219.500   4.70702e-13
      219.600   4.58412e-13
      219.700   4.46435e-13
      219.800   4.34770e-13
      219.900   4.23401e-13
      220.000   4.12321e-13
      220.100   4.01525e-13
      220.200   3.91007e-13
      220.300   3.80761e-13
      220.400   3.70774e-13
      220.500   3.61048e-13
      220.600   3.51572e-13
      220.700   3.42335e-13
      220.800   3.33334e-13
      220.900   3.24571e-13
      221.000   3.16029e-13
      221.100   3.07705e-13
      221.200   2.99600e-13
      221.300   2.91702e-13
      221.400   2.84006e-13
      221.500   2.76511e-13
      221.600   2.69208e-13
      221.700   2.62093e-13
      221.800   2.55633e-13
      221.900   2.50575e-13
      222.000   2.45962e-13
      222.100   2.41431e-13
      222.200   2.36982e-13
      222.300   2.32612e-13
      222.400   2.28322e-13
      222.500   2.24108e-13
      222.600   2.19972e-13
      222.700   2.15908e-13
      222.800   2.11917e-13
      222.900   2.07999e-13
      223.000   2.04151e-13
      223.100   2.00372e-13
      223.200   1.96662e-13
      223.300   1.93018e-13
      223.400   1.89441e-13
      223.500   1.85927e-13
      223.600   1.82478e-13
      223.700   1.79091e-13
      223.800   1.75701e-13
      223.900   1.71930e-13
      224.000   1.68174e-13
      224.100   1.64498e-13
      224.200   1.60901e-13
      224.300   1.57381e-13
      224.400   1.53934e-13
      224.500   1.50563e-13
      224.600   1.47262e-13
      224.700   1.44034e-13
      224.800   1.40874e-13
      224.900   1.37780e-13
      225.000   1.34754e-13
      225.100   1.31791e-13
      225.200   1.28892e-13
      225.300   1.26057e-13
      225.400   1.23281e-13
      225.500   1.20564e-13
      225.600   1.17906e-13
      225.700   1.15306e-13
      225.800   1.12761e-13
      225.900   1.10890e-13
      226.000   1.09303e-13
      226.100   1.07764e-13
      226.200   1.06246e-13
      226.300   1.04756e-13
      226.400   1.03291e-13
      226.500   1.01843e-13
      226.600   1.00413e-13
      226.700   9.90015e-14
      226.800   9.76080e-14
      226.900   9.62334e-14
      227.000   9.48769e-14
      227.100   9.35389e-14
      227.200   9.22201e-14
      227.300   9.09196e-14
      227.400   8.96370e-14
      227.500   8.83722e-14
      227.600   8.71251e-14
      227.700   8.58956e-14
      227.800   8.46834e-14
      227.900   8.33846e-14
      228.000   8.18370e-14
      228.100   8.01652e-14
      228.200   7.85267e-14
      228.300   7.69219e-14
      228.400   7.53501e-14
      228.500   7.38096e-14
      228.600   7.23010e-14
      228.700   7.08231e-14
      228.800   6.93749e-14
      228.900   6.79569e-14
      229.000   6.65678e-14
      229.100   6.52069e-14
      229.200   6.38739e-14
      229.300   6.25683e-14
      229.400   6.12894e-14
      229.500   6.00368e-14
      229.600   5.88098e-14
      229.700   5.76080e-14
      229.800   5.64309e-14
      229.900   5.52781e-14
      230.000   5.41361e-14
      230.100   5.29203e-14
      230.200   5.16719e-14
      230.300   5.04537e-14
      230.400   4.92636e-14
      230.500   4.81020e-14
      230.600   4.69683e-14
      230.700   4.58609e-14
      230.800   4.47799e-14
      230.900   4.37245e-14
      231.000   4.26937e-14
      231.100   4.16870e-14
      231.200   4.07044e-14
      231.300   3.97449e-14
      231.400   3.88084e-14
      231.500   3.78933e-14
      231.600   3.69996e-14
      231.700   3.61273e-14
      231.800   3.52756e-14
      231.900   3.44438e-14
      232.000   3.36314e-14
      232.100   3.28381e-14
      232.200   3.21703e-14
      232.300   3.16660e-14
      232.400   3.12096e-14
      232.500   3.07600e-14
      232.600   3.03169e-14
      232.700   2.98804e-14
      232.800   2.94503e-14
      232.900   2.90262e-14
      233.000   2.86079e-14
      233.100   2.81958e-14
      233.200   2.77897e-14
      233.300   2.73896e-14
      233.400   2.69954e-14
      233.500   2.66069e-14
      233.600   2.62241e-14
      233.700   2.58469e-14
      233.800   2.54661e-14
      233.900   2.50896e-14
      234.000   2.47186e-14
      234.100   2.43531e-14
      234.200   2.39933e-14
      234.300   2.36386e-14
      234.400   2.32892e-14
      234.500   2.29450e-14
      234.600   2.26058e-14
      234.700   2.22718e-14
      234.800   2.19427e-14
      234.900   2.16184e-14
      235.000   2.12989e-14
      235.100   2.09841e-14
      235.200   2.06740e-14
      235.300   2.03685e-14
      235.400   2.00674e-14
      235.500   1.97709e-14
      235.600   1.94788e-14
      235.700   1.91908e-14
      235.800   1.89073e-14
      235.900   1.86280e-14
      236.000   1.83528e-14
      236.100   1.80816e-14
      236.200   1.78144e-14
      236.300   1.75511e-14
      236.400   1.72918e-14
      236.500   1.70362e-14
      236.600   1.67961e-14
      236.700   1.65853e-14
      236.800   1.63935e-14
      236.900   1.62039e-14
      237.000   1.60164e-14
      237.100   1.58310e-14
      237.200   1.56478e-14
      237.300   1.54666e-14
      237.400   1.52875e-14
      237.500   1.51104e-14
      237.600   1.49350e-14
      237.700   1.47618e-14
      237.800   1.45906e-14
      237.900   1.44213e-14
      238.000   1.42538e-14
      238.100   1.40883e-14
      238.200   1.39245e-14
      238.300   1.37626e-14
      238.400   1.36025e-14
      238.500   1.34442e-14
      238.600   1.32876e-14
      238.700   1.31328e-14
      238.800   1.29797e-14
      238.900   1.28383e-14
      239.000   1.27333e-14
      239.100   1.26331e-14
      239.200   1.25337e-14
      239.300   1.24350e-14
      239.400   1.23369e-14
      239.500   1.22396e-14
      239.600   1.21428e-14
      239.700   1.20468e-14
      239.800   1.19514e-14
      239.900   1.18567e-14
      240.000   1.17626e-14
      240.100   1.16692e-14
      240.200   1.15764e-14
      240.300   1.14843e-14
      240.400   1.13927e-14
      240.500   1.13019e-14
      240.600   1.12117e-14
      240.700   1.11220e-14
      240.800   1.10329e-14
      240.900   1.09446e-14
      241.000   1.08568e-14
      241.100   1.07697e-14
      241.200   1.06832e-14
      241.300   1.05972e-14
      241.400   1.05119e-14
      241.500   1.04272e-14
      241.600   1.03431e-14
      241.700   1.02596e-14
      241.800   1.01767e-14
      241.900   1.00943e-14
      242.000   1.00126e-14
      242.100   9.93154e-15
      242.200   9.85107e-15
      242.300   9.77125e-15
      242.400   9.69198e-15
      242.500   9.61333e-15
      242.600   9.53524e-15
      242.700   9.45774e-15
      242.800   9.38088e-15
      242.900   9.30460e-15
      243.000   9.22888e-15
      243.100   9.15375e-15
      243.200   9.07922e-15
      243.300   9.00524e-15
      243.400   8.93189e-15
      243.500   8.85912e-15
      243.600   8.78697e-15
      243.700   8.71536e-15
      243.800   8.64435e-15
      243.900   8.57391e-15
      244.000   8.50402e-15
      244.100   8.43472e-15
      244.200   8.36600e-15
      244.300   8.29781e-15
      244.400   8.23018e-15
      244.500   8.16314e-15
      244.600   8.09662e-15
      244.700   8.03068e-15
      244.800   7.96536e-15
      244.900   7.90053e-15
      245.000   7.83624e-15
      245.100   7.77250e-15
      245.200   7.70931e-15
      245.300   7.64664e-15
      245.400   7.58448e-15
      245.500   7.52286e-15
      245.600   7.46177e-15
      245.700   7.40118e-15
      245.800   7.34112e-15
      245.900   7.28158e-15
      246.000   7.22260e-15
      246.100   7.16410e-15
      246.200   7.10609e-15
      246.300   7.04858e-15
      246.400   6.99160e-15
      246.500   6.93508e-15
      246.600   6.87902e-15
      246.700   6.82347e-15
      246.800   6.76839e-15
      246.900   6.71379e-15
      247.000   6.65967e-15
      247.100   6.60600e-15
      247.200   6.55285e-15
      247.300   6.50013e-15
      247.400   6.44788e-15
      247.500   6.39606e-15
      247.600   6.34467e-15
      247.700   6.29374e-15
      247.800   6.24326e-15
      247.900   6.19319e-15
      248.000   6.14358e-15
      248.100   6.09444e-15
      248.200   6.04574e-15
      248.300   5.99741e-15
      248.400   5.94949e-15
      248.500   5.88776e-15
      248.600   5.80303e-15
      248.700   5.70438e-15
      248.800   5.60740e-15
      248.900   5.51210e-15
      249.000   5.41841e-15
      249.100   5.32646e-15
      249.200   5.23612e-15
      249.300   5.14730e-15
      249.400   5.05997e-15
      249.500   4.97414e-15
      249.600   4.88975e-15
      249.700   4.80680e-15
      249.800   4.72524e-15
      249.900   4.64507e-15
      250.000   4.56627e-15
      250.100   4.48893e-15
      250.200   4.41287e-15
      250.300   4.33820e-15
      250.400   4.26476e-15
      250.500   4.19257e-15
      250.600   4.12163e-15
      250.700   4.05187e-15
      250.800   3.98330e-15
      250.900   3.91590e-15
      251.000   3.84964e-15
      251.100   3.78451e-15
      251.200   3.72051e-15
      251.300   3.65765e-15
      251.400   3.59587e-15
      251.500   3.53512e-15
      251.600   3.45111e-15
      251.700   3.32247e-15
      251.800   3.19183e-15
      251.900   3.06620e-15
      252.000   2.94537e-15
      252.100   2.82925e-15
      252.200   2.71755e-15
      252.300   2.61030e-15
      252.400   2.50732e-15
      252.500   2.40836e-15
      252.600   2.31835e-15
      252.700   2.26237e-15
      252.800   2.23916e-15
      252.900   2.21620e-15
      253.000   2.19347e-15
      253.100   2.17098e-15
      253.200   2.14873e-15
      253.300   2.12714e-15
      253.400   2.10595e-15
      253.500   2.08499e-15
      253.600   2.06425e-15
      253.700   2.04335e-15
      253.800   2.02090e-15
      253.900   1.99836e-15
      254.000   1.97606e-15
      254.100   1.95400e-15
      254.200   1.93218e-15
      254.300   1.91061e-15
      254.400   1.88927e-15
      254.500   1.86817e-15
      254.600   1.84730e-15
      254.700   1.82666e-15
      254.800   1.80626e-15
      254.900   1.78608e-15
      255.000   1.76612e-15
      255.100   1.74635e-15
      255.200   1.72682e-15
      255.300   1.70749e-15
      255.400   1.68838e-15
      255.500   1.66947e-15
      255.600   1.65076e-15
      255.700   1.63226e-15
      255.800   1.61394e-15
      255.900   1.59583e-15
      256.000   1.57791e-15
      256.100   1.56019e-15
      256.200   1.54266e-15
      256.300   1.52531e-15
      256.400   1.50817e-15
      256.500   1.49119e-15
      256.600   1.47440e-15
      256.700   1.45779e-15
      256.800   1.44135e-15
      256.900   1.42182e-15
      257.000   1.39731e-15
      257.100   1.37158e-15
      257.200   1.34631e-15
      257.300   1.32150e-15
      257.400   1.29729e-15
      257.500   1.27358e-15
      257.600   1.25032e-15
      257.700   1.22747e-15
      257.800   1.20502e-15
      257.900   1.18298e-15
      258.000   1.16132e-15
      258.100   1.14005e-15
      258.200   1.11915e-15
      258.300   1.09864e-15
      258.400   1.07848e-15
      258.500   1.05867e-15
      258.600   1.03923e-15
      258.700   1.02013e-15
      258.800   1.00136e-15
      258.900   9.82945e-16
      259.000   9.64846e-16
      259.100   9.47076e-16
      259.200   9.29624e-16
      259.300   9.12502e-16
      259.400   8.95680e-16
      259.500   8.79158e-16
      259.600   8.62937e-16
      259.700   8.47010e-16
      259.800   8.31364e-16
      259.900   8.15995e-16
      260.000   8.00907e-16
      260.100   7.85078e-16
      260.200   7.68292e-16
      260.300   7.51630e-16
      260.400   7.35324e-16
      260.500   7.19366e-16
      260.600   7.03738e-16
      260.700   6.88445e-16
      260.800   6.73487e-16
      260.900   6.58837e-16
      261.000   6.44509e-16
      261.100   6.30488e-16
      261.200   6.16694e-16
      261.300   6.03189e-16
      261.400   5.89977e-16
      261.500   5.77064e-16
      261.600   5.64472e-16
      261.700   5.52160e-16
      261.800   5.40113e-16
      261.900   5.28319e-16
      262.000   5.16780e-16
      262.100   5.05488e-16
      262.200   4.94445e-16
      262.300   4.83635e-16
      262.400   4.73059e-16
      262.500   4.62708e-16
      262.600   4.52579e-16
      262.700   4.42671e-16
      262.800   4.32978e-16
      262.900   4.23489e-16
      263.000   4.14214e-16
      263.100   4.05136e-16
      263.200   3.96260e-16
      263.300   3.87576e-16
      263.400   3.79078e-16
      263.500   3.70768e-16
      263.600   3.62638e-16
      263.700   3.54683e-16
      263.800   3.46898e-16
      263.900   3.39290e-16
      264.000   3.31842e-16
      264.100   3.24555e-16
      264.200   3.17425e-16
      264.300   3.10456e-16
      264.400   3.03637e-16
      264.500   2.96965e-16
      264.600   2.90437e-16
      264.700   2.84054e-16
      264.800   2.77807e-16
      264.900   2.71700e-16
      265.000   2.65726e-16
      265.100   2.59880e-16
      265.200   2.54163e-16
      265.300   2.48570e-16
      265.400   2.43029e-16
      265.500   2.37583e-16
      265.600   2.32260e-16
      265.700   2.27051e-16
      265.800   2.21967e-16
      265.900   2.16994e-16
      266.000   2.12135e-16
      266.100   2.07383e-16
      266.200   2.02739e-16
      266.300   1.98196e-16
      266.400   1.93757e-16
      266.500   1.89415e-16
      266.600   1.85171e-16
      266.700   1.81021e-16
      266.800   1.76967e-16
      266.900   1.73001e-16
      267.000   1.69124e-16
      267.100   1.65333e-16
      267.200   1.61630e-16
      267.300   1.58008e-16
      267.400   1.54467e-16
      267.500   1.51005e-16
      267.600   1.47621e-16
      267.700   1.44313e-16
      267.800   1.41077e-16
      267.900   1.37916e-16
      268.000   1.34826e-16
      268.100   1.31804e-16
      268.200   1.28851e-16
      268.300   1.25965e-16
      268.400   1.23142e-16
      268.500   1.20383e-16
      268.600   1.17685e-16
      268.700   1.15049e-16
      268.800   1.12471e-16
      268.900   1.09952e-16
      269.000   1.07489e-16
      269.100   1.05082e-16
      269.200   1.02728e-16
      269.300   1.00428e-16
      269.400   9.81775e-17
      269.500   9.59790e-17
      269.600   9.38297e-17
      269.700   9.14233e-17
      269.800   8.90041e-17
      269.900   8.66463e-17
      270.000   8.43512e-17
      270.100   8.21171e-17
      270.200   7.99440e-17
      270.300   7.78274e-17
      270.400   7.57667e-17
      270.500   7.37603e-17
      270.600   7.18065e-17
      270.700   6.99044e-17
      270.800   6.80533e-17
      270.900   6.62495e-17
      271.000   6.44944e-17
      271.100   6.27848e-17
      271.200   6.11201e-17
      271.300   5.94999e-17
      271.400   5.79219e-17
      271.500   5.63861e-17
      271.600   5.48897e-17
      271.700   5.34335e-17
      271.800   5.20157e-17
      271.900   5.06351e-17
      272.000   4.92913e-17
      272.100   4.79823e-17
      272.200   4.67081e-17
      272.300   4.54671e-17
      272.400   4.42588e-17
      272.500   4.30829e-17
      272.600   4.19373e-17
      272.700   4.08220e-17
      272.800   3.97833e-17
      272.900   3.89088e-17
      273.000   3.81164e-17
      273.100   3.73398e-17
      273.200   3.65788e-17
      273.300   3.58337e-17
      273.400   3.51034e-17
      273.500   3.43879e-17
      273.600   3.36869e-17
      273.700   3.30000e-17
      273.800   3.23269e-17
      273.900   3.15642e-17
      274.000   3.06161e-17
      274.100   2.96937e-17
      274.200   2.87988e-17
      274.300   2.79305e-17
      274.400   2.70854e-17
      274.500   2.62600e-17
      274.600   2.54581e-17
      274.700   2.46805e-17
      274.800   2.39260e-17
      274.900   2.31941e-17
      275.000   2.24843e-17
      275.100   2.17960e-17
      275.200   2.11284e-17
      275.300   2.04807e-17
      275.400   1.98528e-17
      275.500   1.92438e-17
      275.600   1.86529e-17
      275.700   1.80801e-17
      275.800   1.75247e-17
      275.900   1.69859e-17
      276.000   1.64993e-17
      276.100   1.61218e-17
      276.200   1.57715e-17
      276.300   1.54287e-17
      276.400   1.50933e-17
      276.500   1.47649e-17
      276.600   1.44436e-17
      276.700   1.41291e-17
      276.800   1.38215e-17
      276.900   1.35203e-17
      277.000   1.32257e-17
      277.100   1.29372e-17
      277.200   1.26550e-17
      277.300   1.23789e-17
      277.400   1.21086e-17
      277.500   1.18440e-17
      277.600   1.15852e-17
      277.700   1.13318e-17
      277.800   1.10839e-17
      277.900   1.08414e-17
      278.000   1.06041e-17
      278.100   1.03663e-17
      278.200   1.00709e-17
      278.300   9.76856e-18
      278.400   9.47514e-18
      278.500   9.19019e-18
      278.600   8.91366e-18
      278.700   8.64544e-18
      278.800   8.38514e-18
      278.900   8.13236e-18
      279.000   7.88692e-18
      279.100   7.64882e-18
      279.200   7.42856e-18
      279.300   7.23752e-18
      279.400   7.05345e-18
      279.500   6.87409e-18
      279.600   6.69916e-18
      279.700   6.52868e-18
      279.800   6.36237e-18
      279.900   6.20019e-18
      280.000   6.04208e-18
      280.100   5.88788e-18
      280.200   5.73761e-18
      280.300   5.59106e-18
      280.400   5.44815e-18
      280.500   5.30891e-18
      280.600   5.17312e-18
      280.700   5.04073e-18
      280.800   4.91167e-18
      280.900   4.78583e-18
      281.000   4.66315e-18
      281.100   4.54355e-18
      281.200   4.42695e-18
      281.300   4.31977e-18
      281.400   4.22731e-18
      281.500   4.14280e-18
      281.600   4.05993e-18
      281.700   3.97868e-18
      281.800   3.89908e-18
      281.900   3.82099e-18
      282.000   3.74443e-18
      282.100   3.66938e-18
      282.200   3.59586e-18
      282.300   3.52373e-18
      282.400   3.45302e-18
      282.500   3.38369e-18
      282.600   3.31575e-18
      282.700   3.24912e-18
      282.800   3.18380e-18
      282.900   3.11982e-18
      283.000   3.05707e-18
      283.100   2.99559e-18
      283.200   2.93532e-18
      283.300   2.87626e-18
      283.400   2.81837e-18
      283.500   2.75423e-18
      283.600   2.68981e-18
      283.700   2.62677e-18
      283.800   2.56520e-18
      283.900   2.50507e-18
      284.000   2.44630e-18
      284.100   2.38888e-18
      284.200   2.33279e-18
      284.300   2.27802e-18
      284.400   2.22450e-18
      284.500   2.17222e-18
      284.600   2.12116e-18
      284.700   2.07129e-18
      284.800   2.02257e-18
      284.900   1.97497e-18
      285.000   1.92847e-18
      285.100   1.88304e-18
      285.200   1.83870e-18
      285.300   1.79537e-18
      285.400   1.75304e-18
      285.500   1.71171e-18
      285.600   1.67136e-18
      285.700   1.63192e-18
      285.800   1.59343e-18
      285.900   1.55584e-18
      286.000   1.51914e-18
      286.100   1.48332e-18
      286.200   1.44830e-18
      286.300   1.41412e-18
      286.400   1.38074e-18
      286.500   1.34813e-18
      286.600   1.31485e-18
      286.700   1.27859e-18
      286.800   1.24161e-18
      286.900   1.20569e-18
      287.000   1.17079e-18
      287.100   1.13689e-18
      287.200   1.10397e-18
      287.300   1.07198e-18
      287.400   1.04090e-18
      287.500   1.01072e-18
      287.600   9.81409e-19
      287.700   9.52930e-19
      287.800   9.25280e-19
      287.900   8.98419e-19
      288.000   8.72340e-19
      288.100   8.47005e-19
      288.200   8.22430e-19
      288.300   7.98570e-19
      288.400   7.75383e-19
      288.500   7.52873e-19
      288.600   7.30995e-19
      288.700   7.10010e-19
      288.800   6.93546e-19
      288.900   6.79370e-19
      289.000   6.65479e-19
      289.100   6.51870e-19
      289.200   6.38542e-19
      289.300   6.25490e-19
      289.400   6.12701e-19
      289.500   6.00177e-19
      289.600   5.87907e-19
      289.700   5.75896e-19
      289.800   5.64124e-19
      289.900   5.52588e-19
      290.000   5.41296e-19
      290.100   5.30239e-19
      290.200   5.19415e-19
      290.300   5.08812e-19
      290.400   4.98428e-19
      290.500   4.88260e-19
      290.600   4.78294e-19
      290.700   4.68534e-19
      290.800   4.58980e-19
      290.900   4.49616e-19
      291.000   4.40439e-19
      291.100   4.31452e-19
      291.200   4.22653e-19
      291.300   4.14031e-19
      291.400   4.05588e-19
      291.500   3.97317e-19
      291.600   3.89211e-19
      291.700   3.81275e-19
      291.800   3.73504e-19
      291.900   3.65901e-19
      292.000   3.55875e-19
      292.100   3.45723e-19
      292.200   3.35834e-19
      292.300   3.26220e-19
      292.400   3.16882e-19
      292.500   3.07805e-19
      292.600   2.98986e-19
      292.700   2.90421e-19
      292.800   2.82099e-19
      292.900   2.74014e-19
      293.000   2.66158e-19
      293.100   2.58523e-19
      293.200   2.51105e-19
      293.300   2.43900e-19
      293.400   2.36905e-19
      293.500   2.30115e-19
      293.600   2.23519e-19
      293.700   2.17109e-19
      293.800   2.10883e-19
      293.900   2.04834e-19
      294.000   1.99023e-19
      294.100   1.93940e-19
      294.200   1.89409e-19
      294.300   1.84984e-19
      294.400   1.80658e-19
      294.500   1.76436e-19
      294.600   1.72311e-19
      294.700   1.68282e-19
      294.800   1.64346e-19
      294.900   1.60505e-19
      295.000   1.56756e-19
      295.100   1.53095e-19
      295.200   1.49519e-19
      295.300   1.46025e-19
      295.400   1.42613e-19
      295.500   1.39281e-19
      295.600   1.36025e-19
      295.700   1.32845e-19
      295.800   1.29739e-19
      295.900   1.26702e-19
      296.000   1.23738e-19
      296.100   1.20841e-19
      296.200   1.18013e-19
      296.300   1.15252e-19
      296.400   1.12560e-19
      296.500   1.09927e-19
      296.600   1.07356e-19
      296.700   1.04845e-19
      296.800   1.02392e-19
      296.900   9.99955e-20
      297.000   9.76545e-20
      297.100   9.53673e-20
      297.200   9.31333e-20
      297.300   9.09506e-20
      297.400   8.88186e-20
      297.500   8.67355e-20
      297.600   8.47025e-20
      297.700   8.27181e-20
      297.800   8.07802e-20
      297.900   7.88871e-20
      298.000   7.70382e-20
      298.100   7.52316e-20
      298.200   7.34668e-20
      298.300   7.15906e-20
      298.400   6.95270e-20
      298.500   6.74410e-20
      298.600   6.54163e-20
      298.700   6.34517e-20
      298.800   6.15440e-20
      298.900   5.96986e-20
      299.000   5.79079e-20
      299.100   5.61696e-20
      299.200   5.44817e-20
      299.300   5.28440e-20
      299.400   5.12542e-20
      299.500   4.97114e-20
      299.600   4.82142e-20
      299.700   4.67613e-20
      299.800   4.53501e-20
      299.900   4.39821e-20
      300.000   4.26541e-20
      300.100   4.13663e-20
      300.192   4.02164e-20
      300.285   3.90853e-20
      300.377   3.79976e-20
      300.470   3.69288e-20
      300.562   3.59005e-20
      300.654   3.49003e-20
      300.747   3.39168e-20
      300.839   3.29713e-20
      300.932   3.20412e-20
      301.025   3.11371e-20
      301.117   3.02680e-20
      301.210   2.94133e-20
      301.303   2.85823e-20
      301.395   2.77840e-20
      301.488   2.70551e-20
      301.581   2.65325e-20
      301.674   2.60250e-20
      301.766   2.55325e-20
      301.859   2.50438e-20
      301.952   2.45646e-20
      302.045   2.40942e-20
      302.138   2.36330e-20
      302.231   2.31810e-20
      302.324   2.27375e-20
      302.417   2.23023e-20
      302.510   2.18749e-20
      302.603   2.14563e-20
      302.696   2.10450e-20
      302.789   2.06416e-20
      302.882   2.02456e-20
      302.976   1.98534e-20
      303.069   1.94723e-20
      303.162   1.90986e-20
      303.255   1.87317e-20
      303.349   1.83679e-20
      303.442   1.80147e-20
      303.535   1.76685e-20
      303.629   1.73251e-20
      303.722   1.69918e-20
      303.816   1.66612e-20
      303.909   1.63405e-20
      304.003   1.60223e-20
      304.096   1.57135e-20
      304.190   1.54072e-20
      304.283   1.51100e-20
      304.377   1.48156e-20
      304.471   1.45264e-20
      304.564   1.42458e-20
      304.658   1.39541e-20
      304.752   1.35803e-20
      304.846   1.32074e-20
      304.939   1.28484e-20
      305.033   1.24952e-20
      305.127   1.21514e-20
      305.221   1.18171e-20
      305.315   1.14918e-20
      305.409   1.11753e-20
      305.503   1.08674e-20
      305.597   1.05678e-20
      305.691   1.02763e-20
      305.785   1.00798e-20
      305.879   9.91072e-21
      305.973   9.74618e-21
      306.067   9.58415e-21
      306.161   9.42487e-21
      306.255   9.26817e-21
      306.350   9.11232e-21
      306.444   8.96061e-21
      306.538   8.81138e-21
      306.633   8.66315e-21
      306.727   8.51876e-21
      306.821   8.37672e-21
      306.916   8.23560e-21
      307.010   8.09822e-21
      307.105   7.96172e-21
      307.199   7.82889e-21
      307.294   7.69676e-21
      307.388   7.56827e-21
      307.483   7.44052e-21
      307.577   7.31620e-21
      307.672   7.19262e-21
      307.767   7.07110e-21
      307.861   6.93320e-21
      307.956   6.76402e-21
      308.051   6.59313e-21
      308.146   6.42656e-21
      308.240   6.26583e-21
      308.335   6.10736e-21
      308.430   5.95276e-21
      308.525   5.80207e-21
      308.620   5.65519e-21
      308.715   5.51196e-21
      308.810   5.37230e-21
      308.905   5.23610e-21
      309.000   5.10333e-21
      309.095   4.97385e-21
      309.190   4.84769e-21
      309.285   4.72461e-21
      309.380   4.60464e-21
      309.476   4.48649e-21
      309.571   4.37245e-21
      309.666   4.26127e-21
      309.761   4.15291e-21
      309.857   4.04619e-21
      309.952   3.94375e-21
      310.047   3.84918e-21
      310.143   3.75723e-21
      310.238   3.66837e-21
      310.334   3.58070e-21
      310.429   3.49594e-21
      310.525   3.41233e-21
      310.620   3.33156e-21
      310.716   3.25182e-21
      310.811   3.17321e-21
      310.907   3.09519e-21
      311.003   3.01905e-21
      311.098   2.94550e-21
      311.194   2.87298e-21
      311.290   2.80225e-21
      311.386   2.73325e-21
      311.481   2.66661e-21
      311.577   2.60092e-21
      311.673   2.53682e-21
      311.769   2.47427e-21
      311.865   2.41328e-21
      311.961   2.35382e-21
      312.057   2.29604e-21
      312.153   2.23977e-21
      312.249   2.18485e-21
      312.345   2.13129e-21
      312.441   2.07901e-21
      312.537   2.02801e-21
      312.633   1.97827e-21
      312.730   1.92920e-21
      312.826   1.88186e-21
      312.922   1.83567e-21
      313.018   1.79061e-21
      313.115   1.74618e-21
      313.211   1.70329e-21
      313.307   1.66145e-21
      313.404   1.62023e-21
      313.500   1.58041e-21
      313.597   1.54119e-21
      313.693   1.50333e-21
      313.790   1.46600e-21
      313.886   1.43303e-21
      313.983   1.40921e-21
      314.079   1.38912e-21
      314.176   1.36913e-21
      314.273   1.34941e-21
      314.369   1.33019e-21
      314.466   1.31106e-21
      314.563   1.29219e-21
      314.660   1.27360e-21
      314.756   1.25547e-21
      314.853   1.23741e-21
      314.950   1.21962e-21
      315.047   1.20209e-21
      315.144   1.18481e-21
      315.241   1.16779e-21
      315.338   1.15101e-21
      315.435   1.13448e-21
      315.532   1.11819e-21
      315.629   1.10214e-21
      315.726   1.08633e-21
      315.823   1.07073e-21
      315.921   1.05522e-21
      316.018   1.04008e-21
      316.115   1.02518e-21
      316.212   1.01048e-21
      316.310   9.93127e-22
      316.407   9.72741e-22
      316.504   9.51680e-22
      316.602   9.30869e-22
      316.699   9.10726e-22
      316.796   8.91023e-22
      316.894   8.71552e-22
      316.991   8.52711e-22
      317.089   8.34182e-22
      317.187   8.16095e-22
      317.284   7.98583e-22
      317.382   7.81273e-22
      317.479   7.64505e-22
      317.577   7.47940e-22
      317.675   7.31737e-22
      317.773   7.15883e-22
      317.870   7.00534e-22
      317.968   6.85349e-22
      318.066   6.70501e-22
      318.164   6.55977e-22
      318.262   6.41771e-22
      318.360   6.27870e-22
      318.458   6.14277e-22
      318.556   6.00984e-22
      318.654   5.87977e-22
      318.752   5.72362e-22
      318.850   5.53741e-22
      318.948   5.34693e-22
      319.046   5.16294e-22
      319.144   4.98521e-22
      319.242   4.81363e-22
      319.341   4.64622e-22
      319.439   4.48620e-22
      319.537   4.33169e-22
      319.635   4.18243e-22
      319.734   4.03685e-22
      319.832   3.89768e-22
      319.930   3.76325e-22
      320.029   3.63216e-22
      320.127   3.50686e-22
      320.226   3.38462e-22
      320.324   3.26775e-22
      320.423   3.15373e-22
      320.522   3.04377e-22
      320.620   2.93864e-22
      320.719   2.83605e-22
      320.818   2.73704e-22
      320.916   2.64241e-22
      321.015   2.55009e-22
      321.114   2.46096e-22
      321.213   2.37494e-22
      321.311   2.29275e-22
      321.410   2.21261e-22
      321.509   2.13519e-22
      321.608   2.06051e-22
      321.707   1.98839e-22
      321.806   1.91877e-22
      321.905   1.85159e-22
      322.004   1.78671e-22
      322.103   1.72413e-22
      322.202   1.66370e-22
      322.301   1.60537e-22
      322.401   1.54852e-22
      322.500   1.49421e-22
      322.599   1.44179e-22
      322.698   1.39119e-22
      322.798   1.34187e-22
      322.897   1.29474e-22
      322.996   1.24927e-22
      323.096   1.20491e-22
      323.195   1.16256e-22
      323.294   1.12168e-22
      323.394   1.08185e-22
      323.493   1.04378e-22
      323.593   1.00668e-22
      323.692   9.71240e-23
      323.792   9.36700e-23
      323.892   9.03376e-23
      323.991   8.71529e-23
      324.091   8.40508e-23
      324.191   8.10568e-23
      324.291   7.81690e-23
      324.390   7.54117e-23
      324.490   7.27219e-23
      324.590   7.01295e-23
      324.690   6.76284e-23
      324.790   6.52148e-23
      324.890   6.28873e-23
      324.990   6.06409e-23
      325.090   5.84738e-23
      325.190   5.63845e-23
      325.290   5.43695e-23
      325.390   5.24238e-23
      325.490   5.05489e-23
      325.590   4.87405e-23
      325.690   4.69945e-23
      325.790   4.53114e-23
      325.891   4.36719e-23
      325.991   4.21064e-23
      326.091   4.05961e-23
      326.192   3.91254e-23
      326.292   3.77211e-23
      326.392   3.63671e-23
      326.493   3.50480e-23
      326.593   3.37883e-23
      326.694   3.25624e-23
      326.794   3.13913e-23
      326.895   3.02507e-23
      326.995   2.91616e-23
      327.096   2.81017e-23
      327.197   2.70794e-23
      327.297   2.61032e-23
      327.398   2.51528e-23
      327.499   2.42367e-23
      327.599   2.33618e-23
      327.700   2.25099e-23
      327.801   2.16889e-23
      327.902   2.08977e-23
      328.003   2.01346e-23
      328.104   1.93991e-23
      328.205   1.86901e-23
      328.306   1.80068e-23
      328.407   1.73483e-23
      328.508   1.67132e-23
      328.609   1.61012e-23
      328.710   1.55115e-23
      328.811   1.49430e-23
      328.912   1.43951e-23
      329.013   1.38670e-23
      329.115   1.33533e-23
      329.216   1.28629e-23
      329.317   1.23903e-23
      329.419   1.19307e-23
      329.520   1.14918e-23
      329.621   1.10689e-23
      329.723   1.06573e-23
      329.824   1.02650e-23
      329.926   9.88317e-24
      330.027   9.51873e-24
      330.129   9.16416e-24
      330.230   8.82611e-24
      330.332   8.49699e-24
      330.434   8.18008e-24
      330.535   7.87763e-24
      330.637   7.58343e-24
      330.739   7.30022e-24
      330.840   7.02994e-24
      330.942   6.76698e-24
      331.044   6.51376e-24
      331.146   6.26987e-24
      331.248   6.03500e-24
      331.350   5.80885e-24
      331.452   5.59104e-24
      331.554   5.38264e-24
      331.656   5.18374e-24
      331.758   4.99214e-24
      331.860   4.80744e-24
      331.962   4.62952e-24
      332.064   4.45807e-24
      332.166   4.29295e-24
      332.268   4.13377e-24
      332.371   3.97904e-24
      332.473   3.83133e-24
      332.575   3.68898e-24
      332.677   3.55195e-24
      332.780   3.41869e-24
      332.882   3.29154e-24
      332.985   3.16791e-24
      333.087   3.04990e-24
      333.190   2.93519e-24
      333.292   2.82539e-24
      333.395   2.71764e-24
      333.497   2.61461e-24
      333.600   2.51449e-24
      333.702   2.41904e-24
      333.805   2.32634e-24
      333.908   2.23705e-24
      334.011   2.15120e-24
      334.113   2.06936e-24
      334.216   1.98982e-24
      334.319   1.91332e-24
      334.422   1.83969e-24
      334.525   1.76886e-24
      334.628   1.70071e-24
      334.731   1.63519e-24
      334.834   1.57215e-24
      334.937   1.51147e-24
      335.040   1.45309e-24
      335.143   1.39698e-24
      335.246   1.34298e-24
      335.349   1.29104e-24
      335.452   1.24108e-24
      335.555   1.19305e-24
      335.659   1.14638e-24
      335.762   1.10194e-24
      335.865   1.05922e-24
      335.969   1.01772e-24
      336.072   9.78179e-25
      336.175   9.40193e-25
      336.279   9.03308e-25
      336.382   8.68180e-25
      336.486   8.34065e-25
      336.589   8.01584e-25
      336.693   7.70073e-25
      336.796   7.40065e-25
      336.900   7.10925e-25
      337.004   6.82905e-25
      337.107   6.56256e-25
      337.211   6.30371e-25
      337.315   6.05510e-25
      337.419   5.81604e-25
      337.523   5.58629e-25
      337.626   5.36758e-25
      337.730   5.15539e-25
      337.834   4.95141e-25
      337.938   4.75547e-25
      338.042   4.56722e-25
      338.146   4.38676e-25
      338.250   4.21350e-25
      338.354   4.04695e-25
      338.458   3.88684e-25
      338.562   3.73301e-25
      338.667   3.58386e-25
      338.771   3.44187e-25
      338.875   3.30545e-25
      338.979   3.17433e-25
      339.084   3.04728e-25
      339.188   2.92633e-25
      339.292   2.81014e-25
      339.397   2.69741e-25
      339.501   2.59021e-25
      339.606   2.48617e-25
      339.710   2.38725e-25
      339.815   2.29130e-25
      339.919   2.20007e-25
      340.024   2.11153e-25
      340.128   2.02739e-25
      340.233   1.94573e-25
      340.338   1.86739e-25
      340.442   1.79281e-25
      340.547   1.72053e-25
      340.652   1.65112e-25
      340.757   1.58448e-25
      340.862   1.52049e-25
      340.966   1.45965e-25
      341.071   1.40067e-25
      341.176   1.34404e-25
      341.281   1.28967e-25
      341.386   1.23749e-25
      341.491   1.18737e-25
      341.596   1.13929e-25
      341.702   1.09270e-25
      341.807   1.04840e-25
      341.912   1.00588e-25
      342.017   9.65065e-26
      342.122   9.25878e-26
      342.228   8.87952e-26
      342.333   8.51872e-26
      342.438   8.17245e-26
      342.544   7.83719e-26
      342.649   7.51831e-26
      342.754   7.21252e-26
      342.860   6.91616e-26
      342.965   6.63429e-26
      343.071   6.36173e-26
      343.176   6.10241e-26
      343.282   5.85121e-26
      343.388   5.61038e-26
      343.493   5.38175e-26
      343.599   5.16286e-26
      343.705   4.95302e-26
      343.810   4.75342e-26
      343.916   4.56012e-26
      344.022   4.37458e-26
      344.128   4.19655e-26
      344.234   4.02562e-26
      344.340   3.86168e-26
      344.446   3.70427e-26
      344.552   3.55323e-26
      344.658   3.40834e-26
      344.764   3.26936e-26
      344.870   3.13590e-26
      344.976   3.00794e-26
      345.082   2.88507e-26
      345.188   2.76725e-26
      345.294   2.65413e-26
      345.401   2.54464e-26
      345.507   2.44056e-26
      345.613   2.34077e-26
      345.719   2.24497e-26
      345.826   2.15223e-26
      345.932   2.06409e-26
      346.039   1.97877e-26
      346.145   1.89768e-26
      346.252   1.81920e-26
      346.358   1.74461e-26
      346.465   1.67244e-26
      346.571   1.60381e-26
      346.678   1.53737e-26
      346.785   1.47366e-26
      346.891   1.41316e-26
      346.998   1.35461e-26
      347.105   1.29845e-26
      347.212   1.24458e-26
      347.319   1.19294e-26
      347.425   1.14385e-26
      347.532   1.09636e-26
      347.639   1.05084e-26
      347.746   1.00718e-26
      347.853   9.65303e-27
      347.960   9.25179e-27
      348.067   8.86720e-27
      348.174   8.49854e-27
      348.281   8.14494e-27
      348.389   7.80294e-27
      348.496   7.47798e-27
      348.603   7.16678e-27
      348.710   6.86827e-27
      348.818   6.57953e-27
      348.925   6.30526e-27
      349.032   6.04246e-27
      349.140   5.78812e-27
      349.247   5.54664e-27
      349.355   5.31325e-27
      349.462   5.09147e-27
      349.570   4.87682e-27
      349.677   4.67321e-27
      349.785   4.47613e-27
      349.892   4.28911e-27
      350.000   4.10822e-27
      350.100   3.94747e-27
      350.193   3.80364e-27
      350.287   3.66342e-27
      350.380   3.52992e-27
      350.473   3.40118e-27
      350.567   3.27570e-27
      350.660   3.15618e-27
      350.754   3.03976e-27
      350.847   2.92883e-27
      350.941   2.82075e-27
      351.034   2.71776e-27
      351.128   2.61741e-27
      351.221   2.52182e-27
      351.315   2.42864e-27
      351.409   2.33887e-27
      351.502   2.25338e-27
      351.596   2.17011e-27
      351.690   2.08982e-27
      351.783   2.01341e-27
      351.877   1.93895e-27
      351.971   1.86721e-27
      352.065   1.79810e-27
      352.159   1.73152e-27
      352.252   1.66810e-27
      352.346   1.60630e-27
      352.440   1.54682e-27
      352.534   1.48955e-27
      352.628   1.43433e-27
      352.722   1.38114e-27
      352.816   1.32994e-27
      352.910   1.28064e-27
      353.004   1.23315e-27
      353.098   1.18739e-27
      353.192   1.14331e-27
      353.287   1.10042e-27
      353.381   1.05954e-27
      353.475   1.02022e-27
      353.569   9.82297e-28
      353.663   9.45816e-28
      353.758   9.10301e-28
      353.852   8.76465e-28
      353.946   8.43876e-28
      354.041   8.12157e-28
      354.135   7.81940e-28
      354.229   7.52838e-28
      354.324   7.24520e-28
      354.418   6.97551e-28
      354.513   6.71295e-28
      354.607   6.46304e-28
      354.702   6.21947e-28
      354.796   5.98709e-28
      354.891   5.76095e-28
      354.985   5.54566e-28
      355.080   5.33619e-28
      355.175   5.13442e-28
      355.269   4.94235e-28
      355.364   4.75539e-28
      355.459   4.57557e-28
      355.553   4.40418e-28
      355.648   4.23755e-28
      355.743   4.07723e-28
      355.838   3.92269e-28
      355.933   3.77419e-28
      356.027   3.63269e-28
      356.122   3.49495e-28
      356.217   3.36245e-28
      356.312   3.23502e-28
      356.407   3.11229e-28
      356.502   2.99422e-28
      356.597   2.88055e-28
      356.692   2.77122e-28
      356.787   2.66599e-28
      356.882   2.56465e-28
      356.977   2.46725e-28
      357.073   2.37251e-28
      357.168   2.28225e-28
      357.263   2.19548e-28
      357.358   2.11194e-28
      357.453   2.03159e-28
      357.549   1.95345e-28
      357.644   1.87907e-28
      357.739   1.80754e-28
      357.835   1.73791e-28
      357.930   1.67168e-28
      358.025   1.60795e-28
      358.121   1.54600e-28
      358.216   1.48702e-28
      358.312   1.42966e-28
      358.407   1.37510e-28
      358.503   1.32205e-28
      358.598   1.27157e-28
      358.694   1.22249e-28
      358.790   1.17525e-28
      358.885   1.13031e-28
      358.981   1.08662e-28
      359.076   1.04506e-28
      359.172   1.00467e-28
      359.268   9.65774e-29
      359.364   9.28390e-29
      359.459   8.92849e-29
      359.555   8.58268e-29
      359.651   8.25017e-29
      359.747   7.93049e-29
      359.843   7.62304e-29
      359.939   7.32741e-29
      360.035   7.04319e-29
      360.131   6.77000e-29
      360.227   6.50695e-29
      360.323   6.25433e-29
      360.419   6.00801e-29
      360.515   5.73995e-29
      360.611   5.47526e-29
      360.707   5.22244e-29
      360.803   4.98166e-29
      360.899   4.75153e-29
      360.995   4.53211e-29
      361.092   4.32048e-29
      361.188   4.12064e-29
      361.284   3.92999e-29
      361.380   3.74809e-29
      361.477   3.57268e-29
      361.573   3.40707e-29
      361.669   3.24915e-29
      361.766   3.09684e-29
      361.862   2.95316e-29
      361.959   2.81466e-29
      362.055   2.68378e-29
      362.152   2.55782e-29
      362.248   2.43887e-29
      362.345   2.32415e-29
      362.441   2.21599e-29
      362.538   2.11174e-29
      362.635   2.01233e-29
      362.731   1.91847e-29
      362.828   1.82805e-29
      362.925   1.74187e-29
      363.021   1.66049e-29
      363.118   1.58214e-29
      363.215   1.50739e-29
      363.312   1.43614e-29
      363.409   1.36826e-29
      363.505   1.30419e-29
      363.602   1.24243e-29
      363.699   1.18360e-29
      363.796   1.12752e-29
      363.893   1.07406e-29
      363.990   1.02311e-29
      364.087   9.74560e-30
      364.184   9.28283e-30
      364.281   8.84167e-30
      364.378   8.42139e-30
      364.475   8.02079e-30
      364.573   7.63510e-30
      364.670   7.27154e-30
      364.767   6.92514e-30
      364.864   6.59494e-30
      364.961   6.28037e-30
      365.059   5.97758e-30
      365.156   5.69226e-30
      365.253   5.42027e-30
      365.351   5.15850e-30
      365.448   4.91171e-30
      365.545   4.67667e-30
      365.643   4.45040e-30
      365.740   4.23710e-30
      365.838   4.03192e-30
      365.935   3.83859e-30
      366.033   3.65248e-30
      366.130   3.47705e-30
      366.228   3.30811e-30
      366.326   3.12795e-30
      366.423   2.94961e-30
      366.521   2.77959e-30
      366.618   2.62079e-30
      366.716   2.46952e-30
      366.814   2.32692e-30
      366.912   2.19249e-30
      367.010   2.06562e-30
      367.107   1.94724e-30
      367.205   1.83441e-30
      367.303   1.72807e-30
      367.401   1.62785e-30
      367.499   1.53332e-30
      367.597   1.44425e-30
      367.695   1.36031e-30
      367.793   1.28121e-30
      367.891   1.20665e-30
      367.989   1.13631e-30
      368.087   1.07007e-30
      368.185   1.00766e-30
      368.283   9.48822e-31
      368.381   8.93362e-31
      368.480   8.40628e-31
      368.578   7.91432e-31
      368.676   7.45106e-31
      368.774   7.01458e-31
      368.873   6.59921e-31
      368.971   6.21204e-31
      369.069   5.84727e-31
      369.168   5.50009e-31
      369.266   5.17672e-31
      369.364   4.87208e-31
      369.463   4.58226e-31
      369.561   4.31226e-31
      369.660   4.05544e-31
      369.758   3.81613e-31
      369.857   3.58855e-31
      369.955   3.37649e-31
      370.054   3.17479e-31
      370.153   2.98502e-31
      370.251   2.80825e-31
      370.350   2.64016e-31
      370.449   2.48207e-31
      370.547   2.33478e-31
      370.646   2.19464e-31
      370.745   2.06294e-31
      370.844   1.93902e-31
      370.943   1.82246e-31
      371.041   1.71393e-31
      371.140   1.61073e-31
      371.239   1.51365e-31
      371.338   1.42241e-31
      371.437   1.33662e-31
      371.536   1.25595e-31
      371.635   1.18003e-31
      371.734   1.10870e-31
      371.833   1.04164e-31
      371.932   9.78573e-32
      372.032   9.18692e-32
      372.131   8.62980e-32
      372.230   8.10637e-32
      372.329   7.61414e-32
      372.428   7.15145e-32
      372.528   6.71247e-32
      372.627   6.30418e-32
      372.726   5.92041e-32
      372.826   5.55621e-32
      372.925   5.21735e-32
      373.024   4.89894e-32
      373.124   4.59681e-32
      373.223   4.31609e-32
      373.323   4.04965e-32
      373.422   3.80184e-32
      373.522   3.56674e-32
      373.621   3.34831e-32
      373.721   3.14097e-32
      373.820   2.94831e-32
      373.920   2.76554e-32
      374.020   2.59384e-32
      374.119   2.43444e-32
      374.219   2.28313e-32
      374.319   2.14121e-32
      374.419   2.00808e-32
      374.518   1.88425e-32
      374.618   1.76687e-32
      374.718   1.65663e-32
      374.818   1.55334e-32
      374.918   1.45643e-32
      375.018   1.36542e-32
      375.118   1.28008e-32
      375.218   1.19998e-32
      375.318   1.12487e-32
      375.418   1.05437e-32
      375.518   9.88305e-33
      375.618   9.26327e-33
      375.718   8.68173e-33
      375.818   8.13649e-33
      375.918   7.62510e-33
      376.019   7.14101e-33
      376.119   6.69144e-33
      376.219   6.27011e-33
      376.319   5.87478e-33
      376.420   5.50081e-33
      376.520   5.15371e-33
      376.620   4.82835e-33
      376.721   4.52022e-33
      376.821   4.23445e-33
      376.922   3.96394e-33
      377.022   3.71291e-33
      377.122   3.47774e-33
      377.223   3.25514e-33
      377.323   3.04867e-33
      377.424   2.85319e-33
      377.525   2.67023e-33
      377.625   2.50052e-33
      377.726   2.33997e-33
      377.827   2.18961e-33
      377.927   2.05013e-33
      378.028   1.91826e-33
      378.129   1.79473e-33
      378.230   1.67909e-33
      378.330   1.57190e-33
      378.431   1.47054e-33
      378.532   1.37571e-33
      378.633   1.28686e-33
      378.734   1.20369e-33
      378.835   1.12589e-33
      378.936   1.05306e-33
      379.037   9.84905e-34
      379.138   9.21107e-34
      379.239   8.61390e-34
      379.340   8.05552e-34
      379.441   7.53274e-34
      379.542   7.04350e-34
      379.643   6.58591e-34
      379.745   6.15367e-34
      379.846   5.75321e-34
      379.947   5.37861e-34
      380.048   5.02834e-34
      380.150   4.69739e-34
      380.251   4.39097e-34
      380.352   4.10446e-34
      380.454   3.83396e-34
      380.555   3.58341e-34
      380.656   3.34905e-34
      380.758   3.12782e-34
      380.859   2.92307e-34
      380.961   2.72986e-34
      381.062   2.55096e-34
      381.164   2.38202e-34
      381.266   2.22422e-34
      381.367   2.07814e-34
      381.469   1.94031e-34
      381.570   1.81278e-34
      381.672   1.69242e-34
      381.774   1.57992e-34
      381.876   1.47489e-34
      381.977   1.37768e-34
      382.079   1.28597e-34
      382.181   1.20031e-34
      382.283   1.12035e-34
      382.385   1.04563e-34
      382.487   9.75816e-35
      382.589   9.10681e-35
      382.691   8.49849e-35
      382.793   7.93049e-35
      382.895   7.40003e-35
      382.997   6.90467e-35
      383.099   6.44224e-35
      383.201   6.01064e-35
      383.303   5.60752e-35
      383.405   5.23130e-35
      383.507   4.88019e-35
      383.610   4.54940e-35
      383.712   4.24355e-35
      383.814   3.95834e-35
      383.916   3.69204e-35
      384.019   3.44115e-35
      384.121   3.20930e-35
      384.223   2.99303e-35
      384.326   2.78935e-35
      384.428   2.60112e-35
      384.531   2.42387e-35
      384.633   2.26013e-35
      384.736   2.10591e-35
      384.838   1.96344e-35
      384.941   1.82932e-35
      385.043   1.70543e-35
      385.146   1.58882e-35
      385.249   1.48011e-35
      385.351   1.37970e-35
      385.454   1.28516e-35
      385.557   1.19710e-35
      385.660   1.11498e-35
      385.762   1.03919e-35
      385.865   9.67851e-36
      385.968   9.01343e-36
      386.071   8.39363e-36
      386.174   7.81626e-36
      386.277   7.27851e-36
      386.380   6.77737e-36
      386.483   6.31041e-36
      386.586   5.87556e-36
      386.689   5.47028e-36
      386.792   5.09269e-36
      386.895   4.74105e-36
      386.998   4.41352e-36
      387.101   4.10851e-36
      387.204   3.82420e-36
      387.308   3.55707e-36
      387.411   3.31072e-36
      387.514   3.08133e-36
      387.617   2.86774e-36
      387.721   2.66704e-36
      387.824   2.48195e-36
      387.927   2.30949e-36
      388.031   2.14755e-36
      388.134   1.99825e-36
      388.238   1.85806e-36
      388.341   1.72868e-36
      388.445   1.60717e-36
      388.548   1.49516e-36
      388.652   1.38998e-36
      388.755   1.29303e-36
      388.859   1.20197e-36
      388.962   1.11803e-36
      389.066   1.03917e-36
      389.170   9.65891e-37
      389.274   8.97692e-37
      389.377   8.34850e-37
      389.481   7.75829e-37
      389.585   7.20986e-37
      389.689   6.69975e-37
      389.793   6.22524e-37
      389.897   5.78451e-37
      390.000   5.37808e-37
      390.104   4.99685e-37
      390.208   4.64223e-37
      390.312   4.31265e-37
      390.416   4.00639e-37
      390.520   3.72156e-37
      390.625   3.45425e-37
      390.729   3.20853e-37
      390.833   2.97999e-37
      390.937   2.76760e-37
      391.041   2.57034e-37
      391.145   2.38704e-37
      391.250   2.21505e-37
      391.354   2.05694e-37
      391.458   1.90997e-37
      391.563   1.77216e-37
      391.667   1.64540e-37
      391.771   1.52766e-37
      391.876   1.41724e-37
      391.980   1.31567e-37
      392.085   1.22049e-37
      392.189   1.13293e-37
      392.294   1.05085e-37
      392.398   9.75390e-38
      392.503   9.04662e-38
      392.607   8.39626e-38
      392.712   7.78681e-38
      392.817   7.22100e-38
      392.921   6.70105e-38
      393.026   6.21368e-38
      393.131   5.76166e-38
      393.236   5.34202e-38
      393.340   4.95636e-38
      393.445   4.59517e-38
      393.550   4.26010e-38
      393.655   3.94913e-38
      393.760   3.66088e-38
      393.865   3.39338e-38
      393.970   3.14547e-38
      394.075   2.91534e-38
      394.180   2.70205e-38
      394.285   2.50417e-38
      394.390   2.32076e-38
      394.495   2.15058e-38
      394.600   1.99284e-38
      394.706   1.84528e-38
      394.811   1.70981e-38
      394.916   1.58412e-38
      395.021   1.46765e-38
      395.126   1.35973e-38
      395.232   1.25873e-38
      395.337   1.16601e-38
      395.443   1.07932e-38
      395.548   9.99739e-39
      395.653   9.26008e-39
      395.759   8.57001e-39
      395.864   7.93723e-39
      395.970   7.34523e-39
      396.075   6.80207e-39
      396.181   6.29421e-39
      396.286   5.82800e-39
      396.392   5.39264e-39
      396.498   4.98926e-39
      396.603   4.61905e-39
      396.709   4.27329e-39
      396.815   3.95317e-39
      396.921   3.65671e-39
      397.026   3.38486e-39
      397.132   3.13067e-39
      397.238   2.89564e-39
      397.344   2.67783e-39
      397.450   2.47671e-39
      397.556   2.29025e-39
      397.662   2.11783e-39
      397.768   1.95834e-39
      397.874   1.81065e-39
      397.980   1.67410e-39
      398.086   1.54770e-39
      398.192   1.43088e-39
      398.298   1.32274e-39
      398.404   1.22270e-39
      398.510   1.13020e-39
      398.617   1.04392e-39
      398.723   9.64849e-40
      398.829   8.91671e-40
      398.935   8.24045e-40
      399.042   7.60963e-40
      399.148   7.03163e-40
      399.255   6.49289e-40
      399.361   5.99937e-40
      399.467   5.54253e-40
      399.574   5.11708e-40
      399.680   4.72727e-40
      399.787   4.36367e-40
      399.893       0.00000
      400.000       0.00000
