Filter Be-thin
observation_date 22-Sept-2019 22:40:45
wavelength effective area 
      1.00000   2.78437e-10
      1.10000   7.94896e-10
      1.20000   2.06654e-09
      1.30000   4.94176e-09
      1.40000   1.12138e-08
      1.50000   2.39246e-08
      1.60000   4.84354e-08
      1.70000   9.40358e-08
      1.80000   1.75078e-07
      1.90000   3.14683e-07
      2.00000   5.47098e-07
      2.10000   9.24111e-07
      2.20000   1.52381e-06
      2.30000   2.44959e-06
      2.40000   3.84577e-06
      2.50000   5.87738e-06
      2.60000   8.96933e-06
      2.70000   1.33721e-05
      2.80000   1.95544e-05
      2.90000   2.83007e-05
      3.00000   4.03191e-05
      3.10000   5.67026e-05
      3.20000   7.88717e-05
      3.30000   0.000108590
      3.40000   0.000147945
      3.50000   0.000199606
      3.60000   0.000268060
      3.70000   0.000356156
      3.80000   0.000471228
      3.90000   0.000619997
      4.00000   0.000810627
      4.10000    0.00105492
      4.20000    0.00136794
      4.30000    0.00176873
      4.40000    0.00228076
      4.50000    0.00293281
      4.60000    0.00375846
      4.70000    0.00481611
      4.80000    0.00616475
      4.90000    0.00778922
      5.00000     0.0101002
      5.10000     0.0129115
      5.20000     0.0165529
      5.30000     0.0210408
      5.40000     0.0267001
      5.50000     0.0339385
      5.60000     0.0418131
      5.70000     0.0542679
      5.80000     0.0635141
      5.90000     0.0968056
      6.00000      0.129889
      6.10000      0.165685
      6.20000      0.203053
      6.30000      0.238521
      6.40000      0.268735
      6.50000      0.290703
      6.60000      0.300209
      6.70000      0.308801
      6.80000      0.308431
      6.90000      0.403566
      7.00000      0.437653
      7.10000      0.461508
      7.20000      0.480000
      7.30000      0.494634
      7.40000      0.505274
      7.50000      0.513266
      7.60000      0.518736
      7.70000      0.520333
      7.80000      0.517099
      7.90000      0.514414
      8.00000      0.740580
      8.10000      0.806990
      8.20000      0.816206
      8.30000      0.821626
      8.40000      0.823605
      8.50000      0.824095
      8.60000      0.822863
      8.70000      0.820485
      8.80000      0.816708
      8.90000      0.811968
      9.00000      0.806220
      9.10000      0.799527
      9.20000      0.792071
      9.30000      0.783791
      9.40000      0.774822
      9.50000      0.765229
      9.60000      0.754987
      9.70000      0.744199
      9.80000      0.732968
      9.90000      0.721332
      10.0000      0.709348
      10.1000      0.697043
      10.2000      0.684450
      10.3000      0.671558
      10.4000      0.658409
      10.5000      0.645032
      10.6000      0.631463
      10.7000      0.617731
      10.8000      0.603861
      10.9000      0.589892
      11.0000      0.575837
      11.1000      0.561733
      11.2000      0.547596
      11.3000      0.533454
      11.4000      0.519312
      11.5000      0.505181
      11.6000      0.491082
      11.7000      0.476998
      11.8000      0.462979
      11.9000      0.448947
      12.0000      0.434472
      12.1000      0.421672
      12.2000      0.416334
      12.3000      0.406629
      12.4000      0.394032
      12.5000      0.381352
      12.6000      0.368759
      12.7000      0.356324
      12.8000      0.344070
      12.9000      0.332008
      13.0000      0.320161
      13.1000      0.308544
      13.2000      0.297183
      13.3000      0.286140
      13.4000      0.275398
      13.5000      0.264943
      13.6000      0.254788
      13.7000      0.244892
      13.8000      0.235249
      13.9000      0.225867
      14.0000      0.216741
      14.1000      0.207852
      14.2000      0.199190
      14.3000      0.190760
      14.4000      0.182565
      14.5000      0.174619
      14.6000      0.166929
      14.7000      0.159470
      14.8000      0.152240
      14.9000      0.145235
      15.0000      0.138456
      15.1000      0.131900
      15.2000      0.125609
      15.3000      0.119543
      15.4000      0.113690
      15.5000      0.108046
      15.6000      0.102611
      15.7000     0.0974004
      15.8000     0.0924215
      15.9000     0.0876348
      16.0000     0.0830340
      16.1000     0.0786148
      16.2000     0.0744174
      16.3000     0.0704032
      16.4000     0.0665502
      16.5000     0.0628529
      16.6000     0.0593331
      16.7000     0.0559917
      16.8000     0.0527888
      16.9000     0.0497201
      17.0000     0.0468105
      17.1000     0.0440698
      17.2000     0.0414586
      17.3000     0.0389715
      17.4000     0.0366412
      17.5000     0.0344307
      17.6000     0.0323338
      17.7000     0.0303785
      17.8000     0.0286070
      17.9000     0.0269168
      18.0000     0.0252962
      18.1000     0.0237846
      18.2000     0.0223233
      18.3000     0.0209051
      18.4000     0.0195422
      18.5000     0.0182372
      18.6000     0.0169742
      18.7000     0.0157657
      18.8000     0.0146351
      18.9000     0.0135589
      19.0000     0.0125611
      19.1000     0.0116308
      19.2000     0.0107463
      19.3000    0.00993376
      19.4000    0.00918215
      19.5000    0.00847426
      19.6000    0.00784978
      19.7000    0.00725988
      19.8000    0.00670088
      19.9000    0.00619648
      20.0000    0.00571542
      20.1000    0.00526810
      20.2000    0.00485744
      20.3000    0.00446580
      20.4000    0.00411113
      20.5000    0.00377797
      20.6000    0.00346410
      20.7000    0.00318218
      20.8000    0.00291286
      20.9000    0.00266821
      21.0000    0.00244090
      21.1000    0.00222690
      21.2000    0.00203591
      21.3000    0.00185318
      21.4000    0.00168956
      21.5000    0.00153652
      21.6000    0.00139410
      21.7000    0.00126627
      21.8000    0.00114379
      21.9000    0.00103605
      22.0000   0.000933077
      22.1000   0.000840511
      22.2000   0.000754185
      22.3000   0.000673329
      22.4000   0.000592410
      22.5000   0.000511826
      22.6000   0.000410603
      22.7000   0.000333697
      22.8000   0.000375259
      22.9000   0.000436347
      23.0000   0.000514613
      23.1000   0.000546897
      23.2000   0.000535636
      23.3000   0.000502950
      23.4000   0.000459532
      23.5000   0.000420424
      23.6000   0.000382516
      23.7000   0.000348752
      23.8000   0.000315649
      23.9000   0.000287278
      24.0000   0.000259580
      24.1000   0.000235546
      24.2000   0.000212402
      24.3000   0.000192301
      24.4000   0.000173151
      24.5000   0.000156397
      24.6000   0.000140592
      24.7000   0.000126742
      24.8000   0.000113761
      24.9000   0.000102358
      25.0000   9.17211e-05
      25.1000   8.23922e-05
      25.2000   7.37003e-05
      25.3000   6.61017e-05
      25.4000   5.90121e-05
      25.5000   5.28605e-05
      25.6000   4.70929e-05
      25.7000   4.21383e-05
      25.8000   3.74528e-05
      25.9000   3.34830e-05
      26.0000   2.96826e-05
      26.1000   2.65172e-05
      26.2000   2.34386e-05
      26.3000   2.09298e-05
      26.4000   1.84412e-05
      26.5000   1.64627e-05
      26.6000   1.44962e-05
      26.7000   1.29028e-05
      26.8000   1.13623e-05
      26.9000   1.00762e-05
      27.0000   8.87453e-06
      27.1000   7.83596e-06
      27.2000   6.90270e-06
      27.3000   6.07710e-06
      27.4000   5.38391e-06
      27.5000   4.73043e-06
      27.6000   4.18223e-06
      27.7000   3.64429e-06
      27.8000   3.22440e-06
      27.9000   2.80709e-06
      28.0000   2.47366e-06
      28.1000   2.15811e-06
      28.2000   1.88943e-06
      28.3000   1.65241e-06
      28.4000   1.43659e-06
      28.5000   1.25974e-06
      28.6000   1.08705e-06
      28.7000   9.56110e-07
      28.8000   8.25991e-07
      28.9000   7.22233e-07
      29.0000   6.26399e-07
      29.1000   5.42693e-07
      29.2000   4.72600e-07
      29.3000   4.05502e-07
      29.4000   3.54613e-07
      29.5000   3.04051e-07
      29.6000   2.64541e-07
      29.7000   2.28106e-07
      29.8000   1.96136e-07
      29.9000   1.70077e-07
      30.0000   1.44475e-07
      30.1000   1.25979e-07
      30.2000   1.07603e-07
      30.3000   9.38805e-08
      30.4000   8.28405e-08
      30.5000   7.21454e-08
      30.6000   6.25335e-08
      30.7000   5.29848e-08
      30.8000   4.56724e-08
      30.9000   3.90606e-08
      31.0000   3.31292e-08
      31.1000   2.86763e-08
      31.2000   2.42529e-08
      31.3000   2.09491e-08
      31.4000   1.79002e-08
      31.5000   1.51696e-08
      31.6000   1.30853e-08
      31.7000   1.10149e-08
      31.8000   9.47403e-09
      31.9000   8.07296e-09
      32.0000   6.80182e-09
      32.1000   5.88792e-09
      32.2000   4.98018e-09
      32.3000   4.27467e-09
      32.4000   3.66036e-09
      32.5000   3.07166e-09
      32.6000   2.65980e-09
      32.7000   2.25076e-09
      32.8000   1.91114e-09
      32.9000   1.63875e-09
      33.0000   1.36820e-09
      33.1000   1.17799e-09
      33.2000   9.99698e-10
      33.3000   8.36521e-10
      33.4000   7.19745e-10
      33.5000   6.03744e-10
      33.6000   5.10858e-10
      33.7000   4.35577e-10
      33.8000   3.60785e-10
      33.9000   3.09201e-10
      34.0000   2.61091e-10
      34.1000   2.16165e-10
      34.2000   1.85513e-10
      34.3000   1.55051e-10
      34.4000   1.29534e-10
      34.5000   1.10304e-10
      34.6000   9.11965e-11
      34.7000   7.69414e-11
      34.8000   6.49756e-11
      34.9000   5.30847e-11
      35.0000   4.52703e-11
      35.1000   3.79185e-11
      35.2000   3.09119e-11
      35.3000   2.64124e-11
      35.4000   2.19413e-11
      35.5000   1.79910e-11
      35.6000   1.52830e-11
      35.7000   1.25922e-11
      35.8000   1.03842e-11
      35.9000   8.77148e-12
      36.0000   7.16904e-12
      36.1000   5.94409e-12
      36.2000   4.99424e-12
      36.3000   4.05047e-12
      36.4000   3.37489e-12
      36.5000   2.82161e-12
      36.6000   2.27191e-12
      36.7000   1.90074e-12
      36.8000   1.58209e-12
      36.9000   1.26551e-12
      37.0000   1.06189e-12
      37.1000   8.80474e-13
      37.2000   7.00229e-13
      37.3000   5.88470e-13
      37.4000   4.86399e-13
      37.5000   3.84998e-13
      37.6000   3.23493e-13
      37.7000   2.66764e-13
      37.8000   2.10408e-13
      37.9000   1.76400e-13
      38.0000   1.45250e-13
      38.1000   1.14305e-13
      38.2000   9.53933e-14
      38.3000   7.84969e-14
      38.4000   6.17122e-14
      38.5000   5.11411e-14
      38.6000   4.20971e-14
      38.7000   3.31130e-14
      38.8000   2.71784e-14
      38.9000   2.24013e-14
      39.0000   1.76558e-14
      39.1000   1.43150e-14
      39.2000   1.18245e-14
      39.3000   9.35046e-15
      39.4000   7.46156e-15
      39.5000   6.16596e-15
      39.6000   4.87910e-15
      39.7000   3.81215e-15
      39.8000   3.16183e-15
      39.9000   2.51586e-15
      40.0000   1.92512e-15
      40.1000   1.60406e-15
      40.2000   1.28517e-15
      40.3000   9.68451e-16
      40.4000   8.05118e-16
      40.5000   6.49995e-16
      40.6000   4.95913e-16
      40.7000   3.99473e-16
      40.8000   3.25134e-16
      40.9000   2.51304e-16
      41.0000   1.95740e-16
      41.1000   1.60688e-16
      41.2000   1.25880e-16
      41.3000   9.46696e-17
      41.4000   7.84127e-17
      41.5000   6.22651e-17
      41.6000   4.62284e-17
      41.7000   3.77497e-17
      41.8000   3.03778e-17
      41.9000   2.30563e-17
      42.0000   1.79116e-17
      42.1000   1.46016e-17
      42.2000   1.13141e-17
      42.3000   8.36809e-18
      42.4000   6.90720e-18
      42.5000   5.45622e-18
      42.6000   4.01524e-18
      42.7000   3.21310e-18
      42.8000   2.58389e-18
      42.9000   1.95893e-18
      43.0000   1.46878e-18
      43.1000   1.20065e-18
      43.2000   9.34374e-19
      43.3000   6.69929e-19
      43.4000   6.70474e-19
      43.5000   7.41043e-19
      43.6000   8.59017e-19
      43.7000   9.32336e-19
      43.8000   8.59290e-19
      43.9000   6.85467e-19
      44.0000   4.85842e-19
      44.1000   3.84857e-19
      44.2000   3.05885e-19
      44.3000   2.28337e-19
      44.4000   1.70731e-19
      44.5000   1.39265e-19
      44.6000   1.07881e-19
      44.7000   7.65804e-20
      44.8000   6.17637e-20
      44.9000   4.93080e-20
      45.0000   3.68846e-20
      45.1000   2.66904e-20
      45.2000   2.18448e-20
      45.3000   1.70124e-20
      45.4000   1.21920e-20
      45.5000   9.39458e-21
      45.6000   7.55262e-21
      45.7000   5.71555e-21
      45.8000   3.92592e-21
      45.9000   3.23825e-21
      46.0000   2.55235e-21
      46.1000   1.86824e-21
      46.2000   1.34402e-21
      46.3000   1.09396e-21
      46.4000   8.44578e-22
      46.5000   5.95823e-22
      46.6000   4.53150e-22
      46.7000   3.63580e-22
      46.8000   2.74246e-22
      46.9000   1.85138e-22
      47.0000   1.49978e-22
      47.1000   1.18559e-22
      47.2000   8.72212e-23
      47.3000   5.95593e-23
      47.4000   4.87380e-23
      47.5000   3.79439e-23
      47.6000   2.71781e-23
      47.7000   1.91789e-23
      47.8000   1.55448e-23
      47.9000   1.19196e-23
      48.0000   8.30413e-24
      48.1000   6.06121e-24
      48.2000   4.86827e-24
      48.3000   3.67832e-24
      48.4000   2.49145e-24
      48.5000   1.87969e-24
      48.6000   1.49721e-24
      48.7000   1.11570e-24
      48.8000   7.35127e-25
      48.9000   5.71850e-25
      49.0000   4.52217e-25
      49.1000   3.32892e-25
      49.2000   2.13864e-25
      49.3000   1.73632e-25
      49.4000   1.40295e-25
      49.5000   1.07042e-25
      49.6000   7.38718e-26
      49.7000   6.65244e-26
      49.8000   5.98312e-26
      49.9000   5.31550e-26
      50.0000   4.64959e-26
      50.1000   4.07812e-26
      50.2000   3.29176e-26
      50.3000   2.66163e-26
      50.4000   2.30251e-26
      50.5000   2.07506e-26
      50.6000   1.85280e-26
      50.7000   1.43208e-26
      50.8000   1.19345e-26
      50.9000   6.53518e-27
      51.0000   4.37864e-27
      51.1000   3.54020e-27
      51.2000   3.54727e-27
      51.3000   3.17714e-27
      51.4000   1.95934e-27
      51.5000   1.18156e-27
      51.6000   8.33320e-28
      51.7000   5.61963e-28
      51.8000   4.25047e-28
      51.9000   3.53705e-28
      52.0000   2.80257e-28
      52.1000   1.93721e-28
      52.2000   1.48208e-28
      52.3000   9.76234e-29
      52.4000   6.37054e-29
      52.5000   5.03428e-29
      52.6000   4.47544e-29
      52.7000   3.81822e-29
      52.8000   2.59542e-29
      52.9000   1.48458e-29
      53.0000   9.92790e-30
      53.1000   6.54643e-30
      53.2000   4.39261e-30
      53.3000   2.91535e-30
      53.4000   1.91034e-30
      53.5000   1.09045e-30
      53.6000   5.51167e-31
      53.7000   3.21993e-31
      53.8000   2.40491e-31
      53.9000   1.65163e-31
      54.0000   1.11054e-31
      54.1000   7.22636e-32
      54.2000   5.12090e-32
      54.3000   3.08458e-32
      54.4000   1.30642e-32
      54.5000   7.13365e-33
      54.6000   5.11010e-33
      54.7000   3.87782e-33
      54.8000   2.72454e-33
      54.9000   1.84729e-33
      55.0000   1.34437e-33
      55.1000   9.72235e-34
      55.2000   6.97841e-34
      55.3000   6.44913e-34
      55.4000   5.74938e-34
      55.5000   4.13070e-34
      55.6000   2.64836e-34
      55.7000   1.90582e-34
      55.8000   1.30141e-34
      55.9000   9.12448e-35
      56.0000   6.67529e-35
      56.1000   4.61330e-35
      56.2000   4.27470e-35
      56.3000   3.48613e-35
      56.4000   2.52497e-35
      56.5000   1.74032e-35
      56.6000   1.19911e-35
      56.7000   8.73704e-36
      56.8000   6.41012e-36
      56.9000   4.54221e-36
      57.0000   3.03314e-36
      57.1000   2.02566e-36
      57.2000   1.39514e-36
      57.3000   9.87573e-37
      57.4000   7.05312e-37
      57.5000   5.00436e-37
      57.6000   3.25428e-37
      57.7000   2.26196e-37
      57.8000   2.04997e-37
      57.9000   1.53499e-37
      58.0000   1.09366e-37
      58.1000   7.21341e-38
      58.2000   4.15231e-38
      58.3000   2.73150e-38
      58.4000   2.06649e-38
      58.5000   1.64773e-38
      58.6000   1.12467e-38
      58.7000   7.59577e-39
      58.8000   5.09891e-39
      58.9000   3.43491e-39
      59.0000   2.49585e-39
      59.1000   1.85209e-39
      59.2000   1.37000e-39
      59.3000   1.00992e-39
      59.4000   7.41742e-40
      59.5000   5.22449e-40
      59.6000   3.45602e-40
      59.7000   2.64658e-40
      59.8000   1.83962e-40
      59.9000   1.09345e-40
      60.0000   8.05256e-41
      60.1000   5.94066e-41
      60.2000   4.36841e-41
      60.3000   3.20169e-41
      60.4000   2.33933e-41
      60.5000   1.72402e-41
      60.6000   1.28149e-41
      60.7000   1.00893e-41
      60.8000   8.32932e-42
      60.9000   6.85936e-42
      61.0000   5.67105e-42
      61.1000   4.69715e-42
      61.2000   3.90682e-42
      61.3000   3.23980e-42
      61.4000   2.68068e-42
      61.5000   2.22947e-42
      61.6000   1.77264e-42
      61.7000   1.39569e-42
      61.8000   1.09582e-42
      61.9000   8.68805e-43
      62.0000   6.64215e-43
      62.1000   4.79244e-43
      62.2000   3.39114e-43
      62.3000   2.46629e-43
      62.4000   2.04590e-43
      62.5000   1.75162e-43
      62.6000   1.49939e-43
      62.7000   1.27518e-43
      62.8000   1.14906e-43
      62.9000   8.26766e-44
      63.0000   5.74532e-44
      63.1000   3.78351e-44
      63.2000   3.50325e-44
      63.3000   2.52234e-44
      63.4000   2.24208e-44
      63.5000   1.54143e-44
      63.6000   1.26117e-44
      63.7000   9.80909e-45
      63.8000   9.80909e-45
      63.9000   7.00649e-45
      64.0000   2.80260e-45
      64.1000   2.80260e-45
      64.2000   2.80260e-45
      64.3000   2.80260e-45
      64.4000       0.00000
      64.5000       0.00000
      64.6000       0.00000
      64.7000       0.00000
      64.8000       0.00000
      64.9000       0.00000
      65.0000       0.00000
      65.1000       0.00000
      65.2000       0.00000
      65.3000       0.00000
      65.4000       0.00000
      65.5000       0.00000
      65.6000       0.00000
      65.7000       0.00000
      65.8000       0.00000
      65.9000       0.00000
      66.0000       0.00000
      66.1000       0.00000
      66.2000       0.00000
      66.3000       0.00000
      66.4000       0.00000
      66.5000       0.00000
      66.6000       0.00000
      66.7000       0.00000
      66.8000       0.00000
      66.9000       0.00000
      67.0000       0.00000
      67.1000       0.00000
      67.2000       0.00000
      67.3000       0.00000
      67.4000       0.00000
      67.5000       0.00000
      67.6000       0.00000
      67.7000       0.00000
      67.8000       0.00000
      67.9000       0.00000
      68.0000       0.00000
      68.1000       0.00000
      68.2000       0.00000
      68.3000       0.00000
      68.4000       0.00000
      68.5000       0.00000
      68.6000       0.00000
      68.7000       0.00000
      68.8000       0.00000
      68.9000       0.00000
      69.0000       0.00000
      69.1000       0.00000
      69.2000       0.00000
      69.3000       0.00000
      69.4000       0.00000
      69.5000       0.00000
      69.6000       0.00000
      69.7000       0.00000
      69.8000       0.00000
      69.9000       0.00000
      70.0000       0.00000
      70.1000       0.00000
      70.2000       0.00000
      70.3000       0.00000
      70.4000       0.00000
      70.5000       0.00000
      70.6000       0.00000
      70.7000       0.00000
      70.8000       0.00000
      70.9000       0.00000
      71.0000       0.00000
      71.1000       0.00000
      71.2000       0.00000
      71.3000       0.00000
      71.4000       0.00000
      71.5000       0.00000
      71.6000       0.00000
      71.7000       0.00000
      71.8000       0.00000
      71.9000       0.00000
      72.0000       0.00000
      72.1000       0.00000
      72.2000       0.00000
      72.3000       0.00000
      72.4000       0.00000
      72.5000       0.00000
      72.6000       0.00000
      72.7000       0.00000
      72.8000       0.00000
      72.9000       0.00000
      73.0000       0.00000
      73.1000       0.00000
      73.2000       0.00000
      73.3000       0.00000
      73.4000       0.00000
      73.5000       0.00000
      73.6000       0.00000
      73.7000       0.00000
      73.8000       0.00000
      73.9000       0.00000
      74.0000       0.00000
      74.1000       0.00000
      74.2000       0.00000
      74.3000       0.00000
      74.4000       0.00000
      74.5000       0.00000
      74.6000       0.00000
      74.7000       0.00000
      74.8000       0.00000
      74.9000       0.00000
      75.0000       0.00000
      75.1000       0.00000
      75.2000       0.00000
      75.3000       0.00000
      75.4000       0.00000
      75.5000       0.00000
      75.6000       0.00000
      75.7000       0.00000
      75.8000       0.00000
      75.9000       0.00000
      76.0000       0.00000
      76.1000       0.00000
      76.2000       0.00000
      76.3000       0.00000
      76.4000       0.00000
      76.5000       0.00000
      76.6000       0.00000
      76.7000       0.00000
      76.8000       0.00000
      76.9000       0.00000
      77.0000       0.00000
      77.1000       0.00000
      77.2000       0.00000
      77.3000       0.00000
      77.4000       0.00000
      77.5000       0.00000
      77.6000       0.00000
      77.7000       0.00000
      77.8000       0.00000
      77.9000       0.00000
      78.0000       0.00000
      78.1000       0.00000
      78.2000       0.00000
      78.3000       0.00000
      78.4000       0.00000
      78.5000       0.00000
      78.6000       0.00000
      78.7000       0.00000
      78.8000       0.00000
      78.9000       0.00000
      79.0000       0.00000
      79.1000       0.00000
      79.2000       0.00000
      79.3000       0.00000
      79.4000       0.00000
      79.5000       0.00000
      79.6000       0.00000
      79.7000       0.00000
      79.8000       0.00000
      79.9000       0.00000
      80.0000       0.00000
      80.1000       0.00000
      80.2000       0.00000
      80.3000       0.00000
      80.4000       0.00000
      80.5000       0.00000
      80.6000       0.00000
      80.7000       0.00000
      80.8000       0.00000
      80.9000       0.00000
      81.0000       0.00000
      81.1000       0.00000
      81.2000       0.00000
      81.3000       0.00000
      81.4000       0.00000
      81.5000       0.00000
      81.6000       0.00000
      81.7000       0.00000
      81.8000       0.00000
      81.9000       0.00000
      82.0000       0.00000
      82.1000       0.00000
      82.2000       0.00000
      82.3000       0.00000
      82.4000       0.00000
      82.5000       0.00000
      82.6000       0.00000
      82.7000       0.00000
      82.8000       0.00000
      82.9000       0.00000
      83.0000       0.00000
      83.1000       0.00000
      83.2000       0.00000
      83.3000       0.00000
      83.4000       0.00000
      83.5000       0.00000
      83.6000       0.00000
      83.7000       0.00000
      83.8000       0.00000
      83.9000       0.00000
      84.0000       0.00000
      84.1000       0.00000
      84.2000       0.00000
      84.3000       0.00000
      84.4000       0.00000
      84.5000       0.00000
      84.6000       0.00000
      84.7000       0.00000
      84.8000       0.00000
      84.9000       0.00000
      85.0000       0.00000
      85.1000       0.00000
      85.2000       0.00000
      85.3000       0.00000
      85.4000       0.00000
      85.5000       0.00000
      85.6000       0.00000
      85.7000       0.00000
      85.8000       0.00000
      85.9000       0.00000
      86.0000       0.00000
      86.1000       0.00000
      86.2000       0.00000
      86.3000       0.00000
      86.4000       0.00000
      86.5000       0.00000
      86.6000       0.00000
      86.7000       0.00000
      86.8000       0.00000
      86.9000       0.00000
      87.0000       0.00000
      87.1000       0.00000
      87.2000       0.00000
      87.3000       0.00000
      87.4000       0.00000
      87.5000       0.00000
      87.6000       0.00000
      87.7000       0.00000
      87.8000       0.00000
      87.9000       0.00000
      88.0000       0.00000
      88.1000       0.00000
      88.2000       0.00000
      88.3000       0.00000
      88.4000       0.00000
      88.5000       0.00000
      88.6000       0.00000
      88.7000       0.00000
      88.8000       0.00000
      88.9000       0.00000
      89.0000       0.00000
      89.1000       0.00000
      89.2000       0.00000
      89.3000       0.00000
      89.4000       0.00000
      89.5000       0.00000
      89.6000       0.00000
      89.7000       0.00000
      89.8000       0.00000
      89.9000       0.00000
      90.0000       0.00000
      90.1000       0.00000
      90.2000       0.00000
      90.3000       0.00000
      90.4000       0.00000
      90.5000       0.00000
      90.6000       0.00000
      90.7000       0.00000
      90.8000       0.00000
      90.9000       0.00000
      91.0000       0.00000
      91.1000       0.00000
      91.2000       0.00000
      91.3000       0.00000
      91.4000       0.00000
      91.5000       0.00000
      91.6000       0.00000
      91.7000       0.00000
      91.8000       0.00000
      91.9000       0.00000
      92.0000       0.00000
      92.1000       0.00000
      92.2000       0.00000
      92.3000       0.00000
      92.4000       0.00000
      92.5000       0.00000
      92.6000       0.00000
      92.7000       0.00000
      92.8000       0.00000
      92.9000       0.00000
      93.0000       0.00000
      93.1000       0.00000
      93.2000       0.00000
      93.3000       0.00000
      93.4000       0.00000
      93.5000       0.00000
      93.6000       0.00000
      93.7000       0.00000
      93.8000       0.00000
      93.9000       0.00000
      94.0000       0.00000
      94.1000       0.00000
      94.2000       0.00000
      94.3000       0.00000
      94.4000       0.00000
      94.5000       0.00000
      94.6000       0.00000
      94.7000       0.00000
      94.8000       0.00000
      94.9000       0.00000
      95.0000       0.00000
      95.1000       0.00000
      95.2000       0.00000
      95.3000       0.00000
      95.4000       0.00000
      95.5000       0.00000
      95.6000       0.00000
      95.7000       0.00000
      95.8000       0.00000
      95.9000       0.00000
      96.0000       0.00000
      96.1000       0.00000
      96.2000       0.00000
      96.3000       0.00000
      96.4000       0.00000
      96.5000       0.00000
      96.6000       0.00000
      96.7000       0.00000
      96.8000       0.00000
      96.9000       0.00000
      97.0000       0.00000
      97.1000       0.00000
      97.2000       0.00000
      97.3000       0.00000
      97.4000       0.00000
      97.5000       0.00000
      97.6000       0.00000
      97.7000       0.00000
      97.8000       0.00000
      97.9000       0.00000
      98.0000       0.00000
      98.1000       0.00000
      98.2000       0.00000
      98.3000       0.00000
      98.4000       0.00000
      98.5000       0.00000
      98.6000       0.00000
      98.7000       0.00000
      98.8000       0.00000
      98.9000       0.00000
      99.0000       0.00000
      99.1000       0.00000
      99.2000       0.00000
      99.3000       0.00000
      99.4000       0.00000
      99.5000       0.00000
      99.6000       0.00000
      99.7000       0.00000
      99.8000       0.00000
      99.9000       0.00000
      100.000       0.00000
      100.100       0.00000
      100.200       0.00000
      100.300       0.00000
      100.400       0.00000
      100.500       0.00000
      100.600       0.00000
      100.700       0.00000
      100.800       0.00000
      100.900       0.00000
      101.000       0.00000
      101.100       0.00000
      101.200       0.00000
      101.300       0.00000
      101.400       0.00000
      101.500       0.00000
      101.600       0.00000
      101.700       0.00000
      101.800       0.00000
      101.900       0.00000
      102.000       0.00000
      102.100       0.00000
      102.200       0.00000
      102.300       0.00000
      102.400       0.00000
      102.500       0.00000
      102.600       0.00000
      102.700       0.00000
      102.800       0.00000
      102.900       0.00000
      103.000       0.00000
      103.100       0.00000
      103.200       0.00000
      103.300       0.00000
      103.400       0.00000
      103.500       0.00000
      103.600       0.00000
      103.700       0.00000
      103.800       0.00000
      103.900       0.00000
      104.000       0.00000
      104.100       0.00000
      104.200       0.00000
      104.300       0.00000
      104.400       0.00000
      104.500       0.00000
      104.600       0.00000
      104.700       0.00000
      104.800       0.00000
      104.900       0.00000
      105.000       0.00000
      105.100       0.00000
      105.200       0.00000
      105.300       0.00000
      105.400       0.00000
      105.500       0.00000
      105.600       0.00000
      105.700       0.00000
      105.800       0.00000
      105.900       0.00000
      106.000       0.00000
      106.100       0.00000
      106.200       0.00000
      106.300       0.00000
      106.400       0.00000
      106.500       0.00000
      106.600       0.00000
      106.700       0.00000
      106.800       0.00000
      106.900       0.00000
      107.000       0.00000
      107.100       0.00000
      107.200       0.00000
      107.300       0.00000
      107.400       0.00000
      107.500       0.00000
      107.600       0.00000
      107.700       0.00000
      107.800       0.00000
      107.900       0.00000
      108.000       0.00000
      108.100       0.00000
      108.200       0.00000
      108.300       0.00000
      108.400       0.00000
      108.500       0.00000
      108.600       0.00000
      108.700       0.00000
      108.800       0.00000
      108.900       0.00000
      109.000       0.00000
      109.100       0.00000
      109.200       0.00000
      109.300       0.00000
      109.400       0.00000
      109.500       0.00000
      109.600       0.00000
      109.700       0.00000
      109.800       0.00000
      109.900       0.00000
      110.000       0.00000
      110.100       0.00000
      110.200       0.00000
      110.300       0.00000
      110.400       0.00000
      110.500       0.00000
      110.600   1.07452e-41
      110.700   2.77000e-29
      110.800   7.62835e-20
      110.900   2.72148e-15
      111.000   9.44496e-13
      111.100   3.40072e-11
      111.200   1.09735e-10
      111.300   2.08632e-10
      111.400   3.28937e-10
      111.500   3.66119e-10
      111.600   4.08108e-10
      111.700   5.06261e-10
      111.800   6.37123e-10
      111.900   7.04689e-10
      112.000   8.32111e-10
      112.100   1.03475e-09
      112.200   1.21284e-09
      112.300   1.33225e-09
      112.400   1.44716e-09
      112.500   1.60563e-09
      112.600   1.82466e-09
      112.700   2.04723e-09
      112.800   2.15793e-09
      112.900   2.36982e-09
      113.000   2.59934e-09
      113.100   2.77824e-09
      113.200   2.92545e-09
      113.300   2.94588e-09
      113.400   3.19466e-09
      113.500   3.45366e-09
      113.600   3.49169e-09
      113.700   3.73722e-09
      113.800   3.91618e-09
      113.900   4.07293e-09
      114.000   4.16918e-09
      114.100   4.23124e-09
      114.200   4.62700e-09
      114.300   4.88588e-09
      114.400   4.83212e-09
      114.500   4.67787e-09
      114.600   4.67560e-09
      114.700   4.70403e-09
      114.800   4.77852e-09
      114.900   4.96040e-09
      115.000   5.13573e-09
      115.100   5.24605e-09
      115.200   5.27521e-09
      115.300   5.30940e-09
      115.400   5.33899e-09
      115.500   5.37102e-09
      115.600   5.40112e-09
      115.700   5.42821e-09
      115.800   5.45952e-09
      115.900   5.48872e-09
      116.000   5.51529e-09
      116.100   5.53091e-09
      116.200   5.54407e-09
      116.300   5.55607e-09
      116.400   5.55852e-09
      116.500   5.51963e-09
      116.600   5.47970e-09
      116.700   5.44105e-09
      116.800   5.40144e-09
      116.900   5.35711e-09
      117.000   5.31867e-09
      117.100   5.29641e-09
      117.200   5.28541e-09
      117.300   5.26345e-09
      117.400   5.24080e-09
      117.500   5.20923e-09
      117.600   5.15271e-09
      117.700   5.08918e-09
      117.800   5.02313e-09
      117.900   4.95626e-09
      118.000   4.88718e-09
      118.100   4.81617e-09
      118.200   4.74839e-09
      118.300   4.68247e-09
      118.400   4.60648e-09
      118.500   4.53252e-09
      118.600   4.46456e-09
      118.700   4.39585e-09
      118.800   4.32580e-09
      118.900   4.25836e-09
      119.000   4.18635e-09
      119.100   4.10917e-09
      119.200   4.05112e-09
      119.300   4.01967e-09
      119.400   3.99651e-09
      119.500   3.96775e-09
      119.600   3.92574e-09
      119.700   3.87700e-09
      119.800   3.82063e-09
      119.900   3.75417e-09
      120.000   3.69192e-09
      120.100   3.63311e-09
      120.200   3.58799e-09
      120.300   3.55077e-09
      120.400   3.51379e-09
      120.500   3.46675e-09
      120.600   3.41236e-09
      120.700   3.35609e-09
      120.800   3.30210e-09
      120.900   3.26200e-09
      121.000   3.24285e-09
      121.100   3.22203e-09
      121.200   3.19687e-09
      121.300   3.16486e-09
      121.400   3.12759e-09
      121.500   3.08613e-09
      121.600   3.01637e-09
      121.700   2.95070e-09
      121.800   2.88055e-09
      121.900   2.81084e-09
      122.000   2.73862e-09
      122.100   2.67037e-09
      122.200   2.60375e-09
      122.300   2.55093e-09
      122.400   2.51255e-09
      122.500   2.47756e-09
      122.600   2.44130e-09
      122.700   2.40539e-09
      122.800   2.36697e-09
      122.900   2.33077e-09
      123.000   2.31016e-09
      123.100   2.31606e-09
      123.200   2.32790e-09
      123.300   2.36669e-09
      123.400   2.41649e-09
      123.500   2.48203e-09
      123.600   2.53732e-09
      123.700   2.55729e-09
      123.800   2.55648e-09
      123.900   2.56292e-09
      124.000   2.58099e-09
      124.100   2.63833e-09
      124.200   2.78377e-09
      124.300   3.00914e-09
      124.400   3.22397e-09
      124.500   3.27502e-09
      124.600   3.24799e-09
      124.700   3.20145e-09
      124.800   3.15640e-09
      124.900   3.11189e-09
      125.000   3.06785e-09
      125.100   3.02338e-09
      125.200   2.97940e-09
      125.300   2.93600e-09
      125.400   2.89322e-09
      125.500   2.85104e-09
      125.600   2.79743e-09
      125.700   2.74200e-09
      125.800   2.69466e-09
      125.900   2.67662e-09
      126.000   2.66070e-09
      126.100   2.64488e-09
      126.200   2.62914e-09
      126.300   2.61350e-09
      126.400   2.59793e-09
      126.500   2.58245e-09
      126.600   2.56707e-09
      126.700   2.55177e-09
      126.800   2.53657e-09
      126.900   2.52144e-09
      127.000   2.50632e-09
      127.100   2.48598e-09
      127.200   2.45974e-09
      127.300   2.43176e-09
      127.400   2.40407e-09
      127.500   2.37668e-09
      127.600   2.34958e-09
      127.700   2.32278e-09
      127.800   2.29626e-09
      127.900   2.27002e-09
      128.000   2.24406e-09
      128.100   2.21837e-09
      128.200   2.19296e-09
      128.300   2.16781e-09
      128.400   2.14294e-09
      128.500   2.11833e-09
      128.600   2.09399e-09
      128.700   2.06992e-09
      128.800   2.04610e-09
      128.900   2.02254e-09
      129.000   1.99924e-09
      129.100   1.97617e-09
      129.200   1.95322e-09
      129.300   1.93052e-09
      129.400   1.90807e-09
      129.500   1.88588e-09
      129.600   1.86393e-09
      129.700   1.84224e-09
      129.800   1.82078e-09
      129.900   1.79958e-09
      130.000   1.77861e-09
      130.100   1.75789e-09
      130.200   1.73740e-09
      130.300   1.71715e-09
      130.400   1.69713e-09
      130.500   1.67733e-09
      130.600   1.65768e-09
      130.700   1.63824e-09
      130.800   1.61901e-09
      130.900   1.60001e-09
      131.000   1.58123e-09
      131.100   1.56266e-09
      131.200   1.54429e-09
      131.300   1.52609e-09
      131.400   1.50809e-09
      131.500   1.49030e-09
      131.600   1.47270e-09
      131.700   1.45531e-09
      131.800   1.43810e-09
      131.900   1.42108e-09
      132.000   1.40425e-09
      132.100   1.38761e-09
      132.200   1.37115e-09
      132.300   1.35487e-09
      132.400   1.33878e-09
      132.500   1.32287e-09
      132.600   1.30714e-09
      132.700   1.29068e-09
      132.800   1.27410e-09
      132.900   1.25769e-09
      133.000   1.24147e-09
      133.100   1.22545e-09
      133.200   1.20963e-09
      133.300   1.19400e-09
      133.400   1.17855e-09
      133.500   1.16329e-09
      133.600   1.14822e-09
      133.700   1.13335e-09
      133.800   1.11865e-09
      133.900   1.10416e-09
      134.000   1.08985e-09
      134.100   1.07573e-09
      134.200   1.06178e-09
      134.300   1.04800e-09
      134.400   1.03441e-09
      134.500   1.02099e-09
      134.600   1.00773e-09
      134.700   9.94647e-10
      134.800   9.81730e-10
      134.900   9.68984e-10
      135.000   9.56396e-10
      135.100   9.43977e-10
      135.200   9.31718e-10
      135.300   9.19614e-10
      135.400   9.07659e-10
      135.500   8.95827e-10
      135.600   8.84122e-10
      135.700   8.72563e-10
      135.800   8.61146e-10
      135.900   8.49874e-10
      136.000   8.38740e-10
      136.100   8.27743e-10
      136.200   8.16897e-10
      136.300   8.06181e-10
      136.400   7.95603e-10
      136.500   7.85157e-10
      136.600   7.74837e-10
      136.700   7.64646e-10
      136.800   7.54583e-10
      136.900   7.44649e-10
      137.000   7.34844e-10
      137.100   7.25179e-10
      137.200   7.15638e-10
      137.300   7.06227e-10
      137.400   6.96936e-10
      137.500   6.87760e-10
      137.600   6.78696e-10
      137.700   6.69735e-10
      137.800   6.60883e-10
      137.900   6.52141e-10
      138.000   6.43512e-10
      138.100   6.34994e-10
      138.200   6.26598e-10
      138.300   6.18308e-10
      138.400   6.10129e-10
      138.500   6.02054e-10
      138.600   5.94082e-10
      138.700   5.86214e-10
      138.800   5.78448e-10
      138.900   5.70782e-10
      139.000   5.63215e-10
      139.100   5.55754e-10
      139.200   5.48427e-10
      139.300   5.41233e-10
      139.400   5.34142e-10
      139.500   5.27141e-10
      139.600   5.20226e-10
      139.700   5.13399e-10
      139.800   5.06660e-10
      139.900   5.00003e-10
      140.000   4.93436e-10
      140.100   4.86951e-10
      140.200   4.80548e-10
      140.300   4.74226e-10
      140.400   4.67982e-10
      140.500   4.61815e-10
      140.600   4.55723e-10
      140.700   4.49709e-10
      140.800   4.43779e-10
      140.900   4.37923e-10
      141.000   4.32138e-10
      141.100   4.26426e-10
      141.200   4.20786e-10
      141.300   4.15215e-10
      141.400   4.09731e-10
      141.500   4.04398e-10
      141.600   3.99189e-10
      141.700   3.94045e-10
      141.800   3.88965e-10
      141.900   3.83947e-10
      142.000   3.78990e-10
      142.100   3.74242e-10
      142.200   3.69977e-10
      142.300   3.66125e-10
      142.400   3.62314e-10
      142.500   3.58538e-10
      142.600   3.54796e-10
      142.700   3.51090e-10
      142.800   3.47420e-10
      142.900   3.43784e-10
      143.000   3.40183e-10
      143.100   3.36619e-10
      143.200   3.33091e-10
      143.300   3.29596e-10
      143.400   3.26136e-10
      143.500   3.22709e-10
      143.600   3.19314e-10
      143.700   3.15979e-10
      143.800   3.13027e-10
      143.900   3.10165e-10
      144.000   3.07331e-10
      144.100   3.04521e-10
      144.200   3.01734e-10
      144.300   2.98970e-10
      144.400   2.96260e-10
      144.500   2.94014e-10
      144.600   2.91922e-10
      144.700   2.89855e-10
      144.800   2.87798e-10
      144.900   2.85750e-10
      145.000   2.83712e-10
      145.100   2.81684e-10
      145.200   2.79666e-10
      145.300   2.77658e-10
      145.400   2.75659e-10
      145.500   2.73669e-10
      145.600   2.71687e-10
      145.700   2.69714e-10
      145.800   2.67751e-10
      145.900   2.65799e-10
      146.000   2.63854e-10
      146.100   2.61890e-10
      146.200   2.59916e-10
      146.300   2.57952e-10
      146.400   2.55996e-10
      146.500   2.54054e-10
      146.600   2.52121e-10
      146.700   2.50198e-10
      146.800   2.48270e-10
      146.900   2.46330e-10
      147.000   2.44402e-10
      147.100   2.42484e-10
      147.200   2.40579e-10
      147.300   2.38685e-10
      147.400   2.36803e-10
      147.500   2.34931e-10
      147.600   2.33070e-10
      147.700   2.31222e-10
      147.800   2.29386e-10
      147.900   2.27561e-10
      148.000   2.25746e-10
      148.100   2.23944e-10
      148.200   2.22153e-10
      148.300   2.20374e-10
      148.400   2.18938e-10
      148.500   2.17766e-10
      148.600   2.16687e-10
      148.700   2.15610e-10
      148.800   2.14536e-10
      148.900   2.13466e-10
      149.000   2.12399e-10
      149.100   2.11334e-10
      149.200   2.10272e-10
      149.300   2.09211e-10
      149.400   2.08154e-10
      149.500   2.07100e-10
      149.600   2.06048e-10
      149.700   2.04998e-10
      149.800   2.03951e-10
      149.900   2.02907e-10
      150.000   2.01867e-10
      150.100   2.00829e-10
      150.200   1.99792e-10
      150.300   1.98759e-10
      150.400   1.97728e-10
      150.500   1.96700e-10
      150.600   1.95675e-10
      150.700   1.94652e-10
      150.800   1.93631e-10
      150.900   1.92613e-10
      151.000   1.91596e-10
      151.100   1.90584e-10
      151.200   1.89573e-10
      151.300   1.88565e-10
      151.400   1.87560e-10
      151.500   1.86558e-10
      151.600   1.85560e-10
      151.700   1.84568e-10
      151.800   1.83578e-10
      151.900   1.82591e-10
      152.000   1.81676e-10
      152.100   1.81470e-10
      152.200   1.81353e-10
      152.300   1.81231e-10
      152.400   1.81107e-10
      152.500   1.80982e-10
      152.600   1.80855e-10
      152.700   1.80016e-10
      152.800   1.78922e-10
      152.900   1.77831e-10
      153.000   1.76744e-10
      153.100   1.75663e-10
      153.200   1.74585e-10
      153.300   1.73740e-10
      153.400   1.73115e-10
      153.500   1.72515e-10
      153.600   1.71917e-10
      153.700   1.71320e-10
      153.800   1.70722e-10
      153.900   1.70125e-10
      154.000   1.69550e-10
      154.100   1.69019e-10
      154.200   1.68502e-10
      154.300   1.67986e-10
      154.400   1.67471e-10
      154.500   1.66954e-10
      154.600   1.66438e-10
      154.700   1.65922e-10
      154.800   1.65406e-10
      154.900   1.64890e-10
      155.000   1.64373e-10
      155.100   1.63857e-10
      155.200   1.63340e-10
      155.300   1.62822e-10
      155.400   1.62305e-10
      155.500   1.61788e-10
      155.600   1.61269e-10
      155.700   1.60750e-10
      155.800   1.60232e-10
      155.900   1.59712e-10
      156.000   1.59192e-10
      156.100   1.58671e-10
      156.200   1.58150e-10
      156.300   1.57629e-10
      156.400   1.57107e-10
      156.500   1.56578e-10
      156.600   1.56014e-10
      156.700   1.55449e-10
      156.800   1.54883e-10
      156.900   1.54317e-10
      157.000   1.53752e-10
      157.100   1.53135e-10
      157.200   1.52168e-10
      157.300   1.50827e-10
      157.400   1.49497e-10
      157.500   1.48175e-10
      157.600   1.46864e-10
      157.700   1.45561e-10
      157.800   1.44268e-10
      157.900   1.43771e-10
      158.000   1.43344e-10
      158.100   1.42919e-10
      158.200   1.42491e-10
      158.300   1.42064e-10
      158.400   1.41637e-10
      158.500   1.41209e-10
      158.600   1.40781e-10
      158.700   1.40352e-10
      158.800   1.39924e-10
      158.900   1.39495e-10
      159.000   1.39066e-10
      159.100   1.38613e-10
      159.200   1.37880e-10
      159.300   1.36689e-10
      159.400   1.35508e-10
      159.500   1.34336e-10
      159.600   1.33172e-10
      159.700   1.32017e-10
      159.800   1.30869e-10
      159.900   1.30288e-10
      160.000   1.30090e-10
      160.100   1.29903e-10
      160.200   1.29714e-10
      160.300   1.29525e-10
      160.400   1.29335e-10
      160.500   1.29081e-10
      160.600   1.28459e-10
      160.700   1.27568e-10
      160.800   1.26682e-10
      160.900   1.25799e-10
      161.000   1.24922e-10
      161.100   1.24050e-10
      161.200   1.23183e-10
      161.300   1.22319e-10
      161.400   1.21461e-10
      161.500   1.20607e-10
      161.600   1.19757e-10
      161.700   1.18911e-10
      161.800   1.18069e-10
      161.900   1.17247e-10
      162.000   1.16567e-10
      162.100   1.15971e-10
      162.200   1.15378e-10
      162.300   1.14786e-10
      162.400   1.14196e-10
      162.500   1.13607e-10
      162.600   1.13019e-10
      162.700   1.12433e-10
      162.800   1.11849e-10
      162.900   1.11266e-10
      163.000   1.10685e-10
      163.100   1.10106e-10
      163.200   1.09527e-10
      163.300   1.08951e-10
      163.400   1.08376e-10
      163.500   1.07803e-10
      163.600   1.07231e-10
      163.700   1.06661e-10
      163.800   1.06093e-10
      163.900   1.05527e-10
      164.000   1.04962e-10
      164.100   1.04276e-10
      164.200   1.03259e-10
      164.300   1.02256e-10
      164.400   1.01263e-10
      164.500   1.00278e-10
      164.600   9.93011e-11
      164.700   9.83326e-11
      164.800   9.74876e-11
      164.900   9.69004e-11
      165.000   9.64178e-11
      165.100   9.59364e-11
      165.200   9.54565e-11
      165.300   9.49782e-11
      165.400   9.45022e-11
      165.500   9.40274e-11
      165.600   9.32335e-11
      165.700   9.23065e-11
      165.800   9.13772e-11
      165.900   9.04566e-11
      166.000   8.95451e-11
      166.100   8.86418e-11
      166.200   8.77470e-11
      166.300   8.68606e-11
      166.400   8.59821e-11
      166.500   8.51114e-11
      166.600   8.42489e-11
      166.700   8.33942e-11
      166.800   8.25466e-11
      166.900   8.17070e-11
      167.000   8.08765e-11
      167.100   8.00522e-11
      167.200   7.92354e-11
      167.300   7.84262e-11
      167.400   7.76245e-11
      167.500   7.68299e-11
      167.600   7.60426e-11
      167.700   7.52627e-11
      167.800   7.44899e-11
      167.900   7.37241e-11
      168.000   7.29651e-11
      168.100   7.22131e-11
      168.200   7.14680e-11
      168.300   7.07296e-11
      168.400   6.99980e-11
      168.500   6.92794e-11
      168.600   6.87177e-11
      168.700   6.82396e-11
      168.800   6.77642e-11
      168.900   6.72914e-11
      169.000   6.68214e-11
      169.100   6.63534e-11
      169.200   6.58883e-11
      169.300   6.54257e-11
      169.400   6.49655e-11
      169.500   6.45041e-11
      169.600   6.40300e-11
      169.700   6.35416e-11
      169.800   6.30511e-11
      169.900   6.25628e-11
      170.000   6.20772e-11
      170.100   6.13840e-11
      170.200   6.03900e-11
      170.300   7.86509e-11
      170.400   1.68842e-10
      170.500   3.19730e-10
      170.600   4.70250e-10
      170.700   5.90017e-10
      170.800   6.44813e-10
      170.900   6.47432e-10
      171.000   6.38473e-10
      171.100   6.29863e-10
      171.200   6.21329e-10
      171.300   6.12870e-10
      171.400   6.04490e-10
      171.500   5.96186e-10
      171.600   5.87961e-10
      171.700   5.79823e-10
      171.800   5.71773e-10
      171.900   5.63815e-10
      172.000   5.55958e-10
      172.100   5.48201e-10
      172.200   5.40551e-10
      172.300   5.32989e-10
      172.400   5.25428e-10
      172.500   5.17955e-10
      172.600   5.10594e-10
      172.700   5.03345e-10
      172.800   4.96203e-10
      172.900   4.89167e-10
      173.000   4.82241e-10
      173.100   4.75422e-10
      173.200   4.68705e-10
      173.300   4.62092e-10
      173.400   4.55576e-10
      173.500   4.49163e-10
      173.600   4.42848e-10
      173.700   4.36627e-10
      173.800   4.30503e-10
      173.900   4.24471e-10
      174.000   4.18527e-10
      174.100   4.12672e-10
      174.200   4.06905e-10
      174.300   4.01219e-10
      174.400   3.95617e-10
      174.500   3.90093e-10
      174.600   3.84647e-10
      174.700   3.79279e-10
      174.800   3.73987e-10
      174.900   3.68766e-10
      175.000   3.63615e-10
      175.100   3.58533e-10
      175.200   3.53535e-10
      175.300   3.48600e-10
      175.400   3.43732e-10
      175.500   3.38932e-10
      175.600   3.34195e-10
      175.700   3.29523e-10
      175.800   3.24913e-10
      175.900   3.20366e-10
      176.000   3.15880e-10
      176.100   3.11457e-10
      176.200   3.07094e-10
      176.300   3.02788e-10
      176.400   2.98543e-10
      176.500   2.94345e-10
      176.600   2.88548e-10
      176.700   2.82082e-10
      176.800   2.75757e-10
      176.900   2.69572e-10
      177.000   2.63519e-10
      177.100   2.57599e-10
      177.200   2.51809e-10
      177.300   2.46145e-10
      177.400   2.40603e-10
      177.500   2.35180e-10
      177.600   2.29876e-10
      177.700   2.24689e-10
      177.800   2.19615e-10
      177.900   2.14648e-10
      178.000   2.09804e-10
      178.100   2.05068e-10
      178.200   2.00432e-10
      178.300   1.95898e-10
      178.400   1.91464e-10
      178.500   1.87126e-10
      178.600   1.82965e-10
      178.700   1.79338e-10
      178.800   1.76478e-10
      178.900   1.73663e-10
      179.000   1.70889e-10
      179.100   1.68158e-10
      179.200   1.65469e-10
      179.300   1.62822e-10
      179.400   1.60216e-10
      179.500   1.57651e-10
      179.600   1.55127e-10
      179.700   1.52643e-10
      179.800   1.50197e-10
      179.900   1.47791e-10
      180.000   1.45423e-10
      180.100   1.43093e-10
      180.200   1.40801e-10
      180.300   1.38546e-10
      180.400   1.36328e-10
      180.500   1.34146e-10
      180.600   1.32000e-10
      180.700   1.29888e-10
      180.800   1.27812e-10
      180.900   1.25769e-10
      181.000   1.23759e-10
      181.100   1.21783e-10
      181.200   1.19839e-10
      181.300   1.17927e-10
      181.400   1.16047e-10
      181.500   1.14197e-10
      181.600   1.12377e-10
      181.700   1.10587e-10
      181.800   1.08827e-10
      181.900   1.07095e-10
      182.000   1.05392e-10
      182.100   1.03715e-10
      182.200   1.02078e-10
      182.300   1.00581e-10
      182.400   9.91129e-11
      182.500   9.76666e-11
      182.600   9.62416e-11
      182.700   9.48374e-11
      182.800   9.34537e-11
      182.900   9.20899e-11
      183.000   9.07463e-11
      183.100   8.94225e-11
      183.200   8.81175e-11
      183.300   8.68311e-11
      183.400   8.55634e-11
      183.500   8.43142e-11
      183.600   8.30828e-11
      183.700   8.18692e-11
      183.800   8.06743e-11
      183.900   7.94969e-11
      184.000   7.83365e-11
      184.100   7.71933e-11
      184.200   7.60667e-11
      184.300   7.49564e-11
      184.400   7.38625e-11
      184.500   7.27845e-11
      184.600   7.17217e-11
      184.700   7.06745e-11
      184.800   6.96426e-11
      184.900   6.86254e-11
      185.000   6.76228e-11
      185.100   6.66449e-11
      185.200   6.57318e-11
      185.300   6.48978e-11
      185.400   6.40739e-11
      185.500   6.32601e-11
      185.600   6.24564e-11
      185.700   6.16627e-11
      185.800   6.08794e-11
      185.900   6.01057e-11
      186.000   5.93415e-11
      186.100   5.85866e-11
      186.200   5.78408e-11
      186.300   5.71038e-11
      186.400   5.63760e-11
      186.500   5.56570e-11
      186.600   5.49463e-11
      186.700   5.42439e-11
      186.800   5.35497e-11
      186.900   5.28640e-11
      187.000   5.21864e-11
      187.100   5.15163e-11
      187.200   5.08547e-11
      187.300   5.02012e-11
      187.400   4.95554e-11
      187.500   4.89172e-11
      187.600   4.82867e-11
      187.700   4.76637e-11
      187.800   4.70482e-11
      187.900   4.64400e-11
      188.000   4.58393e-11
      188.100   4.52193e-11
      188.200   4.45142e-11
      188.300   4.37028e-11
      188.400   4.29056e-11
      188.500   4.21226e-11
      188.600   4.13538e-11
      188.700   4.05989e-11
      188.800   3.98578e-11
      188.900   3.91300e-11
      189.000   3.84150e-11
      189.100   3.77126e-11
      189.200   3.70228e-11
      189.300   3.63455e-11
      189.400   3.56805e-11
      189.500   3.50306e-11
      189.600   3.44379e-11
      189.700   3.40308e-11
      189.800   3.36316e-11
      189.900   3.32373e-11
      190.000   3.28481e-11
      190.100   3.24635e-11
      190.200   3.20836e-11
      190.300   3.17082e-11
      190.400   3.13372e-11
      190.500   3.09707e-11
      190.600   3.06087e-11
      190.700   3.02509e-11
      190.800   2.98975e-11
      190.900   2.95483e-11
      191.000   2.92035e-11
      191.100   2.88630e-11
      191.200   2.85264e-11
      191.300   2.81938e-11
      191.400   2.78653e-11
      191.500   2.75405e-11
      191.600   2.72197e-11
      191.700   2.69026e-11
      191.800   2.65891e-11
      191.900   2.62793e-11
      192.000   2.59734e-11
      192.100   2.56710e-11
      192.200   2.53726e-11
      192.300   2.50775e-11
      192.400   2.47858e-11
      192.500   2.44806e-11
      192.600   2.41240e-11
      192.700   2.37285e-11
      192.800   2.33393e-11
      192.900   2.29563e-11
      193.000   2.25795e-11
      193.100   2.22092e-11
      193.200   2.18451e-11
      193.300   2.14870e-11
      193.400   2.11349e-11
      193.500   2.07884e-11
      193.600   2.04476e-11
      193.700   2.01122e-11
      193.800   1.97825e-11
      193.900   1.94583e-11
      194.000   1.91449e-11
      194.100   1.89464e-11
      194.200   1.87873e-11
      194.300   1.86323e-11
      194.400   1.84786e-11
      194.500   1.83264e-11
      194.600   1.81754e-11
      194.700   1.80258e-11
      194.800   1.78774e-11
      194.900   1.77303e-11
      195.000   1.75844e-11
      195.100   1.74399e-11
      195.200   1.72965e-11
      195.300   1.71543e-11
      195.400   1.70133e-11
      195.500   1.68713e-11
      195.600   1.66783e-11
      195.700   1.64001e-11
      195.800   1.61263e-11
      195.900   1.58569e-11
      196.000   1.55891e-11
      196.100   1.53257e-11
      196.200   1.50665e-11
      196.300   1.48115e-11
      196.400   1.45606e-11
      196.500   1.43136e-11
      196.600   1.40707e-11
      196.700   1.38317e-11
      196.800   1.35967e-11
      196.900   1.33656e-11
      197.000   1.31384e-11
      197.100   1.29147e-11
      197.200   1.26947e-11
      197.300   1.24781e-11
      197.400   1.22650e-11
      197.500   1.20553e-11
      197.600   1.18489e-11
      197.700   1.16463e-11
      197.800   1.14470e-11
      197.900   1.12508e-11
      198.000   1.10579e-11
      198.100   1.08680e-11
      198.200   1.06813e-11
      198.300   1.04975e-11
      198.400   1.03168e-11
      198.500   1.01393e-11
      198.600   9.96478e-12
      198.700   9.80789e-12
      198.800   9.67427e-12
      198.900   9.55258e-12
      199.000   9.43228e-12
      199.100   9.31343e-12
      199.200   9.19602e-12
      199.300   9.08022e-12
      199.400   8.96583e-12
      199.500   8.85286e-12
      199.600   8.74122e-12
      199.700   8.63097e-12
      199.800   8.52209e-12
      199.900   8.41453e-12
      200.000   8.30827e-12
      200.100   8.20388e-12
      200.200   8.10039e-12
      200.300   7.99827e-12
      200.400   7.89738e-12
      200.500   7.79772e-12
      200.600   7.69937e-12
      200.700   7.60225e-12
      200.800   7.50628e-12
      200.900   7.41160e-12
      201.000   7.31810e-12
      201.100   7.22583e-12
      201.200   7.13471e-12
      201.300   7.04473e-12
      201.400   6.95592e-12
      201.500   6.86821e-12
      201.600   6.78158e-12
      201.700   6.69608e-12
      201.800   6.61164e-12
      201.900   6.52631e-12
      202.000   6.41048e-12
      202.100   6.28169e-12
      202.200   6.15550e-12
      202.300   6.03237e-12
      202.400   5.91279e-12
      202.500   5.79587e-12
      202.600   5.68118e-12
      202.700   5.56878e-12
      202.800   5.45863e-12
      202.900   5.35071e-12
      203.000   5.24494e-12
      203.100   5.14130e-12
      203.200   5.03964e-12
      203.300   4.93997e-12
      203.400   4.84226e-12
      203.500   4.74650e-12
      203.600   4.65573e-12
      203.700   4.57545e-12
      203.800   4.49770e-12
      203.900   4.42136e-12
      204.000   4.34632e-12
      204.100   4.27256e-12
      204.200   4.20010e-12
      204.300   4.12886e-12
      204.400   4.05887e-12
      204.500   3.99008e-12
      204.600   3.92246e-12
      204.700   3.85601e-12
      204.800   3.79077e-12
      204.900   3.72667e-12
      205.000   3.66367e-12
      205.100   3.60176e-12
      205.200   3.54090e-12
      205.300   3.48111e-12
      205.400   3.42233e-12
      205.500   3.36455e-12
      205.600   3.30777e-12
      205.700   3.25145e-12
      205.800   3.19597e-12
      205.900   3.14145e-12
      206.000   3.08792e-12
      206.100   3.03528e-12
      206.200   2.98352e-12
      206.300   2.93267e-12
      206.400   2.88269e-12
      206.500   2.83353e-12
      206.600   2.78521e-12
      206.700   2.73771e-12
      206.800   2.69100e-12
      206.900   2.64507e-12
      207.000   2.59992e-12
      207.100   2.55555e-12
      207.200   2.51194e-12
      207.300   2.46905e-12
      207.400   2.42686e-12
      207.500   2.38537e-12
      207.600   2.34459e-12
      207.700   2.30446e-12
      207.800   2.26500e-12
      207.900   2.22619e-12
      208.000   2.18803e-12
      208.100   2.15050e-12
      208.200   2.11359e-12
      208.300   2.07729e-12
      208.400   2.04161e-12
      208.500   2.00653e-12
      208.600   1.97201e-12
      208.700   1.93806e-12
      208.800   1.90467e-12
      208.900   1.87074e-12
      209.000   1.83267e-12
      209.100   1.79221e-12
      209.200   1.75261e-12
      209.300   1.71384e-12
      209.400   1.67593e-12
      209.500   1.63881e-12
      209.600   1.60248e-12
      209.700   1.56696e-12
      209.800   1.53224e-12
      209.900   1.49823e-12
      210.000   1.46498e-12
      210.100   1.43244e-12
      210.200   1.40060e-12
      210.300   1.36945e-12
      210.400   1.33897e-12
      210.500   1.30915e-12
      210.600   1.27997e-12
      210.700   1.25144e-12
      210.800   1.22352e-12
      210.900   1.19620e-12
      211.000   1.16948e-12
      211.100   1.14334e-12
      211.200   1.11777e-12
      211.300   1.09278e-12
      211.400   1.06835e-12
      211.500   1.04445e-12
      211.600   1.02107e-12
      211.700   9.98200e-13
      211.800   9.75820e-13
      211.900   9.53933e-13
      212.000   9.32538e-13
      212.100   9.11605e-13
      212.200   8.91126e-13
      212.300   8.70295e-13
      212.400   8.47595e-13
      212.500   8.24552e-13
      212.600   8.02122e-13
      212.700   7.80287e-13
      212.800   7.59031e-13
      212.900   7.38349e-13
      213.000   7.18214e-13
      213.100   6.98636e-13
      213.200   6.79579e-13
      213.300   6.61032e-13
      213.400   6.42977e-13
      213.500   6.25405e-13
      213.600   6.08301e-13
      213.700   5.91661e-13
      213.800   5.75460e-13
      213.900   5.59704e-13
      214.000   5.44366e-13
      214.100   5.29684e-13
      214.200   5.18323e-13
      214.300   5.09128e-13
      214.400   5.00094e-13
      214.500   4.91220e-13
      214.600   4.82504e-13
      214.700   4.73943e-13
      214.800   4.65534e-13
      214.900   4.57277e-13
      215.000   4.49163e-13
      215.100   4.41195e-13
      215.200   4.33374e-13
      215.300   4.25695e-13
      215.400   4.18151e-13
      215.500   4.10743e-13
      215.600   4.03472e-13
      215.700   3.96327e-13
      215.800   3.89308e-13
      215.900   3.82420e-13
      216.000   3.75071e-13
      216.100   3.66471e-13
      216.200   3.57544e-13
      216.300   3.48836e-13
      216.400   3.40340e-13
      216.500   3.32047e-13
      216.600   3.23959e-13
      216.700   3.16069e-13
      216.800   3.08369e-13
      216.900   3.00859e-13
      217.000   2.93532e-13
      217.100   2.86380e-13
      217.200   2.79404e-13
      217.300   2.72599e-13
      217.400   2.65958e-13
      217.500   2.59481e-13
      217.600   2.53159e-13
      217.700   2.46989e-13
      217.800   2.40971e-13
      217.900   2.35079e-13
      218.000   2.28764e-13
      218.100   2.22616e-13
      218.200   2.16633e-13
      218.300   2.10812e-13
      218.400   2.05151e-13
      218.500   1.99637e-13
      218.600   1.94273e-13
      218.700   1.89049e-13
      218.800   1.83964e-13
      218.900   1.79016e-13
      219.000   1.74197e-13
      219.100   1.69506e-13
      219.200   1.64940e-13
      219.300   1.60495e-13
      219.400   1.56167e-13
      219.500   1.51954e-13
      219.600   1.47853e-13
      219.700   1.43860e-13
      219.800   1.39974e-13
      219.900   1.36191e-13
      220.000   1.32506e-13
      220.100   1.28920e-13
      220.200   1.25429e-13
      220.300   1.22031e-13
      220.400   1.18723e-13
      220.500   1.15503e-13
      220.600   1.12370e-13
      220.700   1.09318e-13
      220.800   1.06346e-13
      220.900   1.03456e-13
      221.000   1.00642e-13
      221.100   9.79012e-14
      221.200   9.52353e-14
      221.300   9.26400e-14
      221.400   9.01132e-14
      221.500   8.76546e-14
      221.600   8.52613e-14
      221.700   8.29316e-14
      221.800   8.08132e-14
      221.900   7.91412e-14
      222.000   7.76129e-14
      222.100   7.61128e-14
      222.200   7.46413e-14
      222.300   7.31974e-14
      222.400   7.17810e-14
      222.500   7.03910e-14
      222.600   6.90278e-14
      222.700   6.76900e-14
      222.800   6.63772e-14
      222.900   6.50894e-14
      223.000   6.38260e-14
      223.100   6.25862e-14
      223.200   6.13702e-14
      223.300   6.01769e-14
      223.400   5.90066e-14
      223.500   5.78581e-14
      223.600   5.67319e-14
      223.700   5.56268e-14
      223.800   5.45228e-14
      223.900   5.33028e-14
      224.000   5.20894e-14
      224.100   5.09031e-14
      224.200   4.97432e-14
      224.300   4.86092e-14
      224.400   4.74999e-14
      224.500   4.64160e-14
      224.600   4.53557e-14
      224.700   4.43196e-14
      224.800   4.33062e-14
      224.900   4.23152e-14
      225.000   4.13466e-14
      225.100   4.03995e-14
      225.200   3.94733e-14
      225.300   3.85685e-14
      225.400   3.76832e-14
      225.500   3.68179e-14
      225.600   3.59720e-14
      225.700   3.51453e-14
      225.800   3.43367e-14
      225.900   3.37350e-14
      226.000   3.32204e-14
      226.100   3.27214e-14
      226.200   3.22297e-14
      226.300   3.17473e-14
      226.400   3.12734e-14
      226.500   3.08056e-14
      226.600   3.03439e-14
      226.700   2.98886e-14
      226.800   2.94396e-14
      226.900   2.89971e-14
      227.000   2.85609e-14
      227.100   2.81311e-14
      227.200   2.77078e-14
      227.300   2.72907e-14
      227.400   2.68798e-14
      227.500   2.64749e-14
      227.600   2.60761e-14
      227.700   2.56833e-14
      227.800   2.52963e-14
      227.900   2.48843e-14
      228.000   2.43988e-14
      228.100   2.38772e-14
      228.200   2.33665e-14
      228.300   2.28667e-14
      228.400   2.23777e-14
      228.500   2.18989e-14
      228.600   2.14304e-14
      228.700   2.09719e-14
      228.800   2.05230e-14
      228.900   2.00840e-14
      229.000   1.96542e-14
      229.100   1.92337e-14
      229.200   1.88221e-14
      229.300   1.84193e-14
      229.400   1.80252e-14
      229.500   1.76395e-14
      229.600   1.72620e-14
      229.700   1.68927e-14
      229.800   1.65313e-14
      229.900   1.61777e-14
      230.000   1.58279e-14
      230.100   1.54564e-14
      230.200   1.50761e-14
      230.300   1.47054e-14
      230.400   1.43437e-14
      230.500   1.39909e-14
      230.600   1.36470e-14
      230.700   1.33114e-14
      230.800   1.29841e-14
      230.900   1.26649e-14
      231.000   1.23534e-14
      231.100   1.20496e-14
      231.200   1.17533e-14
      231.300   1.14643e-14
      231.400   1.11825e-14
      231.500   1.09074e-14
      231.600   1.06390e-14
      231.700   1.03773e-14
      231.800   1.01221e-14
      231.900   9.87307e-15
      232.000   9.63013e-15
      232.100   9.39313e-15
      232.200   9.19245e-15
      232.300   9.03887e-15
      232.400   8.89926e-15
      232.500   8.76182e-15
      232.600   8.62656e-15
      232.700   8.49342e-15
      232.800   8.36236e-15
      232.900   8.23328e-15
      233.000   8.10608e-15
      233.100   7.98090e-15
      233.200   7.85768e-15
      233.300   7.73639e-15
      233.400   7.61700e-15
      233.500   7.49945e-15
      233.600   7.38378e-15
      233.700   7.26990e-15
      233.800   7.15483e-15
      233.900   7.04111e-15
      234.000   6.92921e-15
      234.100   6.81909e-15
      234.200   6.71078e-15
      234.300   6.60415e-15
      234.400   6.49921e-15
      234.500   6.39595e-15
      234.600   6.29432e-15
      234.700   6.19432e-15
      234.800   6.09593e-15
      234.900   5.99908e-15
      235.000   5.90375e-15
      235.100   5.80994e-15
      235.200   5.71762e-15
      235.300   5.62678e-15
      235.400   5.53734e-15
      235.500   5.44935e-15
      235.600   5.36277e-15
      235.700   5.27752e-15
      235.800   5.19368e-15
      235.900   5.11116e-15
      236.000   5.02998e-15
      236.100   4.95004e-15
      236.200   4.87137e-15
      236.300   4.79393e-15
      236.400   4.71775e-15
      236.500   4.64274e-15
      236.600   4.57213e-15
      236.700   4.50963e-15
      236.800   4.45243e-15
      236.900   4.39593e-15
      237.000   4.34013e-15
      237.100   4.28504e-15
      237.200   4.23063e-15
      237.300   4.17690e-15
      237.400   4.12384e-15
      237.500   4.07144e-15
      237.600   4.01962e-15
      237.700   3.96849e-15
      237.800   3.91801e-15
      237.900   3.86812e-15
      238.000   3.81887e-15
      238.100   3.77021e-15
      238.200   3.72216e-15
      238.300   3.67470e-15
      238.400   3.62781e-15
      238.500   3.58149e-15
      238.600   3.53576e-15
      238.700   3.49058e-15
      238.800   3.44596e-15
      238.900   3.40453e-15
      239.000   3.37284e-15
      239.100   3.34250e-15
      239.200   3.31242e-15
      239.300   3.28257e-15
      239.400   3.25297e-15
      239.500   3.22362e-15
      239.600   3.19449e-15
      239.700   3.16561e-15
      239.800   3.13697e-15
      239.900   3.10856e-15
      240.000   3.08038e-15
      240.100   3.05242e-15
      240.200   3.02469e-15
      240.300   2.99719e-15
      240.400   2.96991e-15
      240.500   2.94286e-15
      240.600   2.91604e-15
      240.700   2.88941e-15
      240.800   2.86300e-15
      240.900   2.83683e-15
      241.000   2.81086e-15
      241.100   2.78511e-15
      241.200   2.75958e-15
      241.300   2.73425e-15
      241.400   2.70914e-15
      241.500   2.68424e-15
      241.600   2.65955e-15
      241.700   2.63506e-15
      241.800   2.61077e-15
      241.900   2.58669e-15
      242.000   2.56282e-15
      242.100   2.53916e-15
      242.200   2.51571e-15
      242.300   2.49247e-15
      242.400   2.46942e-15
      242.500   2.44658e-15
      242.600   2.42393e-15
      242.700   2.40148e-15
      242.800   2.37924e-15
      242.900   2.35719e-15
      243.000   2.33533e-15
      243.100   2.31367e-15
      243.200   2.29220e-15
      243.300   2.27092e-15
      243.400   2.24985e-15
      243.500   2.22897e-15
      243.600   2.20828e-15
      243.700   2.18778e-15
      243.800   2.16747e-15
      243.900   2.14735e-15
      244.000   2.12740e-15
      244.100   2.10765e-15
      244.200   2.08809e-15
      244.300   2.06870e-15
      244.400   2.04949e-15
      244.500   2.03047e-15
      244.600   2.01161e-15
      244.700   1.99294e-15
      244.800   1.97447e-15
      244.900   1.95616e-15
      245.000   1.93801e-15
      245.100   1.92005e-15
      245.200   1.90226e-15
      245.300   1.88463e-15
      245.400   1.86717e-15
      245.500   1.84988e-15
      245.600   1.83276e-15
      245.700   1.81579e-15
      245.800   1.79899e-15
      245.900   1.78236e-15
      246.000   1.76590e-15
      246.100   1.74959e-15
      246.200   1.73343e-15
      246.300   1.71743e-15
      246.400   1.70160e-15
      246.500   1.68591e-15
      246.600   1.67037e-15
      246.700   1.65498e-15
      246.800   1.63974e-15
      246.900   1.62465e-15
      247.000   1.60970e-15
      247.100   1.59490e-15
      247.200   1.58025e-15
      247.300   1.56574e-15
      247.400   1.55137e-15
      247.500   1.53714e-15
      247.600   1.52304e-15
      247.700   1.50909e-15
      247.800   1.49527e-15
      247.900   1.48157e-15
      248.000   1.46802e-15
      248.100   1.45461e-15
      248.200   1.44133e-15
      248.300   1.42816e-15
      248.400   1.41513e-15
      248.500   1.39884e-15
      248.600   1.37712e-15
      248.700   1.35216e-15
      248.800   1.32765e-15
      248.900   1.30359e-15
      249.000   1.27996e-15
      249.100   1.25679e-15
      249.200   1.23406e-15
      249.300   1.21173e-15
      249.400   1.18980e-15
      249.500   1.16828e-15
      249.600   1.14714e-15
      249.700   1.12638e-15
      249.800   1.10600e-15
      249.900   1.08599e-15
      250.000   1.06634e-15
      250.100   1.04707e-15
      250.200   1.02815e-15
      250.300   1.00959e-15
      250.400   9.91356e-16
      250.500   9.73455e-16
      250.600   9.55883e-16
      250.700   9.38624e-16
      250.800   9.21678e-16
      250.900   9.05040e-16
      251.000   8.88702e-16
      251.100   8.72659e-16
      251.200   8.56915e-16
      251.300   8.41468e-16
      251.400   8.26303e-16
      251.500   8.11407e-16
      251.600   7.91211e-16
      251.700   7.60842e-16
      251.800   7.30083e-16
      251.900   7.00537e-16
      252.000   6.72155e-16
      252.100   6.44912e-16
      252.200   6.18737e-16
      252.300   5.93632e-16
      252.400   5.69554e-16
      252.500   5.46443e-16
      252.600   5.25413e-16
      252.700   5.12134e-16
      252.800   5.06295e-16
      252.900   5.00525e-16
      253.000   4.94819e-16
      253.100   4.89180e-16
      253.200   4.83607e-16
      253.300   4.78209e-16
      253.400   4.72923e-16
      253.500   4.67702e-16
      253.600   4.62538e-16
      253.700   4.57349e-16
      253.800   4.51825e-16
      253.900   4.46290e-16
      254.000   4.40823e-16
      254.100   4.35420e-16
      254.200   4.30082e-16
      254.300   4.24810e-16
      254.400   4.19602e-16
      254.500   4.14457e-16
      254.600   4.09371e-16
      254.700   4.04350e-16
      254.800   3.99391e-16
      254.900   3.94491e-16
      255.000   3.89650e-16
      255.100   3.84863e-16
      255.200   3.80136e-16
      255.300   3.75465e-16
      255.400   3.70849e-16
      255.500   3.66289e-16
      255.600   3.61782e-16
      255.700   3.57330e-16
      255.800   3.52929e-16
      255.900   3.48580e-16
      256.000   3.44281e-16
      256.100   3.40037e-16
      256.200   3.35842e-16
      256.300   3.31695e-16
      256.400   3.27603e-16
      256.500   3.23555e-16
      256.600   3.19555e-16
      256.700   3.15602e-16
      256.800   3.11696e-16
      256.900   3.07130e-16
      257.000   3.01498e-16
      257.100   2.95615e-16
      257.200   2.89846e-16
      257.300   2.84185e-16
      257.400   2.78673e-16
      257.500   2.73280e-16
      257.600   2.67995e-16
      257.700   2.62810e-16
      257.800   2.57720e-16
      257.900   2.52728e-16
      258.000   2.47830e-16
      258.100   2.43023e-16
      258.200   2.38307e-16
      258.300   2.33682e-16
      258.400   2.29141e-16
      258.500   2.24686e-16
      258.600   2.20317e-16
      258.700   2.16030e-16
      258.800   2.11823e-16
      258.900   2.07698e-16
      259.000   2.03649e-16
      259.100   1.99678e-16
      259.200   1.95782e-16
      259.300   1.91964e-16
      259.400   1.88217e-16
      259.500   1.84541e-16
      259.600   1.80936e-16
      259.700   1.77401e-16
      259.800   1.73931e-16
      259.900   1.70527e-16
      260.000   1.67188e-16
      260.100   1.63702e-16
      260.200   1.60025e-16
      260.300   1.56381e-16
      260.400   1.52818e-16
      260.500   1.49336e-16
      260.600   1.45929e-16
      260.700   1.42599e-16
      260.800   1.39346e-16
      260.900   1.36163e-16
      261.000   1.33054e-16
      261.100   1.30014e-16
      261.200   1.27028e-16
      261.300   1.24108e-16
      261.400   1.21254e-16
      261.500   1.18468e-16
      261.600   1.15753e-16
      261.700   1.13102e-16
      261.800   1.10510e-16
      261.900   1.07976e-16
      262.000   1.05500e-16
      262.100   1.03079e-16
      262.200   1.00714e-16
      262.300   9.84015e-17
      262.400   9.61417e-17
      262.500   9.39324e-17
      262.600   9.17729e-17
      262.700   8.96629e-17
      262.800   8.76009e-17
      262.900   8.55846e-17
      263.000   8.36159e-17
      263.100   8.16911e-17
      263.200   7.98112e-17
      263.300   7.79740e-17
      263.400   7.61783e-17
      263.500   7.44241e-17
      263.600   7.27098e-17
      263.700   7.10343e-17
      263.800   6.93966e-17
      263.900   6.77976e-17
      264.000   6.62343e-17
      264.100   6.47062e-17
      264.200   6.32129e-17
      264.300   6.17548e-17
      264.400   6.03298e-17
      264.500   5.89369e-17
      264.600   5.75758e-17
      264.700   5.62463e-17
      264.800   5.49466e-17
      264.900   5.36775e-17
      265.000   5.24373e-17
      265.100   5.12250e-17
      265.200   5.00408e-17
      265.300   4.88838e-17
      265.400   4.77394e-17
      265.500   4.66162e-17
      265.600   4.55195e-17
      265.700   4.44476e-17
      265.800   4.34024e-17
      265.900   4.23812e-17
      266.000   4.13846e-17
      266.100   4.04111e-17
      266.200   3.94607e-17
      266.300   3.85320e-17
      266.400   3.76256e-17
      266.500   3.67399e-17
      266.600   3.58753e-17
      266.700   3.50308e-17
      266.800   3.42066e-17
      266.900   3.34015e-17
      267.000   3.26150e-17
      267.100   3.18470e-17
      267.200   3.10976e-17
      267.300   3.03656e-17
      267.400   2.96505e-17
      267.500   2.89523e-17
      267.600   2.82706e-17
      267.700   2.76049e-17
      267.800   2.69546e-17
      267.900   2.63199e-17
      268.000   2.57002e-17
      268.100   2.50949e-17
      268.200   2.45040e-17
      268.300   2.39272e-17
      268.400   2.33636e-17
      268.500   2.28134e-17
      268.600   2.22760e-17
      268.700   2.17515e-17
      268.800   2.12392e-17
      268.900   2.07391e-17
      269.000   2.02508e-17
      269.100   1.97739e-17
      269.200   1.93084e-17
      269.300   1.88538e-17
      269.400   1.84096e-17
      269.500   1.79761e-17
      269.600   1.75529e-17
      269.700   1.70825e-17
      269.800   1.66108e-17
      269.900   1.61517e-17
      270.000   1.57053e-17
      270.100   1.52712e-17
      270.200   1.48495e-17
      270.300   1.44392e-17
      270.400   1.40402e-17
      270.500   1.36522e-17
      270.600   1.32748e-17
      270.700   1.29078e-17
      270.800   1.25510e-17
      270.900   1.22038e-17
      271.000   1.18664e-17
      271.100   1.15381e-17
      271.200   1.12187e-17
      271.300   1.09083e-17
      271.400   1.06063e-17
      271.500   1.03128e-17
      271.600   1.00271e-17
      271.700   9.74935e-18
      271.800   9.47931e-18
      271.900   9.21665e-18
      272.000   8.96128e-18
      272.100   8.71284e-18
      272.200   8.47128e-18
      272.300   8.23629e-18
      272.400   8.00776e-18
      272.500   7.78562e-18
      272.600   7.56948e-18
      272.700   7.35928e-18
      272.800   7.16338e-18
      272.900   6.99747e-18
      273.000   6.84669e-18
      273.100   6.69908e-18
      273.200   6.55462e-18
      273.300   6.41333e-18
      273.400   6.27501e-18
      273.500   6.13966e-18
      273.600   6.00720e-18
      273.700   5.87757e-18
      273.800   5.75070e-18
      273.900   5.60821e-18
      274.000   5.43314e-18
      274.100   5.26304e-18
      274.200   5.09819e-18
      274.300   4.93846e-18
      274.400   4.78307e-18
      274.500   4.63098e-18
      274.600   4.48337e-18
      274.700   4.34046e-18
      274.800   4.20197e-18
      274.900   4.06781e-18
      275.000   3.93789e-18
      275.100   3.81207e-18
      275.200   3.69020e-18
      275.300   3.57214e-18
      275.400   3.45783e-18
      275.500   3.34713e-18
      275.600   3.23984e-18
      275.700   3.13601e-18
      275.800   3.03546e-18
      275.900   2.93804e-18
      276.000   2.84992e-18
      276.100   2.78084e-18
      276.200   2.71664e-18
      276.300   2.65389e-18
      276.400   2.59258e-18
      276.500   2.53263e-18
      276.600   2.47408e-18
      276.700   2.41683e-18
      276.800   2.36091e-18
      276.900   2.30624e-18
      277.000   2.25282e-18
      277.100   2.20061e-18
      277.200   2.14959e-18
      277.300   2.09973e-18
      277.400   2.05101e-18
      277.500   2.00337e-18
      277.600   1.95685e-18
      277.700   1.91137e-18
      277.800   1.86692e-18
      277.900   1.82350e-18
      278.000   1.78108e-18
      278.100   1.73870e-18
      278.200   1.68676e-18
      278.300   1.63382e-18
      278.400   1.58251e-18
      278.500   1.53275e-18
      278.600   1.48453e-18
      278.700   1.43782e-18
      278.800   1.39256e-18
      278.900   1.34865e-18
      279.000   1.30608e-18
      279.100   1.26483e-18
      279.200   1.22665e-18
      279.300   1.19339e-18
      279.400   1.16137e-18
      279.500   1.13021e-18
      279.600   1.09987e-18
      279.700   1.07034e-18
      279.800   1.04157e-18
      279.900   1.01356e-18
      280.000   9.86292e-19
      280.100   9.59736e-19
      280.200   9.33893e-19
      280.300   9.08726e-19
      280.400   8.84220e-19
      280.500   8.60378e-19
      280.600   8.37160e-19
      280.700   8.14556e-19
      280.800   7.92553e-19
      280.900   7.71129e-19
      281.000   7.50274e-19
      281.100   7.29972e-19
      281.200   7.10206e-19
      281.300   6.92007e-19
      281.400   6.76212e-19
      281.500   6.61731e-19
      281.600   6.47551e-19
      281.700   6.33670e-19
      281.800   6.20089e-19
      281.900   6.06786e-19
      282.000   5.93762e-19
      282.100   5.81012e-19
      282.200   5.68542e-19
      282.300   5.56325e-19
      282.400   5.44366e-19
      282.500   5.32657e-19
      282.600   5.21198e-19
      282.700   5.09979e-19
      282.800   4.98995e-19
      282.900   4.88252e-19
      283.000   4.77732e-19
      283.100   4.67439e-19
      283.200   4.57364e-19
      283.300   4.47505e-19
      283.400   4.37854e-19
      283.500   4.27261e-19
      283.600   4.16656e-19
      283.700   4.06293e-19
      283.800   3.96186e-19
      283.900   3.86331e-19
      284.000   3.76713e-19
      284.100   3.67330e-19
      284.200   3.58177e-19
      284.300   3.49251e-19
      284.400   3.40543e-19
      284.500   3.32050e-19
      284.600   3.23766e-19
      284.700   3.15689e-19
      284.800   3.07807e-19
      284.900   3.00121e-19
      285.000   2.92620e-19
      285.100   2.85305e-19
      285.200   2.78175e-19
      285.300   2.71218e-19
      285.400   2.64432e-19
      285.500   2.57815e-19
      285.600   2.51364e-19
      285.700   2.45069e-19
      285.800   2.38934e-19
      285.900   2.32951e-19
      286.000   2.27119e-19
      286.100   2.21434e-19
      286.200   2.15885e-19
      286.300   2.10477e-19
      286.400   2.05204e-19
      286.500   2.00060e-19
      286.600   1.94831e-19
      286.700   1.89176e-19
      286.800   1.83432e-19
      286.900   1.77859e-19
      287.000   1.72453e-19
      287.100   1.67210e-19
      287.200   1.62126e-19
      287.300   1.57194e-19
      287.400   1.52409e-19
      287.500   1.47769e-19
      287.600   1.43269e-19
      287.700   1.38904e-19
      287.800   1.34672e-19
      287.900   1.30567e-19
      288.000   1.26588e-19
      288.100   1.22727e-19
      288.200   1.18988e-19
      288.300   1.15364e-19
      288.400   1.11846e-19
      288.500   1.08437e-19
      288.600   1.05128e-19
      288.700   1.01957e-19
      288.800   9.94433e-20
      288.900   9.72647e-20
      289.000   9.51331e-20
      289.100   9.30478e-20
      289.200   9.10086e-20
      289.300   8.90145e-20
      289.400   8.70635e-20
      289.500   8.51557e-20
      289.600   8.32894e-20
      289.700   8.14652e-20
      289.800   7.96799e-20
      289.900   7.79332e-20
      290.000   7.62258e-20
      290.100   7.45562e-20
      290.200   7.29244e-20
      290.300   7.13281e-20
      290.400   6.97672e-20
      290.500   6.82410e-20
      290.600   6.67473e-20
      290.700   6.52867e-20
      290.800   6.38589e-20
      290.900   6.24617e-20
      291.000   6.10944e-20
      291.100   5.97575e-20
      291.200   5.84504e-20
      291.300   5.71715e-20
      291.400   5.59211e-20
      291.500   5.46978e-20
      291.600   5.35009e-20
      291.700   5.23308e-20
      291.800   5.11867e-20
      291.900   5.00688e-20
      292.000   4.86233e-20
      292.100   4.71646e-20
      292.200   4.57462e-20
      292.300   4.43693e-20
      292.400   4.30339e-20
      292.500   4.17378e-20
      292.600   4.04805e-20
      292.700   3.92612e-20
      292.800   3.80784e-20
      292.900   3.69310e-20
      293.000   3.58177e-20
      293.100   3.47375e-20
      293.200   3.36894e-20
      293.300   3.26732e-20
      293.400   3.16879e-20
      293.500   3.07329e-20
      293.600   2.98066e-20
      293.700   2.89079e-20
      293.800   2.80361e-20
      293.900   2.71906e-20
      294.000   2.63790e-20
      294.100   2.56662e-20
      294.200   2.50284e-20
      294.300   2.44065e-20
      294.400   2.37995e-20
      294.500   2.32079e-20
      294.600   2.26307e-20
      294.700   2.20679e-20
      294.800   2.15188e-20
      294.900   2.09839e-20
      295.000   2.04625e-20
      295.100   1.99542e-20
      295.200   1.94583e-20
      295.300   1.89746e-20
      295.400   1.85030e-20
      295.500   1.80431e-20
      295.600   1.75944e-20
      295.700   1.71569e-20
      295.800   1.67301e-20
      295.900   1.63136e-20
      296.000   1.59075e-20
      296.100   1.55114e-20
      296.200   1.51252e-20
      296.300   1.47487e-20
      296.400   1.43822e-20
      296.500   1.40243e-20
      296.600   1.36754e-20
      296.700   1.33350e-20
      296.800   1.30031e-20
      296.900   1.26793e-20
      297.000   1.23635e-20
      297.100   1.20554e-20
      297.200   1.17550e-20
      297.300   1.14619e-20
      297.400   1.11761e-20
      297.500   1.08972e-20
      297.600   1.06255e-20
      297.700   1.03606e-20
      297.800   1.01024e-20
      297.900   9.85048e-21
      298.000   9.60485e-21
      298.100   9.36520e-21
      298.200   9.13148e-21
      298.300   8.88461e-21
      298.400   8.61525e-21
      298.500   8.34393e-21
      298.600   8.08099e-21
      298.700   7.82625e-21
      298.800   7.57928e-21
      298.900   7.34071e-21
      299.000   7.10957e-21
      299.100   6.88554e-21
      299.200   6.66835e-21
      299.300   6.45794e-21
      299.400   6.25402e-21
      299.500   6.05643e-21
      299.600   5.86498e-21
      299.700   5.67948e-21
      299.800   5.49959e-21
      299.900   5.32548e-21
      300.000   5.15672e-21
      300.100   4.99331e-21
      300.192   4.84762e-21
      300.285   4.70452e-21
      300.377   4.56711e-21
      300.470   4.43227e-21
      300.562   4.30274e-21
      300.654   4.17692e-21
      300.747   4.05339e-21
      300.839   3.93479e-21
      300.932   3.81830e-21
      301.025   3.70522e-21
      301.117   3.59669e-21
      301.210   3.49010e-21
      301.303   3.38662e-21
      301.395   3.28735e-21
      301.488   3.19650e-21
      301.581   3.13025e-21
      301.674   3.06596e-21
      301.766   3.00366e-21
      301.859   2.94192e-21
      301.952   2.88148e-21
      302.045   2.82223e-21
      302.138   2.76422e-21
      302.231   2.70745e-21
      302.324   2.65183e-21
      302.417   2.59733e-21
      302.510   2.54389e-21
      302.603   2.49163e-21
      302.696   2.44034e-21
      302.789   2.39012e-21
      302.882   2.34089e-21
      302.976   2.29219e-21
      303.069   2.24495e-21
      303.162   2.19870e-21
      303.255   2.15336e-21
      303.349   2.10846e-21
      303.442   2.06493e-21
      303.535   2.02233e-21
      303.629   1.98013e-21
      303.722   1.93923e-21
      303.816   1.89873e-21
      303.909   1.85949e-21
      304.003   1.82063e-21
      304.096   1.78295e-21
      304.190   1.74565e-21
      304.283   1.70950e-21
      304.377   1.67374e-21
      304.471   1.63868e-21
      304.564   1.60470e-21
      304.658   1.56954e-21
      304.752   1.52527e-21
      304.846   1.48122e-21
      304.939   1.43887e-21
      305.033   1.39726e-21
      305.127   1.35684e-21
      305.221   1.31757e-21
      305.315   1.27943e-21
      305.409   1.24236e-21
      305.503   1.20637e-21
      305.597   1.17139e-21
      305.691   1.13741e-21
      305.785   1.11403e-21
      305.879   1.09374e-21
      305.973   1.07400e-21
      306.067   1.05460e-21
      306.161   1.03555e-21
      306.255   1.01684e-21
      306.350   9.98255e-22
      306.444   9.80194e-22
      306.538   9.62454e-22
      306.633   9.44859e-22
      306.727   9.27747e-22
      306.821   9.10937e-22
      306.916   8.94260e-22
      307.010   8.78050e-22
      307.105   8.61967e-22
      307.199   8.46341e-22
      307.294   8.30820e-22
      307.388   8.15748e-22
      307.483   8.00786e-22
      307.577   7.86247e-22
      307.672   7.71816e-22
      307.767   7.57647e-22
      307.861   7.41777e-22
      307.956   7.22599e-22
      308.051   7.03294e-22
      308.146   6.84504e-22
      308.240   6.66401e-22
      308.335   6.48579e-22
      308.430   6.31218e-22
      308.525   6.14321e-22
      308.620   5.97877e-22
      308.715   5.81864e-22
      308.810   5.66275e-22
      308.905   5.51094e-22
      309.000   5.36319e-22
      309.095   5.21930e-22
      309.190   5.07931e-22
      309.285   4.94296e-22
      309.380   4.81024e-22
      309.476   4.67973e-22
      309.571   4.55396e-22
      309.666   4.43152e-22
      309.761   4.31237e-22
      309.857   4.19519e-22
      309.952   4.08286e-22
      310.047   3.97898e-22
      310.143   3.87805e-22
      310.238   3.78065e-22
      310.334   3.68471e-22
      310.429   3.59209e-22
      310.525   3.50087e-22
      310.620   3.41287e-22
      310.716   3.32613e-22
      310.811   3.24085e-22
      310.907   3.15637e-22
      311.003   3.07405e-22
      311.098   2.99465e-22
      311.194   2.91648e-22
      311.290   2.84036e-22
      311.386   2.76621e-22
      311.481   2.69470e-22
      311.577   2.62433e-22
      311.673   2.55575e-22
      311.769   2.48895e-22
      311.865   2.42390e-22
      311.961   2.36060e-22
      312.057   2.29925e-22
      312.153   2.23963e-22
      312.249   2.18152e-22
      312.345   2.12493e-22
      312.441   2.06977e-22
      312.537   2.01606e-22
      312.633   1.96373e-22
      312.730   1.91219e-22
      312.826   1.86253e-22
      312.922   1.81416e-22
      313.018   1.76703e-22
      313.115   1.72064e-22
      313.211   1.67592e-22
      313.307   1.63235e-22
      313.404   1.58949e-22
      313.500   1.54815e-22
      313.597   1.50750e-22
      313.693   1.46831e-22
      313.790   1.42972e-22
      313.886   1.39552e-22
      313.983   1.37028e-22
      314.079   1.34876e-22
      314.176   1.32737e-22
      314.273   1.30631e-22
      314.369   1.28582e-22
      314.466   1.26543e-22
      314.563   1.24537e-22
      314.660   1.22563e-22
      314.756   1.20640e-22
      314.853   1.18727e-22
      314.950   1.16846e-22
      315.047   1.14995e-22
      315.144   1.13174e-22
      315.241   1.11381e-22
      315.338   1.09617e-22
      315.435   1.07881e-22
      315.532   1.06174e-22
      315.629   1.04494e-22
      315.726   1.02840e-22
      315.823   1.01213e-22
      315.921   9.95954e-23
      316.018   9.80201e-23
      316.115   9.64710e-23
      316.212   9.49457e-23
      316.310   9.31740e-23
      316.407   9.11248e-23
      316.504   8.90182e-23
      316.602   8.69399e-23
      316.699   8.49311e-23
      316.796   8.29691e-23
      316.894   8.10330e-23
      316.991   7.91628e-23
      317.089   7.73286e-23
      317.187   7.55432e-23
      317.284   7.38164e-23
      317.382   7.21119e-23
      317.479   7.04633e-23
      317.577   6.88368e-23
      317.675   6.72481e-23
      317.773   6.56958e-23
      317.870   6.41951e-23
      317.968   6.27126e-23
      318.066   6.12650e-23
      318.164   5.98510e-23
      318.262   5.84700e-23
      318.360   5.71204e-23
      318.458   5.58027e-23
      318.556   5.45160e-23
      318.654   5.32586e-23
      318.752   5.17688e-23
      318.850   5.00119e-23
      318.948   4.82213e-23
      319.046   4.64943e-23
      319.144   4.48284e-23
      319.242   4.32225e-23
      319.341   4.16579e-23
      319.439   4.01646e-23
      319.537   3.87248e-23
      319.635   3.73359e-23
      319.734   3.59832e-23
      319.832   3.46921e-23
      319.930   3.34466e-23
      320.029   3.22340e-23
      320.127   3.10765e-23
      320.226   2.99490e-23
      320.324   2.88726e-23
      320.423   2.78240e-23
      320.522   2.68141e-23
      320.620   2.58501e-23
      320.719   2.49108e-23
      320.818   2.40056e-23
      320.916   2.31417e-23
      321.015   2.23000e-23
      321.114   2.14888e-23
      321.213   2.07069e-23
      321.311   1.99610e-23
      321.410   1.92347e-23
      321.509   1.85341e-23
      321.608   1.78593e-23
      321.707   1.72086e-23
      321.806   1.65814e-23
      321.905   1.59771e-23
      322.004   1.53943e-23
      322.103   1.48330e-23
      322.202   1.42918e-23
      322.301   1.37703e-23
      322.401   1.32627e-23
      322.500   1.27784e-23
      322.599   1.23117e-23
      322.698   1.18620e-23
      322.798   1.14242e-23
      322.897   1.10065e-23
      322.996   1.06041e-23
      323.096   1.02122e-23
      323.195   9.83844e-24
      323.294   9.47833e-24
      323.394   9.12791e-24
      323.493   8.79353e-24
      323.593   8.46818e-24
      323.692   8.15782e-24
      323.792   7.85580e-24
      323.892   7.56485e-24
      323.991   7.28722e-24
      324.091   7.01719e-24
      324.191   6.75697e-24
      324.291   6.50635e-24
      324.390   6.26743e-24
      324.490   6.03471e-24
      324.590   5.81074e-24
      324.690   5.59499e-24
      324.790   5.38711e-24
      324.890   5.18695e-24
      324.990   4.99406e-24
      325.090   4.80825e-24
      325.190   4.62939e-24
      325.290   4.45716e-24
      325.390   4.29109e-24
      325.490   4.13132e-24
      325.590   3.97744e-24
      325.690   3.82911e-24
      325.790   3.68633e-24
      325.891   3.54746e-24
      325.991   3.41507e-24
      326.091   3.28754e-24
      326.192   3.16354e-24
      326.292   3.04532e-24
      326.392   2.93152e-24
      326.493   2.82081e-24
      326.593   2.71526e-24
      326.694   2.61269e-24
      326.794   2.51486e-24
      326.895   2.41973e-24
      326.995   2.32902e-24
      327.096   2.24089e-24
      327.197   2.15602e-24
      327.297   2.07510e-24
      327.398   1.99644e-24
      327.499   1.92073e-24
      327.599   1.84855e-24
      327.700   1.77837e-24
      327.801   1.71083e-24
      327.902   1.64586e-24
      328.003   1.58328e-24
      328.104   1.52307e-24
      328.205   1.46511e-24
      328.306   1.40934e-24
      328.407   1.35568e-24
      328.508   1.30402e-24
      328.609   1.25430e-24
      328.710   1.20647e-24
      328.811   1.16044e-24
      328.912   1.11614e-24
      329.013   1.07351e-24
      329.115   1.03210e-24
      329.216   9.92638e-25
      329.317   9.54667e-25
      329.419   9.17798e-25
      329.520   8.82648e-25
      329.621   8.48825e-25
      329.723   8.15966e-25
      329.824   7.84698e-25
      329.926   7.54305e-25
      330.027   7.25346e-25
      330.129   6.97216e-25
      330.230   6.70439e-25
      330.332   6.44411e-25
      330.434   6.19388e-25
      330.535   5.95545e-25
      330.637   5.72389e-25
      330.739   5.50134e-25
      330.840   5.28928e-25
      330.942   5.08330e-25
      331.044   4.88526e-25
      331.146   4.69482e-25
      331.248   4.51172e-25
      331.350   4.33571e-25
      331.452   4.16645e-25
      331.554   4.00473e-25
      331.656   3.85056e-25
      331.758   3.70229e-25
      331.860   3.55959e-25
      331.962   3.42234e-25
      332.064   3.29030e-25
      332.166   3.16335e-25
      332.268   3.04115e-25
      332.371   2.92256e-25
      332.473   2.80954e-25
      332.575   2.70080e-25
      332.677   2.59629e-25
      332.780   2.49481e-25
      332.882   2.39815e-25
      332.985   2.30431e-25
      333.087   2.21489e-25
      333.190   2.12811e-25
      333.292   2.04519e-25
      333.395   1.96398e-25
      333.497   1.88647e-25
      333.600   1.81126e-25
      333.702   1.73969e-25
      333.805   1.67029e-25
      333.908   1.60354e-25
      334.011   1.53948e-25
      334.113   1.47851e-25
      334.216   1.41935e-25
      334.319   1.36254e-25
      334.422   1.30796e-25
      334.525   1.25554e-25
      334.628   1.20518e-25
      334.731   1.15685e-25
      334.834   1.11042e-25
      334.937   1.06580e-25
      335.040   1.02295e-25
      335.143   9.81831e-26
      335.246   9.42320e-26
      335.349   9.04383e-26
      335.452   8.67953e-26
      335.555   8.32981e-26
      335.659   7.99064e-26
      335.762   7.66817e-26
      335.865   7.35869e-26
      335.969   7.05860e-26
      336.072   6.77312e-26
      336.175   6.49932e-26
      336.279   6.23390e-26
      336.382   5.98154e-26
      336.486   5.73688e-26
      336.589   5.50431e-26
      336.693   5.27907e-26
      336.796   5.06494e-26
      336.900   4.85734e-26
      337.004   4.65805e-26
      337.107   4.46884e-26
      337.211   4.28535e-26
      337.315   4.10943e-26
      337.419   3.94054e-26
      337.523   3.77851e-26
      337.626   3.62452e-26
      337.730   3.47537e-26
      337.834   3.33224e-26
      337.938   3.19497e-26
      338.042   3.06333e-26
      338.146   2.93741e-26
      338.250   2.81671e-26
      338.354   2.70088e-26
      338.458   2.58971e-26
      338.562   2.48308e-26
      338.667   2.37987e-26
      338.771   2.28177e-26
      338.875   2.18769e-26
      338.979   2.09740e-26
      339.084   2.01007e-26
      339.188   1.92706e-26
      339.292   1.84746e-26
      339.397   1.77036e-26
      339.501   1.69717e-26
      339.606   1.62625e-26
      339.710   1.55893e-26
      339.815   1.49374e-26
      339.919   1.43187e-26
      340.024   1.37192e-26
      340.128   1.31505e-26
      340.233   1.25994e-26
      340.338   1.20716e-26
      340.442   1.15701e-26
      340.547   1.10848e-26
      340.652   1.06196e-26
      340.757   1.01737e-26
      340.862   9.74623e-27
      340.966   9.34050e-27
      341.071   8.94783e-27
      341.176   8.57145e-27
      341.281   8.21072e-27
      341.386   7.86515e-27
      341.491   7.53373e-27
      341.596   7.21637e-27
      341.702   6.90935e-27
      341.807   6.61792e-27
      341.912   6.33869e-27
      342.017   6.07108e-27
      342.122   5.81461e-27
      342.228   5.56682e-27
      342.333   5.33149e-27
      342.438   5.10602e-27
      342.544   4.88810e-27
      342.649   4.68118e-27
      342.754   4.48310e-27
      342.860   4.29145e-27
      342.965   4.10948e-27
      343.071   3.93383e-27
      343.176   3.76700e-27
      343.282   3.60567e-27
      343.388   3.45127e-27
      343.493   3.30495e-27
      343.599   3.16535e-27
      343.705   3.03175e-27
      343.810   2.90488e-27
      343.916   2.78220e-27
      344.022   2.66465e-27
      344.128   2.55203e-27
      344.234   2.44408e-27
      344.340   2.34072e-27
      344.446   2.24163e-27
      344.552   2.14671e-27
      344.658   2.05580e-27
      344.764   1.96875e-27
      344.870   1.88528e-27
      344.976   1.80539e-27
      345.082   1.72880e-27
      345.188   1.65548e-27
      345.294   1.58520e-27
      345.401   1.51729e-27
      345.507   1.45284e-27
      345.613   1.39114e-27
      345.719   1.33201e-27
      345.826   1.27487e-27
      345.932   1.22064e-27
      346.039   1.16824e-27
      346.145   1.11852e-27
      346.252   1.07048e-27
      346.358   1.02489e-27
      346.465   9.80856e-28
      346.571   9.39051e-28
      346.678   8.98650e-28
      346.785   8.59972e-28
      346.891   8.23305e-28
      346.998   7.87875e-28
      347.105   7.53947e-28
      347.212   7.21462e-28
      347.319   6.90366e-28
      347.425   6.60863e-28
      347.532   6.32361e-28
      347.639   6.05095e-28
      347.746   5.78984e-28
      347.853   5.53977e-28
      347.960   5.30060e-28
      348.067   5.07174e-28
      348.174   4.85272e-28
      348.281   4.64300e-28
      348.389   4.44050e-28
      348.496   4.24841e-28
      348.603   4.06476e-28
      348.710   3.88891e-28
      348.818   3.71909e-28
      348.925   3.55805e-28
      349.032   3.40401e-28
      349.140   3.25515e-28
      349.247   3.11406e-28
      349.355   2.97793e-28
      349.462   2.84878e-28
      349.570   2.72400e-28
      349.677   2.60584e-28
      349.785   2.49166e-28
      349.892   2.38350e-28
      350.000   2.27906e-28
      350.100   2.18640e-28
      350.193   2.10362e-28
      350.287   2.02304e-28
      350.380   1.94643e-28
      350.473   1.87267e-28
      350.567   1.80087e-28
      350.660   1.73260e-28
      350.754   1.66618e-28
      350.847   1.60300e-28
      350.941   1.54153e-28
      351.034   1.48304e-28
      351.128   1.42614e-28
      351.221   1.37201e-28
      351.315   1.31933e-28
      351.409   1.26866e-28
      351.502   1.22047e-28
      351.596   1.17360e-28
      351.690   1.12848e-28
      351.783   1.08560e-28
      351.877   1.04388e-28
      351.971   1.00374e-28
      352.065   9.65131e-29
      352.159   9.27997e-29
      352.252   8.92671e-29
      352.346   8.58305e-29
      352.440   8.25271e-29
      352.534   7.93520e-29
      352.628   7.62946e-29
      352.722   7.33544e-29
      352.816   7.05286e-29
      352.910   6.78116e-29
      353.004   6.51982e-29
      353.098   6.26835e-29
      353.192   6.02655e-29
      353.287   5.79160e-29
      353.381   5.56800e-29
      353.475   5.35321e-29
      353.569   5.14642e-29
      353.663   4.94778e-29
      353.758   4.75470e-29
      353.852   4.57103e-29
      353.946   4.39438e-29
      354.041   4.22272e-29
      354.135   4.05944e-29
      354.229   3.90242e-29
      354.324   3.74986e-29
      354.418   3.60479e-29
      354.513   3.46377e-29
      354.607   3.32975e-29
      354.702   3.19931e-29
      354.796   3.07497e-29
      354.891   2.95414e-29
      354.985   2.83930e-29
      355.080   2.72773e-29
      355.175   2.62044e-29
      355.269   2.51846e-29
      355.364   2.41935e-29
      355.459   2.32418e-29
      355.553   2.23361e-29
      355.648   2.14570e-29
      355.743   2.06125e-29
      355.838   1.97997e-29
      355.933   1.90199e-29
      356.027   1.82781e-29
      356.122   1.75571e-29
      356.217   1.68646e-29
      356.312   1.61997e-29
      356.407   1.55604e-29
      356.502   1.49463e-29
      356.597   1.43559e-29
      356.692   1.37891e-29
      356.787   1.32444e-29
      356.882   1.27206e-29
      356.977   1.22181e-29
      357.073   1.17300e-29
      357.168   1.12657e-29
      357.263   1.08201e-29
      357.358   1.03918e-29
      357.453   9.98049e-30
      357.549   9.58113e-30
      357.644   9.20159e-30
      357.739   8.83721e-30
      357.835   8.48306e-30
      357.930   8.14670e-30
      358.025   7.82360e-30
      358.121   7.51001e-30
      358.216   7.21195e-30
      358.312   6.92256e-30
      358.407   6.64773e-30
      358.503   6.38089e-30
      358.598   6.12747e-30
      358.694   5.88139e-30
      358.790   5.64497e-30
      358.885   5.42040e-30
      358.981   5.20242e-30
      359.076   4.99546e-30
      359.172   4.79458e-30
      359.268   4.60148e-30
      359.364   4.41618e-30
      359.459   4.24030e-30
      359.555   4.06945e-30
      359.651   3.90544e-30
      359.747   3.74801e-30
      359.843   3.59685e-30
      359.939   3.45174e-30
      360.035   3.31245e-30
      360.131   3.17879e-30
      360.227   3.05030e-30
      360.323   2.92711e-30
      360.419   2.80725e-30
      360.515   2.67763e-30
      360.611   2.55000e-30
      360.707   2.42828e-30
      360.803   2.31255e-30
      360.899   2.20212e-30
      360.995   2.09701e-30
      361.092   1.99579e-30
      361.188   1.90037e-30
      361.284   1.80948e-30
      361.380   1.72291e-30
      361.477   1.63957e-30
      361.573   1.56101e-30
      361.669   1.48623e-30
      361.766   1.41421e-30
      361.862   1.34640e-30
      361.959   1.28113e-30
      362.055   1.21956e-30
      362.152   1.16040e-30
      362.248   1.10462e-30
      362.345   1.05092e-30
      362.441   1.00037e-30
      362.538   9.51732e-31
      362.635   9.05428e-31
      362.731   8.61780e-31
      362.828   8.19802e-31
      362.925   7.79856e-31
      363.021   7.42203e-31
      363.118   7.06011e-31
      363.215   6.71539e-31
      363.312   6.38734e-31
      363.409   6.07534e-31
      363.505   5.78134e-31
      363.602   5.49841e-31
      363.699   5.22934e-31
      363.796   4.97329e-31
      363.893   4.72962e-31
      363.990   4.49779e-31
      364.087   4.27721e-31
      364.184   4.06733e-31
      364.281   3.86758e-31
      364.378   3.67760e-31
      364.475   3.49683e-31
      364.573   3.32308e-31
      364.670   3.15958e-31
      364.767   3.00404e-31
      364.864   2.85604e-31
      364.961   2.71527e-31
      365.059   2.58001e-31
      365.156   2.45276e-31
      365.253   2.33166e-31
      365.351   2.21532e-31
      365.448   2.10581e-31
      365.545   2.00169e-31
      365.643   1.90163e-31
      365.740   1.80746e-31
      365.838   1.71703e-31
      365.935   1.63197e-31
      366.033   1.55022e-31
      366.130   1.47330e-31
      366.228   1.39934e-31
      366.326   1.32090e-31
      366.423   1.24350e-31
      366.521   1.16984e-31
      366.618   1.10116e-31
      366.716   1.03584e-31
      366.814   9.74381e-32
      366.912   9.16537e-32
      367.010   8.62035e-32
      367.107   8.11272e-32
      367.205   7.62969e-32
      367.303   7.17523e-32
      367.401   6.74761e-32
      367.499   6.34503e-32
      367.597   5.96630e-32
      367.695   5.61001e-32
      367.793   5.27483e-32
      367.891   4.95941e-32
      367.989   4.66238e-32
      368.087   4.38317e-32
      368.185   4.12052e-32
      368.283   3.87331e-32
      368.381   3.64071e-32
      368.480   3.41992e-32
      368.578   3.21430e-32
      368.676   3.02100e-32
      368.774   2.83920e-32
      368.873   2.66649e-32
      368.971   2.50577e-32
      369.069   2.35462e-32
      369.168   2.21101e-32
      369.266   2.07747e-32
      369.364   1.95188e-32
      369.463   1.83261e-32
      369.561   1.72169e-32
      369.660   1.61637e-32
      369.758   1.51839e-32
      369.857   1.42538e-32
      369.955   1.33886e-32
      370.054   1.25671e-32
      370.153   1.17956e-32
      370.251   1.10781e-32
      370.350   1.03970e-32
      370.449   9.75765e-33
      370.547   9.16291e-33
      370.646   8.59807e-33
      370.745   8.06816e-33
      370.844   7.57039e-33
      370.943   7.10304e-33
      371.041   6.66861e-33
      371.140   6.25624e-33
      371.239   5.86902e-33
      371.338   5.50571e-33
      371.437   5.16468e-33
      371.536   4.84459e-33
      371.635   4.54389e-33
      371.734   4.26181e-33
      371.833   3.99709e-33
      371.932   3.74860e-33
      372.032   3.51306e-33
      372.131   3.29430e-33
      372.230   3.08913e-33
      372.329   2.89653e-33
      372.428   2.71580e-33
      372.528   2.54463e-33
      372.627   2.38571e-33
      372.726   2.23659e-33
      372.826   2.09533e-33
      372.925   1.96413e-33
      373.024   1.84106e-33
      373.124   1.72448e-33
      373.223   1.61636e-33
      373.323   1.51392e-33
      373.422   1.41881e-33
      373.522   1.32874e-33
      373.621   1.24520e-33
      373.721   1.16604e-33
      373.820   1.09262e-33
      373.920   1.02308e-33
      374.020   9.57878e-34
      374.119   8.97452e-34
      374.219   8.40191e-34
      374.319   7.86581e-34
      374.419   7.36378e-34
      374.518   6.89765e-34
      374.618   6.45658e-34
      374.718   6.04310e-34
      374.818   5.65634e-34
      374.918   5.29411e-34
      375.018   4.95454e-34
      375.118   4.63673e-34
      375.218   4.33892e-34
      375.318   4.06017e-34
      375.418   3.79901e-34
      375.518   3.55468e-34
      375.618   3.32589e-34
      375.718   3.11160e-34
      375.818   2.91104e-34
      375.918   2.72326e-34
      376.019   2.54583e-34
      376.119   2.38135e-34
      376.219   2.22746e-34
      376.319   2.08334e-34
      376.420   1.94724e-34
      376.520   1.82115e-34
      376.620   1.70317e-34
      376.721   1.59163e-34
      376.821   1.48837e-34
      376.922   1.39080e-34
      377.022   1.30042e-34
      377.122   1.21590e-34
      377.223   1.13604e-34
      377.323   1.06210e-34
      377.424   9.92222e-35
      377.525   9.26936e-35
      377.625   8.66489e-35
      377.726   8.09405e-35
      377.827   7.56040e-35
      377.927   7.06624e-35
      378.028   6.59991e-35
      378.129   6.16385e-35
      378.230   5.75636e-35
      378.330   5.37934e-35
      378.431   5.02345e-35
      378.532   4.69109e-35
      378.633   4.38025e-35
      378.734   4.08983e-35
      378.835   3.81861e-35
      378.936   3.56521e-35
      379.037   3.32849e-35
      379.138   3.10730e-35
      379.239   2.90064e-35
      379.340   2.70774e-35
      379.441   2.52748e-35
      379.542   2.35908e-35
      379.643   2.20186e-35
      379.745   2.05362e-35
      379.846   1.91653e-35
      379.947   1.78852e-35
      380.048   1.66905e-35
      380.150   1.55637e-35
      380.251   1.45223e-35
      380.352   1.35503e-35
      380.454   1.26343e-35
      380.555   1.17874e-35
      380.656   1.09967e-35
      380.758   1.02516e-35
      380.859   9.56327e-36
      380.961   8.91493e-36
      381.062   8.31570e-36
      381.164   7.75089e-36
      381.266   7.22425e-36
      381.367   6.73762e-36
      381.469   6.27931e-36
      381.570   5.85601e-36
      381.672   5.45726e-36
      381.774   5.08524e-36
      381.876   4.73851e-36
      381.977   4.41823e-36
      382.079   4.11661e-36
      382.181   3.83538e-36
      382.283   3.57337e-36
      382.385   3.32898e-36
      382.487   3.10104e-36
      382.589   2.88877e-36
      382.691   2.69089e-36
      382.793   2.50646e-36
      382.895   2.33454e-36
      382.997   2.17429e-36
      383.099   2.02496e-36
      383.201   1.88585e-36
      383.303   1.75616e-36
      383.405   1.63534e-36
      383.507   1.52280e-36
      383.610   1.41696e-36
      383.712   1.31928e-36
      383.814   1.22836e-36
      383.916   1.14363e-36
      384.019   1.06395e-36
      384.121   9.90450e-37
      384.223   9.22015e-37
      384.326   8.57682e-37
      384.428   7.98340e-37
      384.531   7.42563e-37
      384.633   6.91134e-37
      384.736   6.42781e-37
      384.838   5.98198e-37
      384.941   5.56305e-37
      385.043   5.17680e-37
      385.146   4.81389e-37
      385.249   4.47622e-37
      385.351   4.16490e-37
      385.454   3.87233e-37
      385.557   3.60032e-37
      385.660   3.34712e-37
      385.762   3.11390e-37
      385.865   2.89474e-37
      385.968   2.69083e-37
      386.071   2.50115e-37
      386.174   2.32478e-37
      386.277   2.16082e-37
      386.380   2.00831e-37
      386.483   1.86647e-37
      386.586   1.73463e-37
      386.689   1.61198e-37
      386.792   1.49792e-37
      386.895   1.39190e-37
      386.998   1.29334e-37
      387.101   1.20172e-37
      387.204   1.11648e-37
      387.308   1.03654e-37
      387.411   9.62961e-38
      387.514   8.94573e-38
      387.617   8.31016e-38
      387.721   7.71404e-38
      387.824   7.16535e-38
      387.927   6.65503e-38
      388.031   6.17676e-38
      388.134   5.73663e-38
      388.238   5.32414e-38
      388.341   4.94418e-38
      388.445   4.58802e-38
      388.548   4.26028e-38
      388.652   3.95313e-38
      388.755   3.67056e-38
      388.859   3.40563e-38
      388.962   3.16190e-38
      389.066   2.93333e-38
      389.170   2.72135e-38
      389.274   2.52443e-38
      389.377   2.34333e-38
      389.481   2.17355e-38
      389.585   2.01610e-38
      389.689   1.86992e-38
      389.793   1.73421e-38
      389.897   1.60839e-38
      390.000   1.49258e-38
      390.104   1.38416e-38
      390.208   1.28350e-38
      390.312   1.19012e-38
      390.416   1.10352e-38
      390.520   1.02313e-38
      390.625   9.47828e-39
      390.729   8.78739e-39
      390.833   8.14604e-39
      390.937   7.55116e-39
      391.041   6.99968e-39
      391.145   6.48821e-39
      391.250   6.00924e-39
      391.354   5.56971e-39
      391.458   5.16198e-39
      391.563   4.78037e-39
      391.667   4.43004e-39
      391.771   4.10524e-39
      391.876   3.80121e-39
      391.980   3.52210e-39
      392.085   3.26105e-39
      392.189   3.02137e-39
      392.294   2.79711e-39
      392.398   2.59132e-39
      392.503   2.39881e-39
      392.607   2.22213e-39
      392.712   2.05689e-39
      392.817   1.90377e-39
      392.921   1.76334e-39
      393.026   1.63195e-39
      393.131   1.51033e-39
      393.236   1.39764e-39
      393.340   1.29427e-39
      393.445   1.19765e-39
      393.550   1.10819e-39
      393.655   1.02532e-39
      393.760   9.48657e-40
      393.865   8.77649e-40
      393.970   8.11970e-40
      394.075   7.51113e-40
      394.180   6.94824e-40
      394.285   6.42701e-40
      394.390   5.94483e-40
      394.495   5.49827e-40
      394.600   5.08520e-40
      394.706   4.69949e-40
      394.811   4.34610e-40
      394.916   4.01888e-40
      395.021   3.71622e-40
      395.126   3.43631e-40
      395.232   3.17489e-40
      395.337   2.93534e-40
      395.443   2.71182e-40
      395.548   2.50702e-40
      395.653   2.31765e-40
      395.759   2.14075e-40
      395.864   1.97886e-40
      395.970   1.82771e-40
      396.075   1.68927e-40
      396.181   1.56009e-40
      396.286   1.44175e-40
      396.392   1.33147e-40
      396.498   1.22946e-40
      396.603   1.13603e-40
      396.709   1.04894e-40
      396.815   9.68451e-41
      396.921   8.94084e-41
      397.026   8.26023e-41
      397.132   7.62475e-41
      397.238   7.03886e-41
      397.344   6.49670e-41
      397.450   5.99700e-41
      397.556   5.53457e-41
      397.662   5.10773e-41
      397.768   4.71411e-41
      397.874   4.34991e-41
      397.980   4.01416e-41
      398.086   3.70363e-41
      398.192   3.41763e-41
      398.298   3.15306e-41
      398.404   2.90868e-41
      398.510   2.68349e-41
      398.617   2.47385e-41
      398.723   2.28187e-41
      398.829   2.10489e-41
      398.935   1.94122e-41
      399.042   1.78918e-41
      399.148   1.64989e-41
      399.255   1.52055e-41
      399.361   1.40228e-41
      399.467   1.29298e-41
      399.574   1.19138e-41
      399.680   1.09848e-41
      399.787   1.01188e-41
      399.893       0.00000
      400.000       0.00000
