Filter Be-thin
observation_date 22-Sept-2008 22:40:45
wavelength effective area 
      1.00000   2.78438e-10
      1.10000   7.94899e-10
      1.20000   2.06655e-09
      1.30000   4.94179e-09
      1.40000   1.12139e-08
      1.50000   2.39249e-08
      1.60000   4.84360e-08
      1.70000   9.40371e-08
      1.80000   1.75081e-07
      1.90000   3.14690e-07
      2.00000   5.47111e-07
      2.10000   9.24137e-07
      2.20000   1.52386e-06
      2.30000   2.44968e-06
      2.40000   3.84594e-06
      2.50000   5.87766e-06
      2.60000   8.96982e-06
      2.70000   1.33729e-05
      2.80000   1.95558e-05
      2.90000   2.83029e-05
      3.00000   4.03226e-05
      3.10000   5.67080e-05
      3.20000   7.88799e-05
      3.30000   0.000108603
      3.40000   0.000147963
      3.50000   0.000199633
      3.60000   0.000268099
      3.70000   0.000356213
      3.80000   0.000471310
      3.90000   0.000620113
      4.00000   0.000810790
      4.10000    0.00105515
      4.20000    0.00136826
      4.30000    0.00176918
      4.40000    0.00228138
      4.50000    0.00293365
      4.60000    0.00375961
      4.70000    0.00481768
      4.80000    0.00616688
      4.90000    0.00779208
      5.00000     0.0101041
      5.10000     0.0129168
      5.20000     0.0165602
      5.30000     0.0210505
      5.40000     0.0267132
      5.50000     0.0339560
      5.60000     0.0418358
      5.70000     0.0542989
      5.80000     0.0635523
      5.90000     0.0968668
      6.00000      0.129976
      6.10000      0.165800
      6.20000      0.203201
      6.30000      0.238703
      6.40000      0.268950
      6.50000      0.290946
      6.60000      0.300472
      6.70000      0.309083
      6.80000      0.308725
      6.90000      0.403968
      7.00000      0.438107
      7.10000      0.462006
      7.20000      0.480540
      7.30000      0.495212
      7.40000      0.505888
      7.50000      0.513915
      7.60000      0.519417
      7.70000      0.521042
      7.80000      0.517830
      7.90000      0.515168
      8.00000      0.741705
      8.10000      0.808261
      8.20000      0.817537
      8.30000      0.823013
      8.40000      0.825043
      8.50000      0.825584
      8.60000      0.824399
      8.70000      0.822068
      8.80000      0.818335
      8.90000      0.813638
      9.00000      0.807931
      9.10000      0.801278
      9.20000      0.793860
      9.30000      0.785617
      9.40000      0.776682
      9.50000      0.767122
      9.60000      0.756910
      9.70000      0.746151
      9.80000      0.734947
      9.90000      0.723336
      10.0000      0.711375
      10.1000      0.699091
      10.2000      0.686516
      10.3000      0.673642
      10.4000      0.660507
      10.5000      0.647142
      10.6000      0.633585
      10.7000      0.619861
      10.8000      0.605997
      10.9000      0.592033
      11.0000      0.577981
      11.1000      0.563878
      11.2000      0.549740
      11.3000      0.535595
      11.4000      0.521447
      11.5000      0.507308
      11.6000      0.493201
      11.7000      0.479106
      11.8000      0.465074
      11.9000      0.451026
      12.0000      0.436531
      12.1000      0.423716
      12.2000      0.418398
      12.3000      0.408690
      12.4000      0.396074
      12.5000      0.383373
      12.6000      0.370756
      12.7000      0.358295
      12.8000      0.346016
      12.9000      0.333926
      13.0000      0.322050
      13.1000      0.310403
      13.2000      0.299012
      13.3000      0.287937
      13.4000      0.277163
      13.5000      0.266675
      13.6000      0.256488
      13.7000      0.246557
      13.8000      0.236880
      13.9000      0.227464
      14.0000      0.218303
      14.1000      0.209378
      14.2000      0.200681
      14.3000      0.192215
      14.4000      0.183983
      14.5000      0.176001
      14.6000      0.168275
      14.7000      0.160780
      14.8000      0.153513
      14.9000      0.146473
      15.0000      0.139657
      15.1000      0.133066
      15.2000      0.126738
      15.3000      0.120637
      15.4000      0.114749
      15.5000      0.109070
      15.6000      0.103601
      15.7000     0.0983567
      15.8000     0.0933447
      15.9000     0.0885251
      16.0000     0.0838920
      16.1000     0.0794409
      16.2000     0.0752124
      16.3000     0.0711678
      16.4000     0.0672849
      16.5000     0.0635581
      16.6000     0.0600098
      16.7000     0.0566405
      16.8000     0.0534104
      16.9000     0.0503149
      17.0000     0.0473795
      17.1000     0.0446139
      17.2000     0.0419785
      17.3000     0.0394678
      17.4000     0.0371151
      17.5000     0.0348825
      17.6000     0.0327643
      17.7000     0.0307887
      17.8000     0.0289984
      17.9000     0.0272901
      18.0000     0.0256516
      18.1000     0.0241233
      18.2000     0.0226454
      18.3000     0.0212108
      18.4000     0.0198319
      18.5000     0.0185112
      18.6000     0.0172328
      18.7000     0.0160092
      18.8000     0.0148643
      18.9000     0.0137741
      19.0000     0.0127632
      19.1000     0.0118205
      19.2000     0.0109239
      19.3000     0.0101002
      19.4000    0.00933801
      19.5000    0.00862000
      19.6000    0.00798654
      19.7000    0.00738800
      19.8000    0.00682066
      19.9000    0.00630865
      20.0000    0.00582020
      20.1000    0.00536589
      20.2000    0.00494874
      20.3000    0.00455079
      20.4000    0.00419034
      20.5000    0.00385166
      20.6000    0.00353250
      20.7000    0.00324578
      20.8000    0.00297179
      20.9000    0.00272285
      21.0000    0.00249148
      21.1000    0.00227361
      21.2000    0.00207912
      21.3000    0.00189298
      21.4000    0.00172628
      21.5000    0.00157031
      21.6000    0.00142512
      21.7000    0.00129477
      21.8000    0.00116983
      21.9000    0.00105992
      22.0000   0.000954824
      22.1000   0.000860327
      22.2000   0.000772171
      22.3000   0.000689571
      22.4000   0.000606863
      22.5000   0.000524455
      22.6000   0.000420850
      22.7000   0.000341758
      22.8000   0.000383069
      22.9000   0.000444456
      23.0000   0.000524171
      23.1000   0.000557115
      23.2000   0.000545836
      23.3000   0.000512633
      23.4000   0.000468477
      23.5000   0.000428697
      23.6000   0.000390125
      23.7000   0.000355765
      23.8000   0.000322065
      23.9000   0.000293180
      24.0000   0.000264970
      24.1000   0.000240490
      24.2000   0.000216907
      24.3000   0.000196423
      24.4000   0.000176902
      24.5000   0.000159821
      24.6000   0.000143702
      24.7000   0.000129574
      24.8000   0.000116330
      24.9000   0.000104694
      25.0000   9.38352e-05
      25.1000   8.43108e-05
      25.2000   7.54340e-05
      25.3000   6.76724e-05
      25.4000   6.04286e-05
      25.5000   5.41422e-05
      25.6000   4.82461e-05
      25.7000   4.31803e-05
      25.8000   3.83880e-05
      25.9000   3.43273e-05
      26.0000   3.04384e-05
      26.1000   2.71989e-05
      26.2000   2.40470e-05
      26.3000   2.14782e-05
      26.4000   1.89291e-05
      26.5000   1.69024e-05
      26.6000   1.48871e-05
      26.7000   1.32540e-05
      26.8000   1.16745e-05
      26.9000   1.03557e-05
      27.0000   9.12295e-06
      27.1000   8.05736e-06
      27.2000   7.09955e-06
      27.3000   6.25201e-06
      27.4000   5.54030e-06
      27.5000   4.86911e-06
      27.6000   4.30596e-06
      27.7000   3.75309e-06
      27.8000   3.32155e-06
      27.9000   2.89243e-06
      28.0000   2.54954e-06
      28.1000   2.22490e-06
      28.2000   1.94844e-06
      28.3000   1.70447e-06
      28.4000   1.48226e-06
      28.5000   1.30014e-06
      28.6000   1.12223e-06
      28.7000   9.87322e-07
      28.8000   8.53192e-07
      28.9000   7.46225e-07
      29.0000   6.47390e-07
      29.1000   5.61038e-07
      29.2000   4.88713e-07
      29.3000   4.19448e-07
      29.4000   3.66913e-07
      29.5000   3.14688e-07
      29.6000   2.73875e-07
      29.7000   2.36224e-07
      29.8000   2.03176e-07
      29.9000   1.76233e-07
      30.0000   1.49749e-07
      30.1000   1.30616e-07
      30.2000   1.11597e-07
      30.3000   9.73944e-08
      30.4000   8.59672e-08
      30.5000   7.48911e-08
      30.6000   6.49333e-08
      30.7000   5.50349e-08
      30.8000   4.74542e-08
      30.9000   4.05970e-08
      31.0000   3.44429e-08
      31.1000   2.98227e-08
      31.2000   2.52305e-08
      31.3000   2.18003e-08
      31.4000   1.86334e-08
      31.5000   1.57960e-08
      31.6000   1.36299e-08
      31.7000   1.14771e-08
      31.8000   9.87473e-09
      31.9000   8.41713e-09
      32.0000   7.09411e-09
      32.1000   6.14295e-09
      32.2000   5.19760e-09
      32.3000   4.46276e-09
      32.4000   3.82269e-09
      32.5000   3.20894e-09
      32.6000   2.77957e-09
      32.7000   2.35286e-09
      32.8000   1.99848e-09
      32.9000   1.71419e-09
      33.0000   1.43166e-09
      33.1000   1.23302e-09
      33.2000   1.04672e-09
      33.3000   8.76131e-10
      33.4000   7.54059e-10
      33.5000   6.32725e-10
      33.6000   5.35546e-10
      33.7000   4.56771e-10
      33.8000   3.78458e-10
      33.9000   3.24450e-10
      34.0000   2.74054e-10
      34.1000   2.26970e-10
      34.2000   1.94848e-10
      34.3000   1.62905e-10
      34.4000   1.36139e-10
      34.5000   1.15966e-10
      34.6000   9.59087e-11
      34.7000   8.09434e-11
      34.8000   6.83775e-11
      34.9000   5.58824e-11
      35.0000   4.76719e-11
      35.1000   3.99432e-11
      35.2000   3.25732e-11
      35.3000   2.78412e-11
      35.4000   2.31359e-11
      35.5000   1.89768e-11
      35.6000   1.61258e-11
      35.7000   1.32910e-11
      35.8000   1.09642e-11
      35.9000   9.26459e-12
      36.0000   7.57464e-12
      36.1000   6.28253e-12
      36.2000   5.28041e-12
      36.3000   4.28403e-12
      36.4000   3.57073e-12
      36.5000   2.98637e-12
      36.6000   2.40541e-12
      36.7000   2.01312e-12
      36.8000   1.67622e-12
      36.9000   1.34128e-12
      37.0000   1.12587e-12
      37.1000   9.33847e-13
      37.2000   7.42938e-13
      37.3000   6.24583e-13
      37.4000   5.16432e-13
      37.5000   4.08916e-13
      37.6000   3.43713e-13
      37.7000   2.83539e-13
      37.8000   2.23721e-13
      37.9000   1.87628e-13
      38.0000   1.54552e-13
      38.1000   1.21669e-13
      38.2000   1.01577e-13
      38.3000   8.36160e-14
      38.4000   6.57609e-14
      38.5000   5.45164e-14
      38.6000   4.48921e-14
      38.7000   3.53246e-14
      38.8000   2.90045e-14
      38.9000   2.39153e-14
      39.0000   1.88561e-14
      39.1000   1.52939e-14
      39.2000   1.26379e-14
      39.3000   9.99746e-15
      39.4000   7.98089e-15
      39.5000   6.59763e-15
      39.6000   5.22268e-15
      39.7000   4.08216e-15
      39.8000   3.38708e-15
      39.9000   2.69613e-15
      40.0000   2.06385e-15
      40.1000   1.72033e-15
      40.2000   1.37886e-15
      40.3000   1.03946e-15
      40.4000   8.64489e-16
      40.5000   6.98201e-16
      40.6000   5.32902e-16
      40.7000   4.29439e-16
      40.8000   3.49662e-16
      40.9000   2.70370e-16
      41.0000   2.10674e-16
      41.1000   1.73017e-16
      41.2000   1.35592e-16
      41.3000   1.02015e-16
      41.4000   8.45307e-17
      41.5000   6.71504e-17
      41.6000   4.98756e-17
      41.7000   4.07446e-17
      41.8000   3.28013e-17
      41.9000   2.49059e-17
      42.0000   1.93564e-17
      42.1000   1.57859e-17
      42.2000   1.22368e-17
      42.3000   9.05435e-18
      42.4000   7.47676e-18
      42.5000   5.90860e-18
      42.6000   4.34996e-18
      42.7000   3.48241e-18
      42.8000   2.80163e-18
      42.9000   2.12490e-18
      43.0000   1.59390e-18
      43.1000   1.30348e-18
      43.2000   1.01483e-18
      43.3000   7.27925e-19
      43.4000   7.28829e-19
      43.5000   7.95093e-19
      43.6000   9.01800e-19
      43.7000   9.53475e-19
      43.8000   8.60772e-19
      43.9000   6.83553e-19
      44.0000   4.84936e-19
      44.1000   3.86629e-19
      44.2000   3.07469e-19
      44.3000   2.29527e-19
      44.4000   1.71627e-19
      44.5000   1.40000e-19
      44.6000   1.08455e-19
      44.7000   7.69905e-20
      44.8000   6.20966e-20
      44.9000   4.95756e-20
      45.0000   3.70861e-20
      45.1000   2.68372e-20
      45.2000   2.19658e-20
      45.3000   1.71072e-20
      45.4000   1.22604e-20
      45.5000   9.44767e-21
      45.6000   7.59558e-21
      45.7000   5.74828e-21
      45.8000   3.94854e-21
      45.9000   3.25704e-21
      46.0000   2.56726e-21
      46.1000   1.87922e-21
      46.2000   1.35197e-21
      46.3000   1.10047e-21
      46.4000   8.49637e-22
      46.5000   5.99415e-22
      46.6000   4.55900e-22
      46.7000   3.65801e-22
      46.8000   2.75931e-22
      46.9000   1.86283e-22
      47.0000   1.50912e-22
      47.1000   1.19302e-22
      47.2000   8.77712e-23
      47.3000   5.99374e-23
      47.4000   4.90493e-23
      47.5000   3.81879e-23
      47.6000   2.73539e-23
      47.7000   1.93038e-23
      47.8000   1.56467e-23
      47.9000   1.19982e-23
      48.0000   8.35925e-24
      48.1000   6.10169e-24
      48.2000   4.90098e-24
      48.3000   3.70319e-24
      48.4000   2.50840e-24
      48.5000   1.89256e-24
      48.6000   1.50752e-24
      48.7000   1.12343e-24
      48.8000   7.40254e-25
      48.9000   5.75863e-25
      49.0000   4.55411e-25
      49.1000   3.35257e-25
      49.2000   2.15393e-25
      49.3000   1.74881e-25
      49.4000   1.41310e-25
      49.5000   1.07821e-25
      49.6000   7.44130e-26
      49.7000   6.70148e-26
      49.8000   6.02749e-26
      49.9000   5.35515e-26
      50.0000   4.68447e-26
      50.1000   4.10890e-26
      50.2000   3.31674e-26
      50.3000   2.68193e-26
      50.4000   2.32016e-26
      50.5000   2.09105e-26
      50.6000   1.86716e-26
      50.7000   1.44324e-26
      50.8000   1.20280e-26
      50.9000   6.58664e-27
      51.0000   4.41330e-27
      51.1000   3.56837e-27
      51.2000   3.57564e-27
      51.3000   3.20268e-27
      51.4000   1.97518e-27
      51.5000   1.19116e-27
      51.6000   8.40123e-28
      51.7000   5.66574e-28
      51.8000   4.28552e-28
      51.9000   3.56636e-28
      52.0000   2.82591e-28
      52.1000   1.95343e-28
      52.2000   1.49455e-28
      52.3000   9.84488e-29
      52.4000   6.42467e-29
      52.5000   5.07727e-29
      52.6000   4.51385e-29
      52.7000   3.85115e-29
      52.8000   2.61792e-29
      52.9000   1.49752e-29
      53.0000   1.00149e-29
      53.1000   6.60406e-30
      53.2000   4.43149e-30
      53.3000   2.94128e-30
      53.4000   1.92743e-30
      53.5000   1.10025e-30
      53.6000   5.56147e-31
      53.7000   3.24917e-31
      53.8000   2.42686e-31
      53.9000   1.66679e-31
      54.0000   1.12078e-31
      54.1000   7.29333e-32
      54.2000   5.16860e-32
      54.3000   3.11345e-32
      54.4000   1.31871e-32
      54.5000   7.20109e-33
      54.6000   5.15865e-33
      54.7000   3.91485e-33
      54.8000   2.75069e-33
      54.9000   1.86510e-33
      55.0000   1.35739e-33
      55.1000   9.81704e-34
      55.2000   7.04671e-34
      55.3000   6.51256e-34
      55.4000   5.80621e-34
      55.5000   4.17174e-34
      55.6000   2.67480e-34
      55.7000   1.92495e-34
      55.8000   1.31454e-34
      55.9000   9.21694e-35
      56.0000   6.74327e-35
      56.1000   4.66051e-35
      56.2000   4.31866e-35
      56.3000   3.52216e-35
      56.4000   2.55119e-35
      56.5000   1.75848e-35
      56.6000   1.21169e-35
      56.7000   8.82909e-36
      56.8000   6.47797e-36
      56.9000   4.59051e-36
      57.0000   3.06555e-36
      57.1000   2.04741e-36
      57.2000   1.41019e-36
      57.3000   9.98278e-37
      57.4000   7.12994e-37
      57.5000   5.05914e-37
      57.6000   3.29007e-37
      57.7000   2.28696e-37
      57.8000   2.07274e-37
      57.9000   1.55212e-37
      58.0000   1.10593e-37
      58.1000   7.29475e-38
      58.2000   4.19937e-38
      58.3000   2.76260e-38
      58.4000   2.09014e-38
      58.5000   1.66669e-38
      58.6000   1.13767e-38
      58.7000   7.68403e-39
      58.8000   5.15845e-39
      58.9000   3.47522e-39
      59.0000   2.52528e-39
      59.1000   1.87403e-39
      59.2000   1.38631e-39
      59.3000   1.02200e-39
      59.4000   7.50656e-40
      59.5000   5.28756e-40
      59.6000   3.49794e-40
      59.7000   2.67885e-40
      59.8000   1.86212e-40
      59.9000   1.10690e-40
      60.0000   8.15219e-41
      60.1000   6.01451e-41
      60.2000   4.42306e-41
      60.3000   3.24162e-41
      60.4000   2.36875e-41
      60.5000   1.74602e-41
      60.6000   1.29774e-41
      60.7000   1.02169e-41
      60.8000   8.43722e-42
      60.9000   6.94904e-42
      61.0000   5.74112e-42
      61.1000   4.75741e-42
      61.2000   3.95867e-42
      61.3000   3.28184e-42
      61.4000   2.71572e-42
      61.5000   2.25889e-42
      61.6000   1.79927e-42
      61.7000   1.41251e-42
      61.8000   1.11123e-42
      61.9000   8.78614e-43
      62.0000   6.74025e-43
      62.1000   4.86251e-43
      62.2000   3.41917e-43
      62.3000   2.49431e-43
      62.4000   2.04590e-43
      62.5000   1.79366e-43
      62.6000   1.52742e-43
      62.7000   1.30321e-43
      62.8000   1.14906e-43
      62.9000   8.26766e-44
      63.0000   6.02558e-44
      63.1000   4.20390e-44
      63.2000   3.50325e-44
      63.3000   2.52234e-44
      63.4000   2.24208e-44
      63.5000   1.54143e-44
      63.6000   1.26117e-44
      63.7000   9.80909e-45
      63.8000   9.80909e-45
      63.9000   7.00649e-45
      64.0000   2.80260e-45
      64.1000   2.80260e-45
      64.2000   2.80260e-45
      64.3000   2.80260e-45
      64.4000       0.00000
      64.5000       0.00000
      64.6000       0.00000
      64.7000       0.00000
      64.8000       0.00000
      64.9000       0.00000
      65.0000       0.00000
      65.1000       0.00000
      65.2000       0.00000
      65.3000       0.00000
      65.4000       0.00000
      65.5000       0.00000
      65.6000       0.00000
      65.7000       0.00000
      65.8000       0.00000
      65.9000       0.00000
      66.0000       0.00000
      66.1000       0.00000
      66.2000       0.00000
      66.3000       0.00000
      66.4000       0.00000
      66.5000       0.00000
      66.6000       0.00000
      66.7000       0.00000
      66.8000       0.00000
      66.9000       0.00000
      67.0000       0.00000
      67.1000       0.00000
      67.2000       0.00000
      67.3000       0.00000
      67.4000       0.00000
      67.5000       0.00000
      67.6000       0.00000
      67.7000       0.00000
      67.8000       0.00000
      67.9000       0.00000
      68.0000       0.00000
      68.1000       0.00000
      68.2000       0.00000
      68.3000       0.00000
      68.4000       0.00000
      68.5000       0.00000
      68.6000       0.00000
      68.7000       0.00000
      68.8000       0.00000
      68.9000       0.00000
      69.0000       0.00000
      69.1000       0.00000
      69.2000       0.00000
      69.3000       0.00000
      69.4000       0.00000
      69.5000       0.00000
      69.6000       0.00000
      69.7000       0.00000
      69.8000       0.00000
      69.9000       0.00000
      70.0000       0.00000
      70.1000       0.00000
      70.2000       0.00000
      70.3000       0.00000
      70.4000       0.00000
      70.5000       0.00000
      70.6000       0.00000
      70.7000       0.00000
      70.8000       0.00000
      70.9000       0.00000
      71.0000       0.00000
      71.1000       0.00000
      71.2000       0.00000
      71.3000       0.00000
      71.4000       0.00000
      71.5000       0.00000
      71.6000       0.00000
      71.7000       0.00000
      71.8000       0.00000
      71.9000       0.00000
      72.0000       0.00000
      72.1000       0.00000
      72.2000       0.00000
      72.3000       0.00000
      72.4000       0.00000
      72.5000       0.00000
      72.6000       0.00000
      72.7000       0.00000
      72.8000       0.00000
      72.9000       0.00000
      73.0000       0.00000
      73.1000       0.00000
      73.2000       0.00000
      73.3000       0.00000
      73.4000       0.00000
      73.5000       0.00000
      73.6000       0.00000
      73.7000       0.00000
      73.8000       0.00000
      73.9000       0.00000
      74.0000       0.00000
      74.1000       0.00000
      74.2000       0.00000
      74.3000       0.00000
      74.4000       0.00000
      74.5000       0.00000
      74.6000       0.00000
      74.7000       0.00000
      74.8000       0.00000
      74.9000       0.00000
      75.0000       0.00000
      75.1000       0.00000
      75.2000       0.00000
      75.3000       0.00000
      75.4000       0.00000
      75.5000       0.00000
      75.6000       0.00000
      75.7000       0.00000
      75.8000       0.00000
      75.9000       0.00000
      76.0000       0.00000
      76.1000       0.00000
      76.2000       0.00000
      76.3000       0.00000
      76.4000       0.00000
      76.5000       0.00000
      76.6000       0.00000
      76.7000       0.00000
      76.8000       0.00000
      76.9000       0.00000
      77.0000       0.00000
      77.1000       0.00000
      77.2000       0.00000
      77.3000       0.00000
      77.4000       0.00000
      77.5000       0.00000
      77.6000       0.00000
      77.7000       0.00000
      77.8000       0.00000
      77.9000       0.00000
      78.0000       0.00000
      78.1000       0.00000
      78.2000       0.00000
      78.3000       0.00000
      78.4000       0.00000
      78.5000       0.00000
      78.6000       0.00000
      78.7000       0.00000
      78.8000       0.00000
      78.9000       0.00000
      79.0000       0.00000
      79.1000       0.00000
      79.2000       0.00000
      79.3000       0.00000
      79.4000       0.00000
      79.5000       0.00000
      79.6000       0.00000
      79.7000       0.00000
      79.8000       0.00000
      79.9000       0.00000
      80.0000       0.00000
      80.1000       0.00000
      80.2000       0.00000
      80.3000       0.00000
      80.4000       0.00000
      80.5000       0.00000
      80.6000       0.00000
      80.7000       0.00000
      80.8000       0.00000
      80.9000       0.00000
      81.0000       0.00000
      81.1000       0.00000
      81.2000       0.00000
      81.3000       0.00000
      81.4000       0.00000
      81.5000       0.00000
      81.6000       0.00000
      81.7000       0.00000
      81.8000       0.00000
      81.9000       0.00000
      82.0000       0.00000
      82.1000       0.00000
      82.2000       0.00000
      82.3000       0.00000
      82.4000       0.00000
      82.5000       0.00000
      82.6000       0.00000
      82.7000       0.00000
      82.8000       0.00000
      82.9000       0.00000
      83.0000       0.00000
      83.1000       0.00000
      83.2000       0.00000
      83.3000       0.00000
      83.4000       0.00000
      83.5000       0.00000
      83.6000       0.00000
      83.7000       0.00000
      83.8000       0.00000
      83.9000       0.00000
      84.0000       0.00000
      84.1000       0.00000
      84.2000       0.00000
      84.3000       0.00000
      84.4000       0.00000
      84.5000       0.00000
      84.6000       0.00000
      84.7000       0.00000
      84.8000       0.00000
      84.9000       0.00000
      85.0000       0.00000
      85.1000       0.00000
      85.2000       0.00000
      85.3000       0.00000
      85.4000       0.00000
      85.5000       0.00000
      85.6000       0.00000
      85.7000       0.00000
      85.8000       0.00000
      85.9000       0.00000
      86.0000       0.00000
      86.1000       0.00000
      86.2000       0.00000
      86.3000       0.00000
      86.4000       0.00000
      86.5000       0.00000
      86.6000       0.00000
      86.7000       0.00000
      86.8000       0.00000
      86.9000       0.00000
      87.0000       0.00000
      87.1000       0.00000
      87.2000       0.00000
      87.3000       0.00000
      87.4000       0.00000
      87.5000       0.00000
      87.6000       0.00000
      87.7000       0.00000
      87.8000       0.00000
      87.9000       0.00000
      88.0000       0.00000
      88.1000       0.00000
      88.2000       0.00000
      88.3000       0.00000
      88.4000       0.00000
      88.5000       0.00000
      88.6000       0.00000
      88.7000       0.00000
      88.8000       0.00000
      88.9000       0.00000
      89.0000       0.00000
      89.1000       0.00000
      89.2000       0.00000
      89.3000       0.00000
      89.4000       0.00000
      89.5000       0.00000
      89.6000       0.00000
      89.7000       0.00000
      89.8000       0.00000
      89.9000       0.00000
      90.0000       0.00000
      90.1000       0.00000
      90.2000       0.00000
      90.3000       0.00000
      90.4000       0.00000
      90.5000       0.00000
      90.6000       0.00000
      90.7000       0.00000
      90.8000       0.00000
      90.9000       0.00000
      91.0000       0.00000
      91.1000       0.00000
      91.2000       0.00000
      91.3000       0.00000
      91.4000       0.00000
      91.5000       0.00000
      91.6000       0.00000
      91.7000       0.00000
      91.8000       0.00000
      91.9000       0.00000
      92.0000       0.00000
      92.1000       0.00000
      92.2000       0.00000
      92.3000       0.00000
      92.4000       0.00000
      92.5000       0.00000
      92.6000       0.00000
      92.7000       0.00000
      92.8000       0.00000
      92.9000       0.00000
      93.0000       0.00000
      93.1000       0.00000
      93.2000       0.00000
      93.3000       0.00000
      93.4000       0.00000
      93.5000       0.00000
      93.6000       0.00000
      93.7000       0.00000
      93.8000       0.00000
      93.9000       0.00000
      94.0000       0.00000
      94.1000       0.00000
      94.2000       0.00000
      94.3000       0.00000
      94.4000       0.00000
      94.5000       0.00000
      94.6000       0.00000
      94.7000       0.00000
      94.8000       0.00000
      94.9000       0.00000
      95.0000       0.00000
      95.1000       0.00000
      95.2000       0.00000
      95.3000       0.00000
      95.4000       0.00000
      95.5000       0.00000
      95.6000       0.00000
      95.7000       0.00000
      95.8000       0.00000
      95.9000       0.00000
      96.0000       0.00000
      96.1000       0.00000
      96.2000       0.00000
      96.3000       0.00000
      96.4000       0.00000
      96.5000       0.00000
      96.6000       0.00000
      96.7000       0.00000
      96.8000       0.00000
      96.9000       0.00000
      97.0000       0.00000
      97.1000       0.00000
      97.2000       0.00000
      97.3000       0.00000
      97.4000       0.00000
      97.5000       0.00000
      97.6000       0.00000
      97.7000       0.00000
      97.8000       0.00000
      97.9000       0.00000
      98.0000       0.00000
      98.1000       0.00000
      98.2000       0.00000
      98.3000       0.00000
      98.4000       0.00000
      98.5000       0.00000
      98.6000       0.00000
      98.7000       0.00000
      98.8000       0.00000
      98.9000       0.00000
      99.0000       0.00000
      99.1000       0.00000
      99.2000       0.00000
      99.3000       0.00000
      99.4000       0.00000
      99.5000       0.00000
      99.6000       0.00000
      99.7000       0.00000
      99.8000       0.00000
      99.9000       0.00000
      100.000       0.00000
      100.100       0.00000
      100.200       0.00000
      100.300       0.00000
      100.400       0.00000
      100.500       0.00000
      100.600       0.00000
      100.700       0.00000
      100.800       0.00000
      100.900       0.00000
      101.000       0.00000
      101.100       0.00000
      101.200       0.00000
      101.300       0.00000
      101.400       0.00000
      101.500       0.00000
      101.600       0.00000
      101.700       0.00000
      101.800       0.00000
      101.900       0.00000
      102.000       0.00000
      102.100       0.00000
      102.200       0.00000
      102.300       0.00000
      102.400       0.00000
      102.500       0.00000
      102.600       0.00000
      102.700       0.00000
      102.800       0.00000
      102.900       0.00000
      103.000       0.00000
      103.100       0.00000
      103.200       0.00000
      103.300       0.00000
      103.400       0.00000
      103.500       0.00000
      103.600       0.00000
      103.700       0.00000
      103.800       0.00000
      103.900       0.00000
      104.000       0.00000
      104.100       0.00000
      104.200       0.00000
      104.300       0.00000
      104.400       0.00000
      104.500       0.00000
      104.600       0.00000
      104.700       0.00000
      104.800       0.00000
      104.900       0.00000
      105.000       0.00000
      105.100       0.00000
      105.200       0.00000
      105.300       0.00000
      105.400       0.00000
      105.500       0.00000
      105.600       0.00000
      105.700       0.00000
      105.800       0.00000
      105.900       0.00000
      106.000       0.00000
      106.100       0.00000
      106.200       0.00000
      106.300       0.00000
      106.400       0.00000
      106.500       0.00000
      106.600       0.00000
      106.700       0.00000
      106.800       0.00000
      106.900       0.00000
      107.000       0.00000
      107.100       0.00000
      107.200       0.00000
      107.300       0.00000
      107.400       0.00000
      107.500       0.00000
      107.600       0.00000
      107.700       0.00000
      107.800       0.00000
      107.900       0.00000
      108.000       0.00000
      108.100       0.00000
      108.200       0.00000
      108.300       0.00000
      108.400       0.00000
      108.500       0.00000
      108.600       0.00000
      108.700       0.00000
      108.800       0.00000
      108.900       0.00000
      109.000       0.00000
      109.100       0.00000
      109.200       0.00000
      109.300       0.00000
      109.400       0.00000
      109.500       0.00000
      109.600       0.00000
      109.700       0.00000
      109.800       0.00000
      109.900       0.00000
      110.000       0.00000
      110.100       0.00000
      110.200       0.00000
      110.300       0.00000
      110.400       0.00000
      110.500       0.00000
      110.600   1.13071e-41
      110.700   2.91520e-29
      110.800   8.02905e-20
      110.900   2.86474e-15
      111.000   9.94315e-13
      111.100   3.58046e-11
      111.200   1.15547e-10
      111.300   2.19705e-10
      111.400   3.46431e-10
      111.500   3.85631e-10
      111.600   4.29901e-10
      111.700   5.33351e-10
      111.800   6.71285e-10
      111.900   7.42549e-10
      112.000   8.76908e-10
      112.100   1.09057e-09
      112.200   1.27839e-09
      112.300   1.40440e-09
      112.400   1.52569e-09
      112.500   1.69294e-09
      112.600   1.92407e-09
      112.700   2.15899e-09
      112.800   2.27597e-09
      112.900   2.49970e-09
      113.000   2.74208e-09
      113.100   2.93109e-09
      113.200   3.08672e-09
      113.300   3.10859e-09
      113.400   3.37145e-09
      113.500   3.64515e-09
      113.600   3.68565e-09
      113.700   3.94522e-09
      113.800   4.13455e-09
      113.900   4.30047e-09
      114.000   4.40253e-09
      114.100   4.46851e-09
      114.200   4.88695e-09
      114.300   5.16087e-09
      114.400   5.10459e-09
      114.500   4.94213e-09
      114.600   4.94022e-09
      114.700   4.97075e-09
      114.800   5.04996e-09
      114.900   5.24268e-09
      115.000   5.42853e-09
      115.100   5.54567e-09
      115.200   5.57705e-09
      115.300   5.61374e-09
      115.400   5.64557e-09
      115.500   5.68000e-09
      115.600   5.71240e-09
      115.700   5.74161e-09
      115.800   5.77529e-09
      115.900   5.80675e-09
      116.000   5.83544e-09
      116.100   5.85254e-09
      116.200   5.86705e-09
      116.300   5.88033e-09
      116.400   5.88351e-09
      116.500   5.84292e-09
      116.600   5.80123e-09
      116.700   5.76089e-09
      116.800   5.71952e-09
      116.900   5.67315e-09
      117.000   5.63302e-09
      117.100   5.61001e-09
      117.200   5.59893e-09
      117.300   5.57623e-09
      117.400   5.55281e-09
      117.500   5.51992e-09
      117.600   5.46061e-09
      117.700   5.39383e-09
      117.800   5.32439e-09
      117.900   5.25406e-09
      118.000   5.18138e-09
      118.100   5.10663e-09
      118.200   5.03530e-09
      118.300   4.96594e-09
      118.400   4.88587e-09
      118.500   4.80794e-09
      118.600   4.73637e-09
      118.700   4.66398e-09
      118.800   4.59016e-09
      118.900   4.51911e-09
      119.000   4.44318e-09
      119.100   4.36175e-09
      119.200   4.30062e-09
      119.300   4.26771e-09
      119.400   4.24361e-09
      119.500   4.21354e-09
      119.600   4.16941e-09
      119.700   4.11813e-09
      119.800   4.05872e-09
      119.900   3.98858e-09
      120.000   3.92290e-09
      120.100   3.86087e-09
      120.200   3.81336e-09
      120.300   3.77425e-09
      120.400   3.73538e-09
      120.500   3.68582e-09
      120.600   3.62843e-09
      120.700   3.56902e-09
      120.800   3.51203e-09
      120.900   3.46979e-09
      121.000   3.44985e-09
      121.100   3.42812e-09
      121.200   3.40176e-09
      121.300   3.36811e-09
      121.400   3.32886e-09
      121.500   3.28513e-09
      121.600   3.21126e-09
      121.700   3.14174e-09
      121.800   3.06742e-09
      121.900   2.99356e-09
      122.000   2.91700e-09
      122.100   2.84466e-09
      122.200   2.77404e-09
      122.300   2.71810e-09
      122.400   2.67754e-09
      122.500   2.64058e-09
      122.600   2.60225e-09
      122.700   2.56429e-09
      122.800   2.52364e-09
      122.900   2.48536e-09
      123.000   2.46368e-09
      123.100   2.47029e-09
      123.200   2.48323e-09
      123.300   2.52491e-09
      123.400   2.57836e-09
      123.500   2.64861e-09
      123.600   2.70795e-09
      123.700   2.72960e-09
      123.800   2.72907e-09
      123.900   2.73627e-09
      124.000   2.75590e-09
      124.100   2.81748e-09
      124.200   2.97315e-09
      124.300   3.21424e-09
      124.400   3.44413e-09
      124.500   3.49908e-09
      124.600   3.47062e-09
      124.700   3.42130e-09
      124.800   3.37356e-09
      124.900   3.32639e-09
      125.000   3.27970e-09
      125.100   3.23252e-09
      125.200   3.18585e-09
      125.300   3.13980e-09
      125.400   3.09439e-09
      125.500   3.04961e-09
      125.600   2.99260e-09
      125.700   2.93363e-09
      125.800   2.88329e-09
      125.900   2.86431e-09
      126.000   2.84758e-09
      126.100   2.83095e-09
      126.200   2.81441e-09
      126.300   2.79796e-09
      126.400   2.78160e-09
      126.500   2.76532e-09
      126.600   2.74914e-09
      126.700   2.73305e-09
      126.800   2.71705e-09
      126.900   2.70113e-09
      127.000   2.68522e-09
      127.100   2.66371e-09
      127.200   2.63587e-09
      127.300   2.60614e-09
      127.400   2.57673e-09
      127.500   2.54763e-09
      127.600   2.51884e-09
      127.700   2.49036e-09
      127.800   2.46218e-09
      127.900   2.43429e-09
      128.000   2.40670e-09
      128.100   2.37938e-09
      128.200   2.35236e-09
      128.300   2.32562e-09
      128.400   2.29918e-09
      128.500   2.27300e-09
      128.600   2.24711e-09
      128.700   2.22150e-09
      128.800   2.19616e-09
      128.900   2.17109e-09
      129.000   2.14630e-09
      129.100   2.12174e-09
      129.200   2.09731e-09
      129.300   2.07314e-09
      129.400   2.04924e-09
      129.500   2.02561e-09
      129.600   2.00225e-09
      129.700   1.97914e-09
      129.800   1.95629e-09
      129.900   1.93370e-09
      130.000   1.91138e-09
      130.100   1.88930e-09
      130.200   1.86747e-09
      130.300   1.84589e-09
      130.400   1.82456e-09
      130.500   1.80346e-09
      130.600   1.78252e-09
      130.700   1.76180e-09
      130.800   1.74130e-09
      130.900   1.72105e-09
      131.000   1.70102e-09
      131.100   1.68122e-09
      131.200   1.66163e-09
      131.300   1.64222e-09
      131.400   1.62303e-09
      131.500   1.60406e-09
      131.600   1.58529e-09
      131.700   1.56673e-09
      131.800   1.54838e-09
      131.900   1.53022e-09
      132.000   1.51226e-09
      132.100   1.49450e-09
      132.200   1.47694e-09
      132.300   1.45957e-09
      132.400   1.44239e-09
      132.500   1.42540e-09
      132.600   1.40861e-09
      132.700   1.39103e-09
      132.800   1.37332e-09
      132.900   1.35579e-09
      133.000   1.33845e-09
      133.100   1.32134e-09
      133.200   1.30443e-09
      133.300   1.28772e-09
      133.400   1.27120e-09
      133.500   1.25489e-09
      133.600   1.23878e-09
      133.700   1.22287e-09
      133.800   1.20716e-09
      133.900   1.19166e-09
      134.000   1.17636e-09
      134.100   1.16124e-09
      134.200   1.14632e-09
      134.300   1.13159e-09
      134.400   1.11704e-09
      134.500   1.10268e-09
      134.600   1.08849e-09
      134.700   1.07449e-09
      134.800   1.06066e-09
      134.900   1.04702e-09
      135.000   1.03354e-09
      135.100   1.02024e-09
      135.200   1.00712e-09
      135.300   9.94154e-10
      135.400   9.81350e-10
      135.500   9.68675e-10
      135.600   9.56136e-10
      135.700   9.43751e-10
      135.800   9.31517e-10
      135.900   9.19437e-10
      136.000   9.07503e-10
      136.100   8.95715e-10
      136.200   8.84087e-10
      136.300   8.72598e-10
      136.400   8.61254e-10
      136.500   8.50051e-10
      136.600   8.38982e-10
      136.700   8.28050e-10
      136.800   8.17254e-10
      136.900   8.06594e-10
      137.000   7.96073e-10
      137.100   7.85700e-10
      137.200   7.75459e-10
      137.300   7.65357e-10
      137.400   7.55381e-10
      137.500   7.45528e-10
      137.600   7.35794e-10
      137.700   7.26170e-10
      137.800   7.16660e-10
      137.900   7.07268e-10
      138.000   6.97997e-10
      138.100   6.88843e-10
      138.200   6.79818e-10
      138.300   6.70907e-10
      138.400   6.62114e-10
      138.500   6.53432e-10
      138.600   6.44859e-10
      138.700   6.36398e-10
      138.800   6.28045e-10
      138.900   6.19797e-10
      139.000   6.11656e-10
      139.100   6.03627e-10
      139.200   5.95743e-10
      139.300   5.88000e-10
      139.400   5.80367e-10
      139.500   5.72831e-10
      139.600   5.65385e-10
      139.700   5.58035e-10
      139.800   5.50777e-10
      139.900   5.43607e-10
      140.000   5.36532e-10
      140.100   5.29545e-10
      140.200   5.22646e-10
      140.300   5.15833e-10
      140.400   5.09103e-10
      140.500   5.02455e-10
      140.600   4.95888e-10
      140.700   4.89403e-10
      140.800   4.83008e-10
      140.900   4.76692e-10
      141.000   4.70452e-10
      141.100   4.64290e-10
      141.200   4.58205e-10
      141.300   4.52193e-10
      141.400   4.46274e-10
      141.500   4.40519e-10
      141.600   4.34898e-10
      141.700   4.29346e-10
      141.800   4.23862e-10
      141.900   4.18444e-10
      142.000   4.13092e-10
      142.100   4.07965e-10
      142.200   4.03365e-10
      142.300   3.99214e-10
      142.400   3.95106e-10
      142.500   3.91035e-10
      142.600   3.87002e-10
      142.700   3.83005e-10
      142.800   3.79047e-10
      142.900   3.75127e-10
      143.000   3.71242e-10
      143.100   3.67397e-10
      143.200   3.63591e-10
      143.300   3.59820e-10
      143.400   3.56086e-10
      143.500   3.52387e-10
      143.600   3.48723e-10
      143.700   3.45122e-10
      143.800   3.41940e-10
      143.900   3.38855e-10
      144.000   3.35801e-10
      144.100   3.32771e-10
      144.200   3.29766e-10
      144.300   3.26785e-10
      144.400   3.23863e-10
      144.500   3.21448e-10
      144.600   3.19200e-10
      144.700   3.16980e-10
      144.800   3.14769e-10
      144.900   3.12569e-10
      145.000   3.10378e-10
      145.100   3.08198e-10
      145.200   3.06028e-10
      145.300   3.03869e-10
      145.400   3.01719e-10
      145.500   2.99579e-10
      145.600   2.97447e-10
      145.700   2.95324e-10
      145.800   2.93213e-10
      145.900   2.91113e-10
      146.000   2.89019e-10
      146.100   2.86904e-10
      146.200   2.84778e-10
      146.300   2.82663e-10
      146.400   2.80556e-10
      146.500   2.78463e-10
      146.600   2.76380e-10
      146.700   2.74308e-10
      146.800   2.72229e-10
      146.900   2.70138e-10
      147.000   2.68058e-10
      147.100   2.65990e-10
      147.200   2.63935e-10
      147.300   2.61891e-10
      147.400   2.59860e-10
      147.500   2.57841e-10
      147.600   2.55832e-10
      147.700   2.53838e-10
      147.800   2.51856e-10
      147.900   2.49885e-10
      148.000   2.47925e-10
      148.100   2.45979e-10
      148.200   2.44044e-10
      148.300   2.42123e-10
      148.400   2.40577e-10
      148.500   2.39322e-10
      148.600   2.38169e-10
      148.700   2.37017e-10
      148.800   2.35868e-10
      148.900   2.34724e-10
      149.000   2.33582e-10
      149.100   2.32444e-10
      149.200   2.31307e-10
      149.300   2.30172e-10
      149.400   2.29040e-10
      149.500   2.27911e-10
      149.600   2.26784e-10
      149.700   2.25660e-10
      149.800   2.24539e-10
      149.900   2.23421e-10
      150.000   2.22306e-10
      150.100   2.21194e-10
      150.200   2.20082e-10
      150.300   2.18974e-10
      150.400   2.17869e-10
      150.500   2.16766e-10
      150.600   2.15666e-10
      150.700   2.14568e-10
      150.800   2.13473e-10
      150.900   2.12380e-10
      151.000   2.11289e-10
      151.100   2.10201e-10
      151.200   2.09116e-10
      151.300   2.08033e-10
      151.400   2.06952e-10
      151.500   2.05875e-10
      151.600   2.04803e-10
      151.700   2.03736e-10
      151.800   2.02672e-10
      151.900   2.01610e-10
      152.000   2.00627e-10
      152.100   2.00428e-10
      152.200   2.00327e-10
      152.300   2.00220e-10
      152.400   2.00111e-10
      152.500   2.00001e-10
      152.600   1.99888e-10
      152.700   1.98987e-10
      152.800   1.97806e-10
      152.900   1.96627e-10
      153.000   1.95452e-10
      153.100   1.94283e-10
      153.200   1.93118e-10
      153.300   1.92209e-10
      153.400   1.91544e-10
      153.500   1.90907e-10
      153.600   1.90271e-10
      153.700   1.89636e-10
      153.800   1.89000e-10
      153.900   1.88365e-10
      154.000   1.87753e-10
      154.100   1.87191e-10
      154.200   1.86644e-10
      154.300   1.86098e-10
      154.400   1.85552e-10
      154.500   1.85004e-10
      154.600   1.84457e-10
      154.700   1.83910e-10
      154.800   1.83363e-10
      154.900   1.82815e-10
      155.000   1.82267e-10
      155.100   1.81719e-10
      155.200   1.81169e-10
      155.300   1.80619e-10
      155.400   1.80069e-10
      155.500   1.79519e-10
      155.600   1.78967e-10
      155.700   1.78415e-10
      155.800   1.77862e-10
      155.900   1.77309e-10
      156.000   1.76755e-10
      156.100   1.76200e-10
      156.200   1.75644e-10
      156.300   1.75088e-10
      156.400   1.74531e-10
      156.500   1.73966e-10
      156.600   1.73361e-10
      156.700   1.72755e-10
      156.800   1.72149e-10
      156.900   1.71541e-10
      157.000   1.70936e-10
      157.100   1.70272e-10
      157.200   1.69218e-10
      157.300   1.67749e-10
      157.400   1.66290e-10
      157.500   1.64841e-10
      157.600   1.63403e-10
      157.700   1.61974e-10
      157.800   1.60555e-10
      157.900   1.60022e-10
      158.000   1.59568e-10
      158.100   1.59114e-10
      158.200   1.58658e-10
      158.300   1.58202e-10
      158.400   1.57746e-10
      158.500   1.57290e-10
      158.600   1.56832e-10
      158.700   1.56373e-10
      158.800   1.55917e-10
      158.900   1.55458e-10
      159.000   1.54999e-10
      159.100   1.54513e-10
      159.200   1.53715e-10
      159.300   1.52407e-10
      159.400   1.51109e-10
      159.500   1.49820e-10
      159.600   1.48540e-10
      159.700   1.47270e-10
      159.800   1.46008e-10
      159.900   1.45378e-10
      160.000   1.45175e-10
      160.100   1.44984e-10
      160.200   1.44791e-10
      160.300   1.44598e-10
      160.400   1.44405e-10
      160.500   1.44138e-10
      160.600   1.43461e-10
      160.700   1.42484e-10
      160.800   1.41512e-10
      160.900   1.40544e-10
      161.000   1.39582e-10
      161.100   1.38624e-10
      161.200   1.37672e-10
      161.300   1.36725e-10
      161.400   1.35782e-10
      161.500   1.34845e-10
      161.600   1.33911e-10
      161.700   1.32981e-10
      161.800   1.32056e-10
      161.900   1.31154e-10
      162.000   1.30409e-10
      162.100   1.29760e-10
      162.200   1.29112e-10
      162.300   1.28466e-10
      162.400   1.27822e-10
      162.500   1.27179e-10
      162.600   1.26538e-10
      162.700   1.25898e-10
      162.800   1.25259e-10
      162.900   1.24623e-10
      163.000   1.23988e-10
      163.100   1.23355e-10
      163.200   1.22723e-10
      163.300   1.22093e-10
      163.400   1.21464e-10
      163.500   1.20838e-10
      163.600   1.20213e-10
      163.700   1.19589e-10
      163.800   1.18969e-10
      163.900   1.18349e-10
      164.000   1.17732e-10
      164.100   1.16978e-10
      164.200   1.15853e-10
      164.300   1.14743e-10
      164.400   1.13643e-10
      164.500   1.12553e-10
      164.600   1.11473e-10
      164.700   1.10400e-10
      164.800   1.09467e-10
      164.900   1.08822e-10
      165.000   1.08295e-10
      165.100   1.07769e-10
      165.200   1.07245e-10
      165.300   1.06723e-10
      165.400   1.06203e-10
      165.500   1.05684e-10
      165.600   1.04807e-10
      165.700   1.03779e-10
      165.800   1.02749e-10
      165.900   1.01728e-10
      166.000   1.00718e-10
      166.100   9.97161e-11
      166.200   9.87238e-11
      166.300   9.77406e-11
      166.400   9.67662e-11
      166.500   9.58003e-11
      166.600   9.48433e-11
      166.700   9.38951e-11
      166.800   9.29544e-11
      166.900   9.20226e-11
      167.000   9.11008e-11
      167.100   9.01858e-11
      167.200   8.92790e-11
      167.300   8.83805e-11
      167.400   8.74903e-11
      167.500   8.66078e-11
      167.600   8.57333e-11
      167.700   8.48670e-11
      167.800   8.40085e-11
      167.900   8.31575e-11
      168.000   8.23142e-11
      168.100   8.14784e-11
      168.200   8.06502e-11
      168.300   7.98293e-11
      168.400   7.90160e-11
      168.500   7.82171e-11
      168.600   7.75952e-11
      168.700   7.70674e-11
      168.800   7.65426e-11
      168.900   7.60206e-11
      169.000   7.55017e-11
      169.100   7.49848e-11
      169.200   7.44713e-11
      169.300   7.39602e-11
      169.400   7.34518e-11
      169.500   7.29420e-11
      169.600   7.24176e-11
      169.700   7.18769e-11
      169.800   7.13336e-11
      169.900   7.07928e-11
      170.000   7.02547e-11
      170.100   6.94816e-11
      170.200   6.83678e-11
      170.300   8.90556e-11
      170.400   1.91209e-10
      170.500   3.62147e-10
      170.600   5.32724e-10
      170.700   6.68513e-10
      170.800   7.30721e-10
      170.900   7.33812e-10
      171.000   7.23779e-10
      171.100   7.14137e-10
      171.200   7.04580e-10
      171.300   6.95105e-10
      171.400   6.85715e-10
      171.500   6.76410e-10
      171.600   6.67191e-10
      171.700   6.58068e-10
      171.800   6.49042e-10
      171.900   6.40117e-10
      172.000   6.31304e-10
      172.100   6.22601e-10
      172.200   6.14018e-10
      172.300   6.05532e-10
      172.400   5.97043e-10
      172.500   5.88652e-10
      172.600   5.80386e-10
      172.700   5.72244e-10
      172.800   5.64221e-10
      172.900   5.56315e-10
      173.000   5.48534e-10
      173.100   5.40870e-10
      173.200   5.33319e-10
      173.300   5.25885e-10
      173.400   5.18559e-10
      173.500   5.11347e-10
      173.600   5.04245e-10
      173.700   4.97247e-10
      173.800   4.90357e-10
      173.900   4.83570e-10
      174.000   4.76880e-10
      174.100   4.70290e-10
      174.200   4.63797e-10
      174.300   4.57395e-10
      174.400   4.51086e-10
      174.500   4.44865e-10
      174.600   4.38729e-10
      174.700   4.32681e-10
      174.800   4.26717e-10
      174.900   4.20833e-10
      175.000   4.15026e-10
      175.100   4.09295e-10
      175.200   4.03659e-10
      175.300   3.98093e-10
      175.400   3.92600e-10
      175.500   3.87185e-10
      175.600   3.81839e-10
      175.700   3.76565e-10
      175.800   3.71361e-10
      175.900   3.66226e-10
      176.000   3.61160e-10
      176.100   3.56163e-10
      176.200   3.51233e-10
      176.300   3.46368e-10
      176.400   3.41570e-10
      176.500   3.36824e-10
      176.600   3.30246e-10
      176.700   3.22901e-10
      176.800   3.15714e-10
      176.900   3.08684e-10
      177.000   3.01805e-10
      177.100   2.95074e-10
      177.200   2.88490e-10
      177.300   2.82049e-10
      177.400   2.75744e-10
      177.500   2.69574e-10
      177.600   2.63539e-10
      177.700   2.57636e-10
      177.800   2.51859e-10
      177.900   2.46204e-10
      178.000   2.40688e-10
      178.100   2.35294e-10
      178.200   2.30013e-10
      178.300   2.24847e-10
      178.400   2.19794e-10
      178.500   2.14850e-10
      178.600   2.10107e-10
      178.700   2.05975e-10
      178.800   2.02725e-10
      178.900   1.99523e-10
      179.000   1.96369e-10
      179.100   1.93262e-10
      179.200   1.90203e-10
      179.300   1.87191e-10
      179.400   1.84224e-10
      179.500   1.81304e-10
      179.600   1.78430e-10
      179.700   1.75601e-10
      179.800   1.72816e-10
      179.900   1.70075e-10
      180.000   1.67376e-10
      180.100   1.64721e-10
      180.200   1.62109e-10
      180.300   1.59538e-10
      180.400   1.57009e-10
      180.500   1.54521e-10
      180.600   1.52073e-10
      180.700   1.49664e-10
      180.800   1.47295e-10
      180.900   1.44964e-10
      181.000   1.42670e-10
      181.100   1.40413e-10
      181.200   1.38194e-10
      181.300   1.36010e-10
      181.400   1.33863e-10
      181.500   1.31750e-10
      181.600   1.29671e-10
      181.700   1.27625e-10
      181.800   1.25613e-10
      181.900   1.23633e-10
      182.000   1.21686e-10
      182.100   1.19768e-10
      182.200   1.17897e-10
      182.300   1.16185e-10
      182.400   1.14507e-10
      182.500   1.12854e-10
      182.600   1.11224e-10
      182.700   1.09618e-10
      182.800   1.08035e-10
      182.900   1.06475e-10
      183.000   1.04938e-10
      183.100   1.03423e-10
      183.200   1.01929e-10
      183.300   1.00456e-10
      183.400   9.90048e-11
      183.500   9.75742e-11
      183.600   9.61639e-11
      183.700   9.47736e-11
      183.800   9.34045e-11
      183.900   9.20554e-11
      184.000   9.07254e-11
      184.100   8.94150e-11
      184.200   8.81233e-11
      184.300   8.68501e-11
      184.400   8.55957e-11
      184.500   8.43592e-11
      184.600   8.31399e-11
      184.700   8.19383e-11
      184.800   8.07541e-11
      184.900   7.95866e-11
      185.000   7.84358e-11
      185.100   7.73131e-11
      185.200   7.62654e-11
      185.300   7.53090e-11
      185.400   7.43641e-11
      185.500   7.34307e-11
      185.600   7.25087e-11
      185.700   7.15980e-11
      185.800   7.06992e-11
      185.900   6.98112e-11
      186.000   6.89340e-11
      186.100   6.80673e-11
      186.200   6.72109e-11
      186.300   6.63645e-11
      186.400   6.55285e-11
      186.500   6.47025e-11
      186.600   6.38860e-11
      186.700   6.30788e-11
      186.800   6.22810e-11
      186.900   6.14927e-11
      187.000   6.07136e-11
      187.100   5.99431e-11
      187.200   5.91822e-11
      187.300   5.84306e-11
      187.400   5.76876e-11
      187.500   5.69534e-11
      187.600   5.62278e-11
      187.700   5.55107e-11
      187.800   5.48022e-11
      187.900   5.41020e-11
      188.000   5.34104e-11
      188.100   5.26960e-11
      188.200   5.18822e-11
      188.300   5.09442e-11
      188.400   5.00226e-11
      188.500   4.91172e-11
      188.600   4.82281e-11
      188.700   4.73550e-11
      188.800   4.64977e-11
      188.900   4.56556e-11
      189.000   4.48283e-11
      189.100   4.40154e-11
      189.200   4.32170e-11
      189.300   4.24329e-11
      189.400   4.16630e-11
      189.500   4.09105e-11
      189.600   4.02246e-11
      189.700   3.97552e-11
      189.800   3.92950e-11
      189.900   3.88404e-11
      190.000   3.83915e-11
      190.100   3.79480e-11
      190.200   3.75097e-11
      190.300   3.70767e-11
      190.400   3.66486e-11
      190.500   3.62257e-11
      190.600   3.58080e-11
      190.700   3.53950e-11
      190.800   3.49870e-11
      190.900   3.45839e-11
      191.000   3.41858e-11
      191.100   3.37926e-11
      191.200   3.34037e-11
      191.300   3.30196e-11
      191.400   3.26400e-11
      191.500   3.22648e-11
      191.600   3.18941e-11
      191.700   3.15276e-11
      191.800   3.11653e-11
      191.900   3.08071e-11
      192.000   3.04534e-11
      192.100   3.01038e-11
      192.200   2.97587e-11
      192.300   2.94173e-11
      192.400   2.90799e-11
      192.500   2.87265e-11
      192.600   2.83127e-11
      192.700   2.78531e-11
      192.800   2.74008e-11
      192.900   2.69556e-11
      193.000   2.65176e-11
      193.100   2.60869e-11
      193.200   2.56635e-11
      193.300   2.52470e-11
      193.400   2.48374e-11
      193.500   2.44344e-11
      193.600   2.40377e-11
      193.700   2.36475e-11
      193.800   2.32637e-11
      193.900   2.28863e-11
      194.000   2.25214e-11
      194.100   2.22917e-11
      194.200   2.21083e-11
      194.300   2.19296e-11
      194.400   2.17524e-11
      194.500   2.15769e-11
      194.600   2.14028e-11
      194.700   2.12302e-11
      194.800   2.10591e-11
      194.900   2.08893e-11
      195.000   2.07210e-11
      195.100   2.05543e-11
      195.200   2.03888e-11
      195.300   2.02247e-11
      195.400   2.00619e-11
      195.500   1.98979e-11
      195.600   1.96737e-11
      195.700   1.93489e-11
      195.800   1.90292e-11
      195.900   1.87146e-11
      196.000   1.84017e-11
      196.100   1.80939e-11
      196.200   1.77910e-11
      196.300   1.74930e-11
      196.400   1.71997e-11
      196.500   1.69109e-11
      196.600   1.66269e-11
      196.700   1.63473e-11
      196.800   1.60724e-11
      196.900   1.58021e-11
      197.000   1.55362e-11
      197.100   1.52744e-11
      197.200   1.50169e-11
      197.300   1.47633e-11
      197.400   1.45137e-11
      197.500   1.42681e-11
      197.600   1.40264e-11
      197.700   1.37890e-11
      197.800   1.35555e-11
      197.900   1.33256e-11
      198.000   1.30994e-11
      198.100   1.28768e-11
      198.200   1.26578e-11
      198.300   1.24423e-11
      198.400   1.22303e-11
      198.500   1.20221e-11
      198.600   1.18173e-11
      198.700   1.16334e-11
      198.800   1.14770e-11
      198.900   1.13347e-11
      199.000   1.11940e-11
      199.100   1.10549e-11
      199.200   1.09176e-11
      199.300   1.07820e-11
      199.400   1.06482e-11
      199.500   1.05159e-11
      199.600   1.03852e-11
      199.700   1.02561e-11
      199.800   1.01286e-11
      199.900   1.00026e-11
      200.000   9.87810e-12
      200.100   9.75577e-12
      200.200   9.63448e-12
      200.300   9.51477e-12
      200.400   9.39649e-12
      200.500   9.27963e-12
      200.600   9.16428e-12
      200.700   9.05035e-12
      200.800   8.93776e-12
      200.900   8.82666e-12
      201.000   8.71692e-12
      201.100   8.60860e-12
      201.200   8.50163e-12
      201.300   8.39597e-12
      201.400   8.29167e-12
      201.500   8.18863e-12
      201.600   8.08685e-12
      201.700   7.98638e-12
      201.800   7.88713e-12
      201.900   7.78679e-12
      202.000   7.65001e-12
      202.100   7.49772e-12
      202.200   7.34848e-12
      202.300   7.20280e-12
      202.400   7.06121e-12
      202.500   6.92275e-12
      202.600   6.78689e-12
      202.700   6.65375e-12
      202.800   6.52323e-12
      202.900   6.39534e-12
      203.000   6.26997e-12
      203.100   6.14712e-12
      203.200   6.02659e-12
      203.300   5.90838e-12
      203.400   5.79250e-12
      203.500   5.67890e-12
      203.600   5.57125e-12
      203.700   5.47609e-12
      203.800   5.38396e-12
      203.900   5.29346e-12
      204.000   5.20449e-12
      204.100   5.11703e-12
      204.200   5.03110e-12
      204.300   4.94660e-12
      204.400   4.86356e-12
      204.500   4.78194e-12
      204.600   4.70170e-12
      204.700   4.62282e-12
      204.800   4.54537e-12
      204.900   4.46926e-12
      205.000   4.39444e-12
      205.100   4.32092e-12
      205.200   4.24862e-12
      205.300   4.17757e-12
      205.400   4.10773e-12
      205.500   4.03906e-12
      205.600   3.97155e-12
      205.700   3.90456e-12
      205.800   3.83854e-12
      205.900   3.77367e-12
      206.000   3.70996e-12
      206.100   3.64730e-12
      206.200   3.58568e-12
      206.300   3.52512e-12
      206.400   3.46560e-12
      206.500   3.40705e-12
      206.600   3.34948e-12
      206.700   3.29289e-12
      206.800   3.23722e-12
      206.900   3.18247e-12
      207.000   3.12865e-12
      207.100   3.07575e-12
      207.200   3.02375e-12
      207.300   2.97259e-12
      207.400   2.92226e-12
      207.500   2.87277e-12
      207.600   2.82410e-12
      207.700   2.77621e-12
      207.800   2.72910e-12
      207.900   2.68277e-12
      208.000   2.63720e-12
      208.100   2.59238e-12
      208.200   2.54828e-12
      208.300   2.50492e-12
      208.400   2.46228e-12
      208.500   2.42036e-12
      208.600   2.37910e-12
      208.700   2.33851e-12
      208.800   2.29859e-12
      208.900   2.25799e-12
      209.000   2.21239e-12
      209.100   2.16389e-12
      209.200   2.11642e-12
      209.300   2.06993e-12
      209.400   2.02445e-12
      209.500   1.97993e-12
      209.600   1.93635e-12
      209.700   1.89372e-12
      209.800   1.85205e-12
      209.900   1.81124e-12
      210.000   1.77132e-12
      210.100   1.73224e-12
      210.200   1.69401e-12
      210.300   1.65659e-12
      210.400   1.61998e-12
      210.500   1.58415e-12
      210.600   1.54909e-12
      210.700   1.51479e-12
      210.800   1.48123e-12
      210.900   1.44838e-12
      211.000   1.41625e-12
      211.100   1.38482e-12
      211.200   1.35406e-12
      211.300   1.32400e-12
      211.400   1.29461e-12
      211.500   1.26583e-12
      211.600   1.23769e-12
      211.700   1.21016e-12
      211.800   1.18322e-12
      211.900   1.15686e-12
      212.000   1.13109e-12
      212.100   1.10588e-12
      212.200   1.08120e-12
      212.300   1.05610e-12
      212.400   1.02871e-12
      212.500   1.00090e-12
      212.600   9.73826e-13
      212.700   9.47466e-13
      212.800   9.21801e-13
      212.900   8.96825e-13
      213.000   8.72505e-13
      213.100   8.48855e-13
      213.200   8.25830e-13
      213.300   8.03418e-13
      213.400   7.81597e-13
      213.500   7.60357e-13
      213.600   7.39679e-13
      213.700   7.19557e-13
      213.800   6.99965e-13
      213.900   6.80907e-13
      214.000   6.62352e-13
      214.100   6.44589e-13
      214.200   6.30864e-13
      214.300   6.19769e-13
      214.400   6.08869e-13
      214.500   5.98158e-13
      214.600   5.87638e-13
      214.700   5.77303e-13
      214.800   5.67150e-13
      214.900   5.57178e-13
      215.000   5.47379e-13
      215.100   5.37754e-13
      215.200   5.28304e-13
      215.300   5.19026e-13
      215.400   5.09909e-13
      215.500   5.00954e-13
      215.600   4.92165e-13
      215.700   4.83526e-13
      215.800   4.75039e-13
      215.900   4.66708e-13
      216.000   4.57813e-13
      216.100   4.47386e-13
      216.200   4.36559e-13
      216.300   4.25994e-13
      216.400   4.15685e-13
      216.500   4.05621e-13
      216.600   3.95804e-13
      216.700   3.86226e-13
      216.800   3.76878e-13
      216.900   3.67759e-13
      217.000   3.58859e-13
      217.100   3.50172e-13
      217.200   3.41698e-13
      217.300   3.33429e-13
      217.400   3.25359e-13
      217.500   3.17487e-13
      217.600   3.09801e-13
      217.700   3.02299e-13
      217.800   2.94982e-13
      217.900   2.87816e-13
      218.000   2.80130e-13
      218.100   2.72646e-13
      218.200   2.65361e-13
      218.300   2.58273e-13
      218.400   2.51378e-13
      218.500   2.44662e-13
      218.600   2.38127e-13
      218.700   2.31762e-13
      218.800   2.25565e-13
      218.900   2.19535e-13
      219.000   2.13660e-13
      219.100   2.07939e-13
      219.200   2.02372e-13
      219.300   1.96951e-13
      219.400   1.91671e-13
      219.500   1.86531e-13
      219.600   1.81527e-13
      219.700   1.76654e-13
      219.800   1.71911e-13
      219.900   1.67292e-13
      220.000   1.62794e-13
      220.100   1.58414e-13
      220.200   1.54150e-13
      220.300   1.50000e-13
      220.400   1.45957e-13
      220.500   1.42023e-13
      220.600   1.38193e-13
      220.700   1.34462e-13
      220.800   1.30830e-13
      220.900   1.27296e-13
      221.000   1.23853e-13
      221.100   1.20501e-13
      221.200   1.17240e-13
      221.300   1.14064e-13
      221.400   1.10972e-13
      221.500   1.07963e-13
      221.600   1.05033e-13
      221.700   1.02180e-13
      221.800   9.95874e-14
      221.900   9.75437e-14
      222.000   9.56764e-14
      222.100   9.38433e-14
      222.200   9.20449e-14
      222.300   9.02799e-14
      222.400   8.85482e-14
      222.500   8.68486e-14
      222.600   8.51814e-14
      222.700   8.35450e-14
      222.800   8.19389e-14
      222.900   8.03633e-14
      223.000   7.88171e-14
      223.100   7.72996e-14
      223.200   7.58110e-14
      223.300   7.43500e-14
      223.400   7.29169e-14
      223.500   7.15101e-14
      223.600   7.01305e-14
      223.700   6.87766e-14
      223.800   6.74235e-14
      223.900   6.59265e-14
      224.000   6.44372e-14
      224.100   6.29808e-14
      224.200   6.15566e-14
      224.300   6.01640e-14
      224.400   5.88016e-14
      224.500   5.74700e-14
      224.600   5.61672e-14
      224.700   5.48940e-14
      224.800   5.36484e-14
      224.900   5.24302e-14
      225.000   5.12393e-14
      225.100   5.00745e-14
      225.200   4.89354e-14
      225.300   4.78223e-14
      225.400   4.67331e-14
      225.500   4.56683e-14
      225.600   4.46271e-14
      225.700   4.36094e-14
      225.800   4.26139e-14
      225.900   4.18748e-14
      226.000   4.12435e-14
      226.100   4.06314e-14
      226.200   4.00282e-14
      226.300   3.94363e-14
      226.400   3.88547e-14
      226.500   3.82806e-14
      226.600   3.77138e-14
      226.700   3.71548e-14
      226.800   3.66034e-14
      226.900   3.60599e-14
      227.000   3.55240e-14
      227.100   3.49959e-14
      227.200   3.44757e-14
      227.300   3.39630e-14
      227.400   3.34579e-14
      227.500   3.29601e-14
      227.600   3.24696e-14
      227.700   3.19865e-14
      227.800   3.15105e-14
      227.900   3.10030e-14
      228.000   3.04038e-14
      228.100   2.97594e-14
      228.200   2.91283e-14
      228.300   2.85107e-14
      228.400   2.79063e-14
      228.500   2.73143e-14
      228.600   2.67350e-14
      228.700   2.61680e-14
      228.800   2.56128e-14
      228.900   2.50696e-14
      229.000   2.45378e-14
      229.100   2.40173e-14
      229.200   2.35078e-14
      229.300   2.30091e-14
      229.400   2.25211e-14
      229.500   2.20434e-14
      229.600   2.15758e-14
      229.700   2.11182e-14
      229.800   2.06704e-14
      229.900   2.02321e-14
      230.000   1.97984e-14
      230.100   1.93376e-14
      230.200   1.88657e-14
      230.300   1.84055e-14
      230.400   1.79564e-14
      230.500   1.75183e-14
      230.600   1.70911e-14
      230.700   1.66742e-14
      230.800   1.62675e-14
      230.900   1.58708e-14
      231.000   1.54836e-14
      231.100   1.51059e-14
      231.200   1.47374e-14
      231.300   1.43780e-14
      231.400   1.40274e-14
      231.500   1.36851e-14
      231.600   1.33511e-14
      231.700   1.30254e-14
      231.800   1.27076e-14
      231.900   1.23975e-14
      232.000   1.20949e-14
      232.100   1.17996e-14
      232.200   1.15499e-14
      232.300   1.13592e-14
      232.400   1.11861e-14
      232.500   1.10156e-14
      232.600   1.08477e-14
      232.700   1.06825e-14
      232.800   1.05198e-14
      232.900   1.03596e-14
      233.000   1.02016e-14
      233.100   1.00461e-14
      233.200   9.89305e-15
      233.300   9.74233e-15
      233.400   9.59396e-15
      233.500   9.44784e-15
      233.600   9.30403e-15
      233.700   9.16241e-15
      233.800   9.01933e-15
      233.900   8.87791e-15
      234.000   8.73872e-15
      234.100   8.60172e-15
      234.200   8.46693e-15
      234.300   8.33421e-15
      234.400   8.20357e-15
      234.500   8.07499e-15
      234.600   7.94840e-15
      234.700   7.82384e-15
      234.800   7.70124e-15
      234.900   7.58054e-15
      235.000   7.46170e-15
      235.100   7.34473e-15
      235.200   7.22960e-15
      235.300   7.11629e-15
      235.400   7.00469e-15
      235.500   6.89489e-15
      235.600   6.78682e-15
      235.700   6.68038e-15
      235.800   6.57569e-15
      235.900   6.47262e-15
      236.000   6.37120e-15
      236.100   6.27131e-15
      236.200   6.17298e-15
      236.300   6.07618e-15
      236.400   5.98092e-15
      236.500   5.88711e-15
      236.600   5.79883e-15
      236.700   5.72081e-15
      236.800   5.64947e-15
      236.900   5.57900e-15
      237.000   5.50938e-15
      237.100   5.44062e-15
      237.200   5.37270e-15
      237.300   5.30563e-15
      237.400   5.23936e-15
      237.500   5.17391e-15
      237.600   5.10915e-15
      237.700   5.04526e-15
      237.800   4.98216e-15
      237.900   4.91979e-15
      238.000   4.85819e-15
      238.100   4.79733e-15
      238.200   4.73721e-15
      238.300   4.67782e-15
      238.400   4.61912e-15
      238.500   4.56114e-15
      238.600   4.50386e-15
      238.700   4.44728e-15
      238.800   4.39137e-15
      238.900   4.33950e-15
      239.000   4.30005e-15
      239.100   4.26227e-15
      239.200   4.22482e-15
      239.300   4.18765e-15
      239.400   4.15078e-15
      239.500   4.11421e-15
      239.600   4.07791e-15
      239.700   4.04190e-15
      239.800   4.00620e-15
      239.900   3.97077e-15
      240.000   3.93560e-15
      240.100   3.90071e-15
      240.200   3.86610e-15
      240.300   3.83177e-15
      240.400   3.79770e-15
      240.500   3.76391e-15
      240.600   3.73040e-15
      240.700   3.69712e-15
      240.800   3.66411e-15
      240.900   3.63138e-15
      241.000   3.59890e-15
      241.100   3.56669e-15
      241.200   3.53474e-15
      241.300   3.50303e-15
      241.400   3.47159e-15
      241.500   3.44041e-15
      241.600   3.40948e-15
      241.700   3.37880e-15
      241.800   3.34836e-15
      241.900   3.31817e-15
      242.000   3.28824e-15
      242.100   3.25856e-15
      242.200   3.22914e-15
      242.300   3.19998e-15
      242.400   3.17105e-15
      242.500   3.14238e-15
      242.600   3.11394e-15
      242.700   3.08574e-15
      242.800   3.05779e-15
      242.900   3.03009e-15
      243.000   3.00262e-15
      243.100   2.97538e-15
      243.200   2.94839e-15
      243.300   2.92162e-15
      243.400   2.89511e-15
      243.500   2.86882e-15
      243.600   2.84279e-15
      243.700   2.81697e-15
      243.800   2.79140e-15
      243.900   2.76605e-15
      244.000   2.74092e-15
      244.100   2.71603e-15
      244.200   2.69137e-15
      244.300   2.66693e-15
      244.400   2.64270e-15
      244.500   2.61871e-15
      244.600   2.59492e-15
      244.700   2.57137e-15
      244.800   2.54805e-15
      244.900   2.52493e-15
      245.000   2.50202e-15
      245.100   2.47933e-15
      245.200   2.45685e-15
      245.300   2.43458e-15
      245.400   2.41251e-15
      245.500   2.39065e-15
      245.600   2.36900e-15
      245.700   2.34755e-15
      245.800   2.32629e-15
      245.900   2.30525e-15
      246.000   2.28441e-15
      246.100   2.26377e-15
      246.200   2.24331e-15
      246.300   2.22305e-15
      246.400   2.20300e-15
      246.500   2.18312e-15
      246.600   2.16342e-15
      246.700   2.14392e-15
      246.800   2.12460e-15
      246.900   2.10546e-15
      247.000   2.08651e-15
      247.100   2.06773e-15
      247.200   2.04915e-15
      247.300   2.03073e-15
      247.400   2.01249e-15
      247.500   1.99443e-15
      247.600   1.97652e-15
      247.700   1.95879e-15
      247.800   1.94124e-15
      247.900   1.92383e-15
      248.000   1.90661e-15
      248.100   1.88956e-15
      248.200   1.87267e-15
      248.300   1.85594e-15
      248.400   1.83935e-15
      248.500   1.81853e-15
      248.600   1.79065e-15
      248.700   1.75854e-15
      248.800   1.72699e-15
      248.900   1.69602e-15
      249.000   1.66560e-15
      249.100   1.63577e-15
      249.200   1.60649e-15
      249.300   1.57773e-15
      249.400   1.54949e-15
      249.500   1.52175e-15
      249.600   1.49450e-15
      249.700   1.46774e-15
      249.800   1.44146e-15
      249.900   1.41564e-15
      250.000   1.39030e-15
      250.100   1.36544e-15
      250.200   1.34102e-15
      250.300   1.31706e-15
      250.400   1.29353e-15
      250.500   1.27041e-15
      250.600   1.24772e-15
      250.700   1.22542e-15
      250.800   1.20353e-15
      250.900   1.18203e-15
      251.000   1.16091e-15
      251.100   1.14017e-15
      251.200   1.11981e-15
      251.300   1.09983e-15
      251.400   1.08022e-15
      251.500   1.06094e-15
      251.600   1.03473e-15
      251.700   9.95206e-16
      251.800   9.55152e-16
      251.900   9.16672e-16
      252.000   8.79699e-16
      252.100   8.44203e-16
      252.200   8.10091e-16
      252.300   7.77369e-16
      252.400   7.45979e-16
      252.500   7.15843e-16
      252.600   6.88424e-16
      252.700   6.71151e-16
      252.800   6.63623e-16
      252.900   6.56183e-16
      253.000   6.48826e-16
      253.100   6.41552e-16
      253.200   6.34361e-16
      253.300   6.27394e-16
      253.400   6.20569e-16
      253.500   6.13826e-16
      253.600   6.07157e-16
      253.700   6.00452e-16
      253.800   5.93304e-16
      253.900   5.86141e-16
      254.000   5.79062e-16
      254.100   5.72066e-16
      254.200   5.65154e-16
      254.300   5.58324e-16
      254.400   5.51576e-16
      254.500   5.44910e-16
      254.600   5.38318e-16
      254.700   5.31809e-16
      254.800   5.25380e-16
      254.900   5.19026e-16
      255.000   5.12748e-16
      255.100   5.06538e-16
      255.200   5.00404e-16
      255.300   4.94342e-16
      255.400   4.88351e-16
      255.500   4.82431e-16
      255.600   4.76579e-16
      255.700   4.70797e-16
      255.800   4.65080e-16
      255.900   4.59430e-16
      256.000   4.53845e-16
      256.100   4.48329e-16
      256.200   4.42875e-16
      256.300   4.37485e-16
      256.400   4.32163e-16
      256.500   4.26898e-16
      256.600   4.21695e-16
      256.700   4.16552e-16
      256.800   4.11469e-16
      256.900   4.05513e-16
      257.000   3.98147e-16
      257.100   3.90447e-16
      257.200   3.82895e-16
      257.300   3.75483e-16
      257.400   3.68264e-16
      257.500   3.61200e-16
      257.600   3.54275e-16
      257.700   3.47480e-16
      257.800   3.40809e-16
      257.900   3.34265e-16
      258.000   3.27843e-16
      258.100   3.21540e-16
      258.200   3.15355e-16
      258.300   3.09288e-16
      258.400   3.03330e-16
      258.500   2.97485e-16
      258.600   2.91750e-16
      258.700   2.86122e-16
      258.800   2.80598e-16
      258.900   2.75182e-16
      259.000   2.69864e-16
      259.100   2.64648e-16
      259.200   2.59530e-16
      259.300   2.54513e-16
      259.400   2.49588e-16
      259.500   2.44756e-16
      259.600   2.40017e-16
      259.700   2.35367e-16
      259.800   2.30804e-16
      259.900   2.26326e-16
      260.000   2.21934e-16
      260.100   2.17345e-16
      260.200   2.12499e-16
      260.300   2.07696e-16
      260.400   2.03000e-16
      260.500   1.98409e-16
      260.600   1.93917e-16
      260.700   1.89526e-16
      260.800   1.85234e-16
      260.900   1.81035e-16
      261.000   1.76932e-16
      261.100   1.72920e-16
      261.200   1.68978e-16
      261.300   1.65123e-16
      261.400   1.61354e-16
      261.500   1.57674e-16
      261.600   1.54089e-16
      261.700   1.50586e-16
      261.800   1.47162e-16
      261.900   1.43813e-16
      262.000   1.40539e-16
      262.100   1.37339e-16
      262.200   1.34212e-16
      262.300   1.31154e-16
      262.400   1.28165e-16
      262.500   1.25242e-16
      262.600   1.22384e-16
      262.700   1.19592e-16
      262.800   1.16863e-16
      262.900   1.14194e-16
      263.000   1.11587e-16
      263.100   1.09038e-16
      263.200   1.06548e-16
      263.300   1.04114e-16
      263.400   1.01735e-16
      263.500   9.94100e-17
      263.600   9.71378e-17
      263.700   9.49166e-17
      263.800   9.27452e-17
      263.900   9.06247e-17
      264.000   8.85512e-17
      264.100   8.65241e-17
      264.200   8.45427e-17
      264.300   8.26078e-17
      264.400   8.07164e-17
      264.500   7.88674e-17
      264.600   7.70601e-17
      264.700   7.52946e-17
      264.800   7.35683e-17
      264.900   7.18824e-17
      265.000   7.02347e-17
      265.100   6.86236e-17
      265.200   6.70497e-17
      265.300   6.55116e-17
      265.400   6.39899e-17
      265.500   6.24960e-17
      265.600   6.10372e-17
      265.700   5.96110e-17
      265.800   5.82202e-17
      265.900   5.68610e-17
      266.000   5.55344e-17
      266.100   5.42383e-17
      266.200   5.29726e-17
      266.300   5.17358e-17
      266.400   5.05284e-17
      266.500   4.93484e-17
      266.600   4.81962e-17
      266.700   4.70707e-17
      266.800   4.59720e-17
      266.900   4.48985e-17
      267.000   4.38498e-17
      267.100   4.28255e-17
      267.200   4.18257e-17
      267.300   4.08491e-17
      267.400   3.98948e-17
      267.500   3.89629e-17
      267.600   3.80528e-17
      267.700   3.71640e-17
      267.800   3.62957e-17
      267.900   3.54479e-17
      268.000   3.46200e-17
      268.100   3.38112e-17
      268.200   3.30216e-17
      268.300   3.22506e-17
      268.400   3.14971e-17
      268.500   3.07614e-17
      268.600   3.00428e-17
      268.700   2.93412e-17
      268.800   2.86559e-17
      268.900   2.79866e-17
      269.000   2.73332e-17
      269.100   2.66948e-17
      269.200   2.60716e-17
      269.300   2.54628e-17
      269.400   2.48679e-17
      269.500   2.42873e-17
      269.600   2.37202e-17
      269.700   2.30892e-17
      269.800   2.24562e-17
      269.900   2.18400e-17
      270.000   2.12406e-17
      270.100   2.06577e-17
      270.200   2.00914e-17
      270.300   1.95402e-17
      270.400   1.90042e-17
      270.500   1.84827e-17
      270.600   1.79755e-17
      270.700   1.74821e-17
      270.800   1.70024e-17
      270.900   1.65355e-17
      271.000   1.60816e-17
      271.100   1.56399e-17
      271.200   1.52102e-17
      271.300   1.47924e-17
      271.400   1.43859e-17
      271.500   1.39906e-17
      271.600   1.36059e-17
      271.700   1.32318e-17
      271.800   1.28680e-17
      271.900   1.25141e-17
      272.000   1.21699e-17
      272.100   1.18350e-17
      272.200   1.15093e-17
      272.300   1.11925e-17
      272.400   1.08842e-17
      272.500   1.05845e-17
      272.600   1.02929e-17
      272.700   1.00092e-17
      272.800   9.74484e-18
      272.900   9.52117e-18
      273.000   9.31801e-18
      273.100   9.11908e-18
      273.200   8.92436e-18
      273.300   8.73388e-18
      273.400   8.54736e-18
      273.500   8.36481e-18
      273.600   8.18613e-18
      273.700   8.01122e-18
      273.800   7.84001e-18
      273.900   7.64741e-18
      274.000   7.41030e-18
      274.100   7.17988e-18
      274.200   6.95652e-18
      274.300   6.74005e-18
      274.400   6.52944e-18
      274.500   6.32339e-18
      274.600   6.12337e-18
      274.700   5.92966e-18
      274.800   5.74191e-18
      274.900   5.55998e-18
      275.000   5.38376e-18
      275.100   5.21305e-18
      275.200   5.04766e-18
      275.300   4.88741e-18
      275.400   4.73221e-18
      275.500   4.58187e-18
      275.600   4.43614e-18
      275.700   4.29505e-18
      275.800   4.15840e-18
      275.900   4.02598e-18
      276.000   3.90622e-18
      276.100   3.81251e-18
      276.200   3.72545e-18
      276.300   3.64034e-18
      276.400   3.55715e-18
      276.500   3.47580e-18
      276.600   3.39632e-18
      276.700   3.31859e-18
      276.800   3.24264e-18
      276.900   3.16837e-18
      277.000   3.09579e-18
      277.100   3.02483e-18
      277.200   2.95548e-18
      277.300   2.88768e-18
      277.400   2.82141e-18
      277.500   2.75660e-18
      277.600   2.69330e-18
      277.700   2.63139e-18
      277.800   2.57087e-18
      277.900   2.51175e-18
      278.000   2.45396e-18
      278.100   2.39620e-18
      278.200   2.32524e-18
      278.300   2.25286e-18
      278.400   2.18269e-18
      278.500   2.11462e-18
      278.600   2.04864e-18
      278.700   1.98472e-18
      278.800   1.92275e-18
      278.900   1.86263e-18
      279.000   1.80432e-18
      279.100   1.74782e-18
      279.200   1.69551e-18
      279.300   1.64999e-18
      279.400   1.60616e-18
      279.500   1.56349e-18
      279.600   1.52193e-18
      279.700   1.48148e-18
      279.800   1.44206e-18
      279.900   1.40366e-18
      280.000   1.36627e-18
      280.100   1.32985e-18
      280.200   1.29440e-18
      280.300   1.25987e-18
      280.400   1.22623e-18
      280.500   1.19350e-18
      280.600   1.16161e-18
      280.700   1.13056e-18
      280.800   1.10033e-18
      280.900   1.07088e-18
      281.000   1.04221e-18
      281.100   1.01429e-18
      281.200   9.87103e-19
      281.300   9.62077e-19
      281.400   9.40382e-19
      281.500   9.20502e-19
      281.600   9.01030e-19
      281.700   8.81963e-19
      281.800   8.63304e-19
      281.900   8.45020e-19
      282.000   8.27117e-19
      282.100   8.09585e-19
      282.200   7.92433e-19
      282.300   7.75624e-19
      282.400   7.59167e-19
      282.500   7.43048e-19
      282.600   7.27271e-19
      282.700   7.11818e-19
      282.800   6.96685e-19
      282.900   6.81881e-19
      283.000   6.67378e-19
      283.100   6.53187e-19
      283.200   6.39291e-19
      283.300   6.25689e-19
      283.400   6.12371e-19
      283.500   5.97728e-19
      283.600   5.83059e-19
      283.700   5.68721e-19
      283.800   5.54733e-19
      283.900   5.41090e-19
      284.000   5.27772e-19
      284.100   5.14775e-19
      284.200   5.02093e-19
      284.300   4.89723e-19
      284.400   4.77651e-19
      284.500   4.65873e-19
      284.600   4.54382e-19
      284.700   4.43174e-19
      284.800   4.32236e-19
      284.900   4.21565e-19
      285.000   4.11149e-19
      285.100   4.00988e-19
      285.200   3.91080e-19
      285.300   3.81411e-19
      285.400   3.71977e-19
      285.500   3.62775e-19
      285.600   3.53801e-19
      285.700   3.45042e-19
      285.800   3.36503e-19
      285.900   3.28173e-19
      286.000   3.20051e-19
      286.100   3.12132e-19
      286.200   3.04399e-19
      286.300   2.96862e-19
      286.400   2.89510e-19
      286.500   2.82335e-19
      286.600   2.75037e-19
      286.700   2.67133e-19
      286.800   2.59098e-19
      286.900   2.51301e-19
      287.000   2.43735e-19
      287.100   2.36395e-19
      287.200   2.29275e-19
      287.300   2.22366e-19
      287.400   2.15662e-19
      287.500   2.09159e-19
      287.600   2.02849e-19
      287.700   1.96727e-19
      287.800   1.90790e-19
      287.900   1.85030e-19
      288.000   1.79444e-19
      288.100   1.74023e-19
      288.200   1.68772e-19
      288.300   1.63679e-19
      288.400   1.58736e-19
      288.500   1.53943e-19
      288.600   1.49290e-19
      288.700   1.44831e-19
      288.800   1.41302e-19
      288.900   1.38248e-19
      289.000   1.35259e-19
      289.100   1.32334e-19
      289.200   1.29472e-19
      289.300   1.26673e-19
      289.400   1.23934e-19
      289.500   1.21255e-19
      289.600   1.18633e-19
      289.700   1.16070e-19
      289.800   1.13560e-19
      289.900   1.11104e-19
      290.000   1.08703e-19
      290.100   1.06354e-19
      290.200   1.04057e-19
      290.300   1.01810e-19
      290.400   9.96123e-20
      290.500   9.74626e-20
      290.600   9.53580e-20
      290.700   9.32995e-20
      290.800   9.12867e-20
      290.900   8.93163e-20
      291.000   8.73875e-20
      291.100   8.55011e-20
      291.200   8.36562e-20
      291.300   8.18506e-20
      291.400   8.00846e-20
      291.500   7.83564e-20
      291.600   7.66650e-20
      291.700   7.50111e-20
      291.800   7.33932e-20
      291.900   7.18121e-20
      292.000   6.97600e-20
      292.100   6.76878e-20
      292.200   6.56720e-20
      292.300   6.37147e-20
      292.400   6.18158e-20
      292.500   5.99723e-20
      292.600   5.81833e-20
      292.700   5.64480e-20
      292.800   5.47639e-20
      292.900   5.31298e-20
      293.000   5.15440e-20
      293.100   5.00046e-20
      293.200   4.85107e-20
      293.300   4.70616e-20
      293.400   4.56563e-20
      293.500   4.42938e-20
      293.600   4.29718e-20
      293.700   4.16889e-20
      293.800   4.04440e-20
      293.900   3.92361e-20
      294.000   3.80766e-20
      294.100   3.70589e-20
      294.200   3.61491e-20
      294.300   3.52615e-20
      294.400   3.43950e-20
      294.500   3.35502e-20
      294.600   3.27258e-20
      294.700   3.19216e-20
      294.800   3.11369e-20
      294.900   3.03722e-20
      295.000   2.96265e-20
      295.100   2.88993e-20
      295.200   2.81897e-20
      295.300   2.74973e-20
      295.400   2.68220e-20
      295.500   2.61633e-20
      295.600   2.55205e-20
      295.700   2.48934e-20
      295.800   2.42816e-20
      295.900   2.36843e-20
      296.000   2.31018e-20
      296.100   2.25334e-20
      296.200   2.19791e-20
      296.300   2.14385e-20
      296.400   2.09121e-20
      296.500   2.03980e-20
      296.600   1.98964e-20
      296.700   1.94071e-20
      296.800   1.89299e-20
      296.900   1.84641e-20
      297.000   1.80097e-20
      297.100   1.75663e-20
      297.200   1.71337e-20
      297.300   1.67116e-20
      297.400   1.62998e-20
      297.500   1.58980e-20
      297.600   1.55062e-20
      297.700   1.51243e-20
      297.800   1.47518e-20
      297.900   1.43884e-20
      298.000   1.40338e-20
      298.100   1.36879e-20
      298.200   1.33503e-20
      298.300   1.29933e-20
      298.400   1.26032e-20
      298.500   1.22100e-20
      298.600   1.18289e-20
      298.700   1.14595e-20
      298.800   1.11012e-20
      298.900   1.07550e-20
      299.000   1.04195e-20
      299.100   1.00943e-20
      299.200   9.77884e-21
      299.300   9.47317e-21
      299.400   9.17682e-21
      299.500   8.88958e-21
      299.600   8.61118e-21
      299.700   8.34135e-21
      299.800   8.07960e-21
      299.900   7.82618e-21
      300.000   7.58047e-21
      300.100   7.34249e-21
      300.192   7.13024e-21
      300.285   6.92170e-21
      300.377   6.72141e-21
      300.470   6.52481e-21
      300.562   6.33589e-21
      300.654   6.15232e-21
      300.747   5.97205e-21
      300.839   5.79893e-21
      300.932   5.62883e-21
      301.025   5.46368e-21
      301.117   5.30511e-21
      301.210   5.14934e-21
      301.303   4.99807e-21
      301.395   4.85291e-21
      301.488   4.72013e-21
      301.581   4.62359e-21
      301.674   4.52990e-21
      301.766   4.43909e-21
      301.859   4.34906e-21
      301.952   4.26090e-21
      302.045   4.17447e-21
      302.138   4.08981e-21
      302.231   4.00694e-21
      302.324   3.92572e-21
      302.417   3.84612e-21
      302.510   3.76803e-21
      302.603   3.69165e-21
      302.696   3.61668e-21
      302.789   3.54323e-21
      302.882   3.47123e-21
      302.976   3.39998e-21
      303.069   3.33084e-21
      303.162   3.26312e-21
      303.255   3.19672e-21
      303.349   3.13095e-21
      303.442   3.06716e-21
      303.535   3.00472e-21
      303.629   2.94286e-21
      303.722   2.88288e-21
      303.816   2.82346e-21
      303.909   2.76588e-21
      304.003   2.70884e-21
      304.096   2.65353e-21
      304.190   2.59874e-21
      304.283   2.54564e-21
      304.377   2.49309e-21
      304.471   2.44154e-21
      304.564   2.39159e-21
      304.658   2.33984e-21
      304.752   2.27448e-21
      304.846   2.20941e-21
      304.939   2.14683e-21
      305.033   2.08534e-21
      305.127   2.02558e-21
      305.221   1.96751e-21
      305.315   1.91109e-21
      305.409   1.85625e-21
      305.503   1.80297e-21
      305.597   1.75119e-21
      305.691   1.70086e-21
      305.785   1.66637e-21
      305.879   1.63647e-21
      305.973   1.60739e-21
      306.067   1.57879e-21
      306.161   1.55071e-21
      306.255   1.52312e-21
      306.350   1.49570e-21
      306.444   1.46905e-21
      306.538   1.44287e-21
      306.633   1.41689e-21
      306.727   1.39162e-21
      306.821   1.36679e-21
      306.916   1.34214e-21
      307.010   1.31818e-21
      307.105   1.29440e-21
      307.199   1.27129e-21
      307.294   1.24833e-21
      307.388   1.22602e-21
      307.483   1.20387e-21
      307.577   1.18235e-21
      307.672   1.16097e-21
      307.767   1.13998e-21
      307.861   1.11641e-21
      307.956   1.08785e-21
      308.051   1.05909e-21
      308.146   1.03108e-21
      308.240   1.00409e-21
      308.335   9.77511e-22
      308.430   9.51613e-22
      308.525   9.26399e-22
      308.620   9.01854e-22
      308.715   8.77947e-22
      308.810   8.54665e-22
      308.905   8.31986e-22
      309.000   8.09906e-22
      309.095   7.88399e-22
      309.190   7.67467e-22
      309.285   7.47073e-22
      309.380   7.27218e-22
      309.476   7.07687e-22
      309.571   6.88860e-22
      309.666   6.70527e-22
      309.761   6.52681e-22
      309.857   6.35125e-22
      309.952   6.18292e-22
      310.047   6.02730e-22
      310.143   5.87606e-22
      310.238   5.73009e-22
      310.334   5.58625e-22
      310.429   5.44735e-22
      310.525   5.31051e-22
      310.620   5.17846e-22
      310.716   5.04827e-22
      310.811   4.92022e-22
      310.907   4.79331e-22
      311.003   4.66961e-22
      311.098   4.55026e-22
      311.194   4.43274e-22
      311.290   4.31826e-22
      311.386   4.20671e-22
      311.481   4.09910e-22
      311.577   3.99318e-22
      311.673   3.88992e-22
      311.769   3.78931e-22
      311.865   3.69131e-22
      311.961   3.59591e-22
      312.057   3.50341e-22
      312.153   3.41349e-22
      312.249   3.32582e-22
      312.345   3.24042e-22
      312.441   3.15715e-22
      312.537   3.07604e-22
      312.633   2.99701e-22
      312.730   2.91914e-22
      312.826   2.84410e-22
      312.922   2.77098e-22
      313.018   2.69972e-22
      313.115   2.62956e-22
      313.211   2.56190e-22
      313.307   2.49597e-22
      313.404   2.43109e-22
      313.500   2.36850e-22
      313.597   2.30693e-22
      313.693   2.24756e-22
      313.790   2.18909e-22
      313.886   2.13729e-22
      313.983   2.09921e-22
      314.079   2.06680e-22
      314.176   2.03457e-22
      314.273   2.00283e-22
      314.369   1.97194e-22
      314.466   1.94120e-22
      314.563   1.91094e-22
      314.660   1.88115e-22
      314.756   1.85213e-22
      314.853   1.82326e-22
      314.950   1.79486e-22
      315.047   1.76690e-22
      315.144   1.73939e-22
      315.241   1.71230e-22
      315.338   1.68564e-22
      315.435   1.65939e-22
      315.532   1.63357e-22
      315.629   1.60816e-22
      315.726   1.58314e-22
      315.823   1.55850e-22
      315.921   1.53402e-22
      316.018   1.51016e-22
      316.115   1.48669e-22
      316.212   1.46358e-22
      316.310   1.43666e-22
      316.407   1.40545e-22
      316.504   1.37333e-22
      316.602   1.34163e-22
      316.699   1.31098e-22
      316.796   1.28104e-22
      316.894   1.25149e-22
      316.991   1.22293e-22
      317.089   1.19491e-22
      317.187   1.16763e-22
      317.284   1.14123e-22
      317.382   1.11517e-22
      317.479   1.08995e-22
      317.577   1.06507e-22
      317.675   1.04075e-22
      317.773   1.01699e-22
      317.870   9.94017e-23
      317.968   9.71312e-23
      318.066   9.49137e-23
      318.164   9.27471e-23
      318.262   9.06304e-23
      318.360   8.85615e-23
      318.458   8.65408e-23
      318.556   8.45671e-23
      318.654   8.26380e-23
      318.752   8.03472e-23
      318.850   7.76403e-23
      318.948   7.48799e-23
      319.046   7.22169e-23
      319.144   6.96472e-23
      319.242   6.71696e-23
      319.341   6.47551e-23
      319.439   6.24500e-23
      319.537   6.02268e-23
      319.635   5.80818e-23
      319.734   5.59920e-23
      319.832   5.39969e-23
      319.930   5.20719e-23
      320.029   5.01970e-23
      320.127   4.84071e-23
      320.226   4.66629e-23
      320.324   4.49973e-23
      320.423   4.33745e-23
      320.522   4.18111e-23
      320.620   4.03183e-23
      320.719   3.88635e-23
      320.818   3.74610e-23
      320.916   3.61221e-23
      321.015   3.48175e-23
      321.114   3.35596e-23
      321.213   3.23470e-23
      321.311   3.11898e-23
      321.410   3.00627e-23
      321.509   2.89754e-23
      321.608   2.79277e-23
      321.707   2.69172e-23
      321.806   2.59429e-23
      321.905   2.50040e-23
      322.004   2.40982e-23
      322.103   2.32256e-23
      322.202   2.23840e-23
      322.301   2.15728e-23
      322.401   2.07830e-23
      322.500   2.00294e-23
      322.599   1.93030e-23
      322.698   1.86027e-23
      322.798   1.79209e-23
      322.897   1.72701e-23
      322.996   1.66430e-23
      323.096   1.60321e-23
      323.195   1.54495e-23
      323.294   1.48879e-23
      323.394   1.43412e-23
      323.493   1.38195e-23
      323.593   1.33117e-23
      323.692   1.28272e-23
      323.792   1.23555e-23
      323.892   1.19011e-23
      323.991   1.14673e-23
      324.091   1.10453e-23
      324.191   1.06385e-23
      324.291   1.02466e-23
      324.390   9.87294e-24
      324.490   9.50885e-24
      324.590   9.15836e-24
      324.690   8.82065e-24
      324.790   8.49516e-24
      324.890   8.18168e-24
      324.990   7.87951e-24
      325.090   7.58835e-24
      325.190   7.30800e-24
      325.290   7.03798e-24
      325.390   6.77755e-24
      325.490   6.52692e-24
      325.590   6.28548e-24
      325.690   6.05268e-24
      325.790   5.82853e-24
      325.891   5.61047e-24
      325.991   5.40251e-24
      326.091   5.20214e-24
      326.192   5.00727e-24
      326.292   4.82143e-24
      326.392   4.64248e-24
      326.493   4.46836e-24
      326.593   4.30230e-24
      326.694   4.14089e-24
      326.794   3.98690e-24
      326.895   3.83711e-24
      326.995   3.69426e-24
      327.096   3.55542e-24
      327.197   3.42167e-24
      327.297   3.29413e-24
      327.398   3.17011e-24
      327.499   3.05072e-24
      327.599   2.93685e-24
      327.700   2.82611e-24
      327.801   2.71951e-24
      327.902   2.61694e-24
      328.003   2.51812e-24
      328.104   2.42300e-24
      328.205   2.33143e-24
      328.306   2.24329e-24
      328.407   2.15846e-24
      328.508   2.07676e-24
      328.609   1.99812e-24
      328.710   1.92245e-24
      328.811   1.84959e-24
      328.912   1.77946e-24
      329.013   1.71196e-24
      329.115   1.64638e-24
      329.216   1.58385e-24
      329.317   1.52368e-24
      329.419   1.46524e-24
      329.520   1.40950e-24
      329.621   1.35586e-24
      329.723   1.30372e-24
      329.824   1.25410e-24
      329.926   1.20586e-24
      330.027   1.15988e-24
      330.129   1.11520e-24
      330.230   1.07266e-24
      330.332   1.03130e-24
      330.434   9.91528e-25
      330.535   9.53619e-25
      330.637   9.16792e-25
      330.739   8.81387e-25
      330.840   8.47644e-25
      330.942   8.14857e-25
      331.044   7.83327e-25
      331.146   7.52998e-25
      331.248   7.23830e-25
      331.350   6.95783e-25
      331.452   6.68805e-25
      331.554   6.43022e-25
      331.656   6.18437e-25
      331.758   5.94789e-25
      331.860   5.72020e-25
      331.962   5.50117e-25
      332.064   5.29039e-25
      332.166   5.08766e-25
      332.268   4.89248e-25
      332.371   4.70302e-25
      332.473   4.52239e-25
      332.575   4.34856e-25
      332.677   4.18144e-25
      332.780   4.01913e-25
      332.882   3.86448e-25
      332.985   3.71431e-25
      333.087   3.57116e-25
      333.190   3.43220e-25
      333.292   3.29939e-25
      333.395   3.16926e-25
      333.497   3.04503e-25
      333.600   2.92445e-25
      333.702   2.80967e-25
      333.805   2.69834e-25
      333.908   2.59125e-25
      334.011   2.48842e-25
      334.113   2.39053e-25
      334.216   2.29553e-25
      334.319   2.20427e-25
      334.422   2.11656e-25
      334.525   2.03231e-25
      334.628   1.95135e-25
      334.731   1.87362e-25
      334.834   1.79893e-25
      334.937   1.72714e-25
      335.040   1.65816e-25
      335.143   1.59196e-25
      335.246   1.52833e-25
      335.349   1.46722e-25
      335.452   1.40851e-25
      335.555   1.35214e-25
      335.659   1.29746e-25
      335.762   1.24545e-25
      335.865   1.19553e-25
      335.969   1.14710e-25
      336.072   1.10102e-25
      336.175   1.05681e-25
      336.279   1.01395e-25
      336.382   9.73177e-26
      336.486   9.33639e-26
      336.589   8.96045e-26
      336.693   8.59626e-26
      336.796   8.24992e-26
      336.900   7.91406e-26
      337.004   7.59156e-26
      337.107   7.28527e-26
      337.211   6.98816e-26
      337.315   6.70321e-26
      337.419   6.42959e-26
      337.523   6.16698e-26
      337.626   5.91735e-26
      337.730   5.67550e-26
      337.834   5.44333e-26
      337.938   5.22062e-26
      338.042   5.00696e-26
      338.146   4.80252e-26
      338.250   4.60649e-26
      338.354   4.41831e-26
      338.458   4.23767e-26
      338.562   4.06435e-26
      338.667   3.89653e-26
      338.771   3.73698e-26
      338.875   3.58393e-26
      338.979   3.43700e-26
      339.084   3.29484e-26
      339.188   3.15969e-26
      339.292   3.03004e-26
      339.397   2.90443e-26
      339.501   2.78514e-26
      339.606   2.66954e-26
      339.710   2.55977e-26
      339.815   2.45345e-26
      339.919   2.35249e-26
      340.024   2.25466e-26
      340.128   2.16181e-26
      340.233   2.07182e-26
      340.338   1.98562e-26
      340.442   1.90367e-26
      340.547   1.82436e-26
      340.652   1.74830e-26
      340.757   1.67538e-26
      340.862   1.60546e-26
      340.966   1.53907e-26
      341.071   1.47480e-26
      341.176   1.41318e-26
      341.281   1.35410e-26
      341.386   1.29749e-26
      341.491   1.24318e-26
      341.596   1.19116e-26
      341.702   1.14082e-26
      341.807   1.09303e-26
      341.912   1.04722e-26
      342.017   1.00330e-26
      342.122   9.61199e-27
      342.228   9.20511e-27
      342.333   8.81857e-27
      342.438   8.44813e-27
      342.544   8.08998e-27
      342.649   7.74981e-27
      342.754   7.42407e-27
      342.860   7.10882e-27
      342.965   6.80941e-27
      343.071   6.52030e-27
      343.176   6.24564e-27
      343.282   5.97994e-27
      343.388   5.72558e-27
      343.493   5.48447e-27
      343.599   5.25428e-27
      343.705   5.03393e-27
      343.810   4.82461e-27
      343.916   4.62216e-27
      344.022   4.42810e-27
      344.128   4.24215e-27
      344.234   4.06385e-27
      344.340   3.89309e-27
      344.446   3.72933e-27
      344.552   3.57242e-27
      344.658   3.42210e-27
      344.764   3.27812e-27
      344.870   3.14003e-27
      344.976   3.00782e-27
      345.082   2.88103e-27
      345.188   2.75963e-27
      345.294   2.64322e-27
      345.401   2.53070e-27
      345.507   2.42389e-27
      345.613   2.32162e-27
      345.719   2.22356e-27
      345.826   2.12878e-27
      345.932   2.03882e-27
      346.039   1.95186e-27
      346.145   1.86931e-27
      346.252   1.78954e-27
      346.358   1.71381e-27
      346.465   1.64066e-27
      346.571   1.57118e-27
      346.678   1.50402e-27
      346.785   1.43970e-27
      346.891   1.37871e-27
      346.998   1.31976e-27
      347.105   1.26329e-27
      347.212   1.20921e-27
      347.319   1.15743e-27
      347.425   1.10828e-27
      347.532   1.06079e-27
      347.639   1.01534e-27
      347.746   9.71811e-28
      347.853   9.30109e-28
      347.960   8.90210e-28
      348.067   8.52022e-28
      348.174   8.15465e-28
      348.281   7.80450e-28
      348.389   7.46631e-28
      348.496   7.14542e-28
      348.603   6.83853e-28
      348.710   6.54458e-28
      348.818   6.26063e-28
      348.925   5.99130e-28
      349.032   5.73359e-28
      349.140   5.48449e-28
      349.247   5.24831e-28
      349.355   5.02037e-28
      349.462   4.80406e-28
      349.570   4.59501e-28
      349.677   4.39698e-28
      349.785   4.20558e-28
      349.892   4.02420e-28
      350.000   3.84901e-28
      350.100   3.69355e-28
      350.193   3.55462e-28
      350.287   3.41934e-28
      350.380   3.29071e-28
      350.473   3.16681e-28
      350.567   3.04620e-28
      350.660   2.93146e-28
      350.754   2.81983e-28
      350.847   2.71359e-28
      350.941   2.61022e-28
      351.034   2.51183e-28
      351.128   2.41608e-28
      351.221   2.32499e-28
      351.315   2.23630e-28
      351.409   2.15097e-28
      351.502   2.06981e-28
      351.596   1.99084e-28
      351.690   1.91480e-28
      351.783   1.84252e-28
      351.877   1.77217e-28
      351.971   1.70448e-28
      352.065   1.63935e-28
      352.159   1.57669e-28
      352.252   1.51706e-28
      352.346   1.45904e-28
      352.440   1.40326e-28
      352.534   1.34962e-28
      352.628   1.29796e-28
      352.722   1.24827e-28
      352.816   1.20050e-28
      352.910   1.15456e-28
      353.004   1.11036e-28
      353.098   1.06781e-28
      353.192   1.02689e-28
      353.287   9.87122e-29
      353.381   9.49262e-29
      353.475   9.12884e-29
      353.569   8.77854e-29
      353.663   8.44194e-29
      353.758   8.11468e-29
      353.852   7.80328e-29
      353.946   7.50371e-29
      354.041   7.21252e-29
      354.135   6.93547e-29
      354.229   6.66898e-29
      354.324   6.40998e-29
      354.418   6.16364e-29
      354.513   5.92411e-29
      354.607   5.69641e-29
      354.702   5.47474e-29
      354.796   5.26340e-29
      354.891   5.05798e-29
      354.985   4.86268e-29
      355.080   4.67290e-29
      355.175   4.49034e-29
      355.269   4.31678e-29
      355.364   4.14806e-29
      355.459   3.98599e-29
      355.553   3.83171e-29
      355.648   3.68192e-29
      355.743   3.53799e-29
      355.838   3.39943e-29
      355.933   3.26646e-29
      356.027   3.13993e-29
      356.122   3.01690e-29
      356.217   2.89873e-29
      356.312   2.78522e-29
      356.407   2.67604e-29
      356.502   2.57115e-29
      356.597   2.47028e-29
      356.692   2.37341e-29
      356.787   2.28029e-29
      356.882   2.19073e-29
      356.977   2.10476e-29
      357.073   2.02125e-29
      357.168   1.94180e-29
      357.263   1.86552e-29
      357.358   1.79217e-29
      357.453   1.72172e-29
      357.549   1.65330e-29
      357.644   1.58825e-29
      357.739   1.52578e-29
      357.835   1.46505e-29
      357.930   1.40736e-29
      358.025   1.35192e-29
      358.121   1.29810e-29
      358.216   1.24694e-29
      358.312   1.19724e-29
      358.407   1.15003e-29
      358.503   1.10419e-29
      358.598   1.06063e-29
      358.694   1.01833e-29
      358.790   9.77671e-30
      358.885   9.39041e-30
      358.981   9.01536e-30
      359.076   8.65916e-30
      359.172   8.31331e-30
      359.268   7.98079e-30
      359.364   7.66159e-30
      359.459   7.35855e-30
      359.555   7.06407e-30
      359.651   6.78131e-30
      359.747   6.50981e-30
      359.843   6.24906e-30
      359.939   5.99867e-30
      360.035   5.75826e-30
      360.131   5.52749e-30
      360.227   5.30560e-30
      360.323   5.09277e-30
      360.419   4.88564e-30
      360.515   4.66140e-30
      360.611   4.44048e-30
      360.707   4.22974e-30
      360.803   4.02931e-30
      360.899   3.83802e-30
      360.995   3.65586e-30
      361.092   3.48042e-30
      361.188   3.31497e-30
      361.284   3.15734e-30
      361.380   3.00715e-30
      361.477   2.86252e-30
      361.573   2.72615e-30
      361.669   2.59630e-30
      361.766   2.47122e-30
      361.862   2.35340e-30
      361.959   2.23997e-30
      362.055   2.13293e-30
      362.152   2.03006e-30
      362.248   1.93304e-30
      362.345   1.83960e-30
      362.441   1.75162e-30
      362.538   1.66695e-30
      362.635   1.58631e-30
      362.731   1.51028e-30
      362.828   1.43713e-30
      362.925   1.36751e-30
      363.021   1.30186e-30
      363.118   1.23874e-30
      363.215   1.17860e-30
      363.312   1.12136e-30
      363.409   1.06689e-30
      363.505   1.01556e-30
      363.602   9.66144e-31
      363.699   9.19135e-31
      363.796   8.74387e-31
      363.893   8.31791e-31
      363.990   7.91252e-31
      364.087   7.52670e-31
      364.184   7.15947e-31
      364.281   6.80988e-31
      364.378   6.47728e-31
      364.475   6.16071e-31
      364.573   5.85634e-31
      364.670   5.56984e-31
      364.767   5.29722e-31
      364.864   5.03772e-31
      364.961   4.79085e-31
      365.059   4.55354e-31
      365.156   4.33024e-31
      365.253   4.11767e-31
      365.351   3.91337e-31
      365.448   3.72102e-31
      365.545   3.53809e-31
      365.643   3.36224e-31
      365.740   3.19669e-31
      365.838   3.03765e-31
      365.935   2.88802e-31
      366.033   2.74419e-31
      366.130   2.60879e-31
      366.228   2.47858e-31
      366.326   2.34034e-31
      366.423   2.20386e-31
      366.521   2.07394e-31
      366.618   1.95275e-31
      366.716   1.83748e-31
      366.814   1.72897e-31
      366.912   1.62682e-31
      367.010   1.53054e-31
      367.107   1.44084e-31
      367.205   1.35546e-31
      367.303   1.27510e-31
      367.401   1.19947e-31
      367.499   1.12825e-31
      367.597   1.06123e-31
      367.695   9.98152e-32
      367.793   9.38798e-32
      367.891   8.82927e-32
      367.989   8.30297e-32
      368.087   7.80809e-32
      368.185   7.34242e-32
      368.283   6.90400e-32
      368.381   6.49136e-32
      368.480   6.09956e-32
      368.578   5.73456e-32
      368.676   5.39134e-32
      368.774   5.06842e-32
      368.873   4.76156e-32
      368.971   4.47592e-32
      369.069   4.20720e-32
      369.168   3.95180e-32
      369.266   3.71425e-32
      369.364   3.49077e-32
      369.463   3.27848e-32
      369.561   3.08097e-32
      369.660   2.89338e-32
      369.758   2.71882e-32
      369.857   2.55306e-32
      369.955   2.39883e-32
      370.054   2.25233e-32
      370.153   2.11469e-32
      370.251   1.98667e-32
      370.350   1.86511e-32
      370.449   1.75094e-32
      370.547   1.64472e-32
      370.646   1.54381e-32
      370.745   1.44911e-32
      370.844   1.36012e-32
      370.943   1.27655e-32
      371.041   1.19884e-32
      371.140   1.12505e-32
      371.239   1.05574e-32
      371.338   9.90694e-33
      371.437   9.29615e-33
      371.536   8.72268e-33
      371.635   8.18379e-33
      371.734   7.67813e-33
      371.833   7.20342e-33
      371.932   6.75768e-33
      372.032   6.33504e-33
      372.131   5.94239e-33
      372.230   5.57401e-33
      372.329   5.22810e-33
      372.428   4.90340e-33
      372.528   4.59579e-33
      372.627   4.31010e-33
      372.726   4.04196e-33
      372.826   3.78784e-33
      372.925   3.55176e-33
      373.024   3.33024e-33
      373.124   3.12035e-33
      373.223   2.92562e-33
      373.323   2.74106e-33
      373.422   2.56965e-33
      373.522   2.40727e-33
      373.621   2.25662e-33
      373.721   2.11383e-33
      373.820   1.98133e-33
      373.920   1.85582e-33
      374.020   1.73809e-33
      374.119   1.62895e-33
      374.219   1.52549e-33
      374.319   1.42861e-33
      374.419   1.33784e-33
      374.518   1.25355e-33
      374.618   1.17376e-33
      374.718   1.09894e-33
      374.818   1.02893e-33
      374.918   9.63337e-34
      375.018   9.01830e-34
      375.118   8.44248e-34
      375.218   7.90272e-34
      375.318   7.39734e-34
      375.418   6.92369e-34
      375.518   6.48045e-34
      375.618   6.06526e-34
      375.718   5.67625e-34
      375.818   5.31205e-34
      375.918   4.97097e-34
      376.019   4.64856e-34
      376.119   4.34959e-34
      376.219   4.06981e-34
      376.319   3.80767e-34
      376.420   3.56006e-34
      376.520   3.33058e-34
      376.620   3.11579e-34
      376.721   2.91268e-34
      376.821   2.72457e-34
      376.922   2.54678e-34
      377.022   2.38202e-34
      377.122   2.22791e-34
      377.223   2.08225e-34
      377.323   1.94734e-34
      377.424   1.81980e-34
      377.525   1.70060e-34
      377.625   1.59021e-34
      377.726   1.48592e-34
      377.827   1.38839e-34
      377.927   1.29806e-34
      378.028   1.21278e-34
      378.129   1.13301e-34
      378.230   1.05845e-34
      378.330   9.89439e-35
      378.431   9.24274e-35
      378.532   8.63399e-35
      378.633   8.06447e-35
      378.734   7.53218e-35
      378.835   7.03495e-35
      378.936   6.57022e-35
      379.037   6.13593e-35
      379.138   5.73002e-35
      379.239   5.35064e-35
      379.340   4.99642e-35
      379.441   4.66528e-35
      379.542   4.35585e-35
      379.643   4.06686e-35
      379.745   3.79429e-35
      379.846   3.54213e-35
      379.947   3.30661e-35
      380.048   3.08672e-35
      380.150   2.87927e-35
      380.251   2.68747e-35
      380.352   2.50840e-35
      380.454   2.33960e-35
      380.555   2.18347e-35
      380.656   2.03766e-35
      380.758   1.90021e-35
      380.859   1.77320e-35
      380.961   1.65352e-35
      381.062   1.54288e-35
      381.164   1.43855e-35
      381.266   1.34124e-35
      381.367   1.25130e-35
      381.469   1.16656e-35
      381.570   1.08827e-35
      381.672   1.01450e-35
      381.774   9.45650e-36
      381.876   8.81461e-36
      381.977   8.22147e-36
      382.079   7.66272e-36
      382.181   7.14157e-36
      382.283   6.65586e-36
      382.385   6.20268e-36
      382.487   5.77985e-36
      382.589   5.38597e-36
      382.691   5.01868e-36
      382.793   4.67623e-36
      382.895   4.35691e-36
      382.997   4.05917e-36
      383.099   3.78163e-36
      383.201   3.52299e-36
      383.303   3.28178e-36
      383.405   3.05701e-36
      383.507   2.84755e-36
      383.610   2.65052e-36
      383.712   2.46862e-36
      383.814   2.29924e-36
      383.916   2.14134e-36
      384.019   1.99280e-36
      384.121   1.85575e-36
      384.223   1.72809e-36
      384.326   1.60805e-36
      384.428   1.49728e-36
      384.531   1.39313e-36
      384.633   1.29707e-36
      384.736   1.20673e-36
      384.838   1.12340e-36
      384.941   1.04507e-36
      385.043   9.72830e-37
      385.146   9.04933e-37
      385.249   8.41737e-37
      385.351   7.83451e-37
      385.454   7.28658e-37
      385.557   6.77699e-37
      385.660   6.30249e-37
      385.762   5.86526e-37
      385.865   5.45429e-37
      385.968   5.07175e-37
      386.071   4.71581e-37
      386.174   4.38474e-37
      386.277   4.07686e-37
      386.380   3.79037e-37
      386.483   3.52384e-37
      386.586   3.27602e-37
      386.689   3.04540e-37
      386.792   2.83086e-37
      386.895   2.63138e-37
      386.998   2.44586e-37
      387.101   2.27336e-37
      387.204   2.11282e-37
      387.308   1.96220e-37
      387.411   1.82352e-37
      387.514   1.69458e-37
      387.617   1.57471e-37
      387.721   1.46224e-37
      387.824   1.35869e-37
      387.927   1.26235e-37
      388.031   1.17202e-37
      388.134   1.08887e-37
      388.238   1.01092e-37
      388.341   9.39090e-38
      388.445   8.71735e-38
      388.548   8.09736e-38
      388.652   7.51611e-38
      388.755   6.98119e-38
      388.859   6.47952e-38
      388.962   6.01781e-38
      389.066   5.58468e-38
      389.170   5.18285e-38
      389.274   4.80945e-38
      389.377   4.46592e-38
      389.481   4.14377e-38
      389.585   3.84489e-38
      389.689   3.56733e-38
      389.793   3.30954e-38
      389.897   3.07048e-38
      390.000   2.85036e-38
      390.104   2.64421e-38
      390.208   2.45274e-38
      390.312   2.27508e-38
      390.416   2.11024e-38
      390.520   1.95718e-38
      390.625   1.81375e-38
      390.729   1.68212e-38
      390.833   1.55988e-38
      390.937   1.44646e-38
      391.041   1.34128e-38
      391.145   1.24369e-38
      391.250   1.15228e-38
      391.354   1.06836e-38
      391.458   9.90490e-39
      391.563   9.17583e-39
      391.667   8.50628e-39
      391.771   7.88530e-39
      391.876   7.30385e-39
      391.980   6.76986e-39
      392.085   6.27026e-39
      392.189   5.81140e-39
      392.294   5.38190e-39
      392.398   4.98765e-39
      392.503   4.61871e-39
      392.607   4.28000e-39
      392.712   3.96310e-39
      392.817   3.66935e-39
      392.921   3.39984e-39
      393.026   3.14761e-39
      393.131   2.91404e-39
      393.236   2.69755e-39
      393.340   2.49890e-39
      393.445   2.31315e-39
      393.550   2.14111e-39
      393.655   1.98169e-39
      393.760   1.83415e-39
      393.865   1.69745e-39
      393.970   1.57096e-39
      394.075   1.45373e-39
      394.180   1.34525e-39
      394.285   1.24477e-39
      394.390   1.15178e-39
      394.495   1.06563e-39
      394.600   9.85917e-40
      394.706   9.11458e-40
      394.811   8.43210e-40
      394.916   7.79992e-40
      395.021   7.21505e-40
      395.126   6.67392e-40
      395.232   6.16835e-40
      395.337   5.70495e-40
      395.443   5.27239e-40
      395.548   4.87593e-40
      395.653   4.50918e-40
      395.759   4.16648e-40
      395.864   3.85274e-40
      395.970   3.55969e-40
      396.075   3.29123e-40
      396.181   3.04065e-40
      396.286   2.81096e-40
      396.392   2.59683e-40
      396.498   2.39874e-40
      396.603   2.21723e-40
      396.709   2.04797e-40
      396.815   1.89151e-40
      396.921   1.74687e-40
      397.026   1.61445e-40
      397.132   1.49083e-40
      397.238   1.37668e-40
      397.344   1.27112e-40
      397.450   1.17377e-40
      397.556   1.08364e-40
      397.662   1.00047e-40
      397.768   9.23638e-41
      397.874   8.52606e-41
      397.980   7.87053e-41
      398.086   7.26433e-41
      398.192   6.70563e-41
      398.298   6.18897e-41
      398.404   5.71169e-41
      398.510   5.27098e-41
      398.617   4.86082e-41
      398.723   4.48542e-41
      398.829   4.13845e-41
      398.935   3.81826e-41
      399.042   3.52048e-41
      399.148   3.24793e-41
      399.255   2.99401e-41
      399.361   2.76210e-41
      399.467   2.54770e-41
      399.574   2.34830e-41
      399.680   2.16585e-41
      399.787   1.99587e-41
      399.893       0.00000
      400.000       0.00000
