Filter Al-poly
observation_date 22-Sept-2019 22:40:45
wavelength effective area 
      1.00000   2.78457e-10
      1.10000   7.94913e-10
      1.20000   2.06647e-09
      1.30000   4.94131e-09
      1.40000   1.12121e-08
      1.50000   2.39197e-08
      1.60000   4.84226e-08
      1.70000   9.40055e-08
      1.80000   1.75012e-07
      1.90000   3.14550e-07
      2.00000   5.46844e-07
      2.10000   9.23649e-07
      2.20000   1.52301e-06
      2.30000   2.44827e-06
      2.40000   3.84370e-06
      2.50000   5.87425e-06
      2.60000   8.96478e-06
      2.70000   1.33659e-05
      2.80000   1.95467e-05
      2.90000   2.82921e-05
      3.00000   4.03116e-05
      3.10000   5.66996e-05
      3.20000   7.88801e-05
      3.30000   0.000108623
      3.40000   0.000148023
      3.50000   0.000199764
      3.60000   0.000268355
      3.70000   0.000356674
      3.80000   0.000472103
      3.90000   0.000621432
      4.00000   0.000812916
      4.10000    0.00105849
      4.20000    0.00137336
      4.30000    0.00177686
      4.40000    0.00229282
      4.50000    0.00295054
      4.60000    0.00378427
      4.70000    0.00485354
      4.80000    0.00621874
      4.90000    0.00786562
      5.00000     0.0102109
      5.10000     0.0130689
      5.20000     0.0167770
      5.30000     0.0213555
      5.40000     0.0271407
      5.50000     0.0345546
      5.60000     0.0426452
      5.70000     0.0554487
      5.80000     0.0650255
      5.90000     0.0993161
      6.00000      0.133552
      6.10000      0.170755
      6.20000      0.209784
      6.30000      0.247053
      6.40000      0.279084
      6.50000      0.302733
      6.60000      0.313535
      6.70000      0.323505
      6.80000      0.324127
      6.90000      0.425494
      7.00000      0.463023
      7.10000      0.490030
      7.20000      0.511613
      7.30000      0.529370
      7.40000      0.543074
      7.50000      0.554112
      7.60000      0.562594
      7.70000      0.567024
      7.80000      0.566286
      7.90000      0.566242
      8.00000      0.955792
      8.10000       1.05176
      8.20000       1.07463
      8.30000       1.09287
      8.40000       1.10708
      8.50000       1.11972
      8.60000       1.13047
      8.70000       1.14000
      8.80000       1.14796
      8.90000       1.15489
      9.00000       1.16069
      9.10000       1.16540
      9.20000       1.16923
      9.30000       1.17206
      9.40000       1.17406
      9.50000       1.17528
      9.60000       1.17565
      9.70000       1.17529
      9.80000       1.17432
      9.90000       1.17278
      10.0000       1.17072
      10.1000       1.16817
      10.2000       1.16513
      10.3000       1.16155
      10.4000       1.15746
      10.5000       1.15289
      10.6000       1.14787
      10.7000       1.14241
      10.8000       1.13654
      10.9000       1.13028
      11.0000       1.12362
      11.1000       1.11662
      11.2000       1.10928
      11.3000       1.10162
      11.4000       1.09363
      11.5000       1.08530
      11.6000       1.07665
      11.7000       1.06758
      11.8000       1.05820
      11.9000       1.04832
      12.0000       1.03684
      12.1000       1.02900
      12.2000       1.03913
      12.3000       1.03839
      12.4000       1.02992
      12.5000       1.02066
      12.6000       1.01099
      12.7000       1.00107
      12.8000      0.990956
      12.9000      0.980655
      13.0000      0.970227
      13.1000      0.959705
      13.2000      0.949119
      13.3000      0.938483
      13.4000      0.927827
      13.5000      0.917309
      13.6000      0.906898
      13.7000      0.896487
      13.8000      0.886065
      13.9000      0.875669
      14.0000      0.865295
      14.1000      0.854915
      14.2000      0.844530
      14.3000      0.834131
      14.4000      0.823687
      14.5000      0.813213
      14.6000      0.802691
      14.7000      0.792132
      14.8000      0.781549
      14.9000      0.770945
      15.0000      0.760333
      15.1000      0.749740
      15.2000      0.739164
      15.3000      0.728613
      15.4000      0.718088
      15.5000      0.707601
      15.6000      0.697196
      15.7000      0.686832
      15.8000      0.676562
      15.9000      0.666384
      16.0000      0.656291
      16.1000      0.646295
      16.2000      0.636416
      16.3000      0.626604
      16.4000      0.616863
      16.5000      0.607187
      16.6000      0.597567
      16.7000      0.588003
      16.8000      0.578496
      16.9000      0.569048
      17.0000      0.559659
      17.1000      0.550328
      17.2000      0.541048
      17.3000      0.531833
      17.4000      0.522820
      17.5000      0.514036
      17.6000      0.505421
      17.7000      0.497043
      17.8000      0.489026
      17.9000      0.481091
      18.0000      0.473167
      18.1000      0.465285
      18.2000      0.457391
      18.3000      0.449457
      18.4000      0.441433
      18.5000      0.433352
      18.6000      0.425202
      18.7000      0.416919
      18.8000      0.408696
      18.9000      0.400537
      19.0000      0.392440
      19.1000      0.384445
      19.2000      0.376543
      19.3000      0.368757
      19.4000      0.361094
      19.5000      0.353538
      19.6000      0.346150
      19.7000      0.338864
      19.8000      0.331674
      19.9000      0.324622
      20.0000      0.317648
      20.1000      0.310758
      20.2000      0.303934
      20.3000      0.297175
      20.4000      0.290504
      20.5000      0.283885
      20.6000      0.277318
      20.7000      0.270827
      20.8000      0.264390
      20.9000      0.257993
      21.0000      0.251662
      21.1000      0.245403
      21.2000      0.239143
      21.3000      0.232933
      21.4000      0.226792
      21.5000      0.220653
      21.6000      0.214507
      21.7000      0.208368
      21.8000      0.202259
      21.9000      0.195924
      22.0000      0.189573
      22.1000      0.183100
      22.2000      0.176232
      22.3000      0.169036
      22.4000      0.159119
      22.5000      0.148428
      22.6000      0.126481
      22.7000      0.115522
      22.8000      0.157690
      22.9000      0.210454
      23.0000      0.268782
      23.1000      0.306439
      23.2000      0.323876
      23.3000      0.327826
      23.4000      0.324758
      23.5000      0.321249
      23.6000      0.317650
      23.7000      0.313177
      23.8000      0.308658
      23.9000      0.304017
      24.0000      0.299373
      24.1000      0.294515
      24.2000      0.289681
      24.3000      0.284839
      24.4000      0.280009
      24.5000      0.275145
      24.6000      0.270319
      24.7000      0.265529
      24.8000      0.260771
      24.9000      0.256042
      25.0000      0.251358
      25.1000      0.246725
      25.2000      0.242133
      25.3000      0.237586
      25.4000      0.233088
      25.5000      0.228654
      25.6000      0.224278
      25.7000      0.219974
      25.8000      0.215715
      25.9000      0.211524
      26.0000      0.207373
      26.1000      0.203282
      26.2000      0.199230
      26.3000      0.195253
      26.4000      0.191310
      26.5000      0.187431
      26.6000      0.183587
      26.7000      0.179817
      26.8000      0.176094
      26.9000      0.172420
      27.0000      0.168783
      27.1000      0.165166
      27.2000      0.161575
      27.3000      0.158386
      27.4000      0.155685
      27.5000      0.152881
      27.6000      0.149741
      27.7000      0.146627
      27.8000      0.143484
      27.9000      0.140370
      28.0000      0.137328
      28.1000      0.134323
      28.2000      0.131383
      28.3000      0.128497
      28.4000      0.125657
      28.5000      0.122881
      28.6000      0.120138
      28.7000      0.117509
      28.8000      0.114904
      28.9000      0.112362
      29.0000      0.109854
      29.1000      0.107391
      29.2000      0.104977
      29.3000      0.102592
      29.4000      0.100271
      29.5000     0.0979730
      29.6000     0.0957335
      29.7000     0.0935256
      29.8000     0.0913591
      29.9000     0.0892406
      30.0000     0.0871453
      30.1000     0.0851128
      30.2000     0.0831009
      30.3000     0.0844195
      30.4000     0.0876033
      30.5000     0.0896448
      30.6000     0.0876006
      30.7000     0.0855773
      30.8000     0.0836073
      30.9000     0.0816674
      31.0000     0.0797602
      31.1000     0.0779012
      31.2000     0.0760616
      31.3000     0.0742747
      31.4000     0.0725139
      31.5000     0.0707844
      31.6000     0.0691000
      31.7000     0.0674336
      31.8000     0.0658163
      31.9000     0.0642243
      32.0000     0.0626592
      32.1000     0.0611394
      32.2000     0.0596361
      32.3000     0.0581757
      32.4000     0.0567431
      32.5000     0.0553334
      32.6000     0.0539956
      32.7000     0.0526766
      32.8000     0.0513899
      32.9000     0.0501323
      33.0000     0.0488885
      33.1000     0.0477229
      33.2000     0.0465830
      33.3000     0.0454647
      33.4000     0.0443776
      33.5000     0.0433029
      33.6000     0.0422572
      33.7000     0.0412351
      33.8000     0.0402239
      33.9000     0.0392487
      34.0000     0.0382873
      34.1000     0.0373457
      34.2000     0.0364306
      34.3000     0.0355253
      34.4000     0.0346412
      34.5000     0.0337813
      34.6000     0.0329307
      34.7000     0.0320902
      34.8000     0.0312593
      34.9000     0.0304374
      35.0000     0.0296485
      35.1000     0.0288707
      35.2000     0.0281042
      35.3000     0.0273686
      35.4000     0.0266412
      35.5000     0.0259289
      35.6000     0.0252418
      35.7000     0.0245624
      35.8000     0.0239010
      35.9000     0.0232599
      36.0000     0.0226260
      36.1000     0.0220122
      36.2000     0.0214148
      36.3000     0.0208241
      36.4000     0.0202549
      36.5000     0.0196987
      36.6000     0.0191489
      36.7000     0.0186212
      36.8000     0.0181041
      36.9000     0.0175930
      37.0000     0.0171041
      37.1000     0.0166239
      37.2000     0.0161493
      37.3000     0.0156966
      37.4000     0.0152514
      37.5000     0.0148115
      37.6000     0.0143924
      37.7000     0.0139800
      37.8000     0.0135725
      37.9000     0.0131847
      38.0000     0.0128033
      38.1000     0.0124265
      38.2000     0.0120677
      38.3000     0.0117154
      38.4000     0.0113673
      38.5000     0.0110354
      38.6000     0.0107104
      38.7000     0.0103893
      38.8000     0.0100823
      38.9000    0.00978287
      39.0000    0.00948708
      39.1000    0.00920319
      39.2000    0.00892775
      39.3000    0.00865570
      39.4000    0.00839315
      39.5000    0.00814004
      39.6000    0.00789011
      39.7000    0.00764728
      39.8000    0.00741521
      39.9000    0.00718604
      40.0000    0.00696151
      40.1000    0.00674892
      40.2000    0.00653901
      40.3000    0.00633177
      40.4000    0.00613684
      40.5000    0.00594486
      40.6000    0.00575532
      40.7000    0.00557505
      40.8000    0.00539967
      40.9000    0.00522656
      41.0000    0.00505978
      41.1000    0.00489980
      41.2000    0.00474190
      41.3000    0.00458768
      41.4000    0.00444223
      41.5000    0.00429867
      41.6000    0.00415697
      41.7000    0.00402375
      41.8000    0.00389320
      41.9000    0.00376437
      42.0000    0.00364116
      42.1000    0.00352279
      42.2000    0.00340598
      42.3000    0.00329187
      42.4000    0.00318459
      42.5000    0.00307873
      42.6000    0.00297429
      42.7000    0.00287593
      42.8000    0.00278014
      42.9000    0.00268562
      43.0000    0.00259444
      43.1000    0.00250793
      43.2000    0.00242259
      43.3000    0.00233840
      43.4000    0.00739576
      43.5000     0.0167856
      43.6000     0.0347863
      43.7000     0.0588208
      43.8000     0.0759510
      43.9000     0.0790613
      44.0000     0.0768183
      44.1000     0.0696012
      44.2000     0.0679346
      44.3000     0.0667474
      44.4000     0.0655839
      44.5000     0.0644504
      44.6000     0.0633205
      44.7000     0.0621943
      44.8000     0.0611107
      44.9000     0.0600362
      45.0000     0.0589651
      45.1000     0.0579102
      45.2000     0.0568895
      45.3000     0.0558722
      45.4000     0.0548580
      45.5000     0.0538757
      45.6000     0.0529101
      45.7000     0.0519476
      45.8000     0.0509898
      45.9000     0.0500747
      46.0000     0.0491625
      46.1000     0.0482533
      46.2000     0.0474018
      46.3000     0.0466473
      46.4000     0.0458954
      46.5000     0.0451458
      46.6000     0.0444328
      46.7000     0.0437391
      46.8000     0.0430476
      46.9000     0.0423583
      47.0000     0.0417176
      47.1000     0.0410821
      47.2000     0.0404486
      47.3000     0.0398222
      47.4000     0.0392216
      47.5000     0.0386230
      47.6000     0.0380263
      47.7000     0.0374403
      47.8000     0.0368701
      47.9000     0.0363017
      48.0000     0.0357352
      48.1000     0.0351832
      48.2000     0.0346426
      48.3000     0.0341037
      48.4000     0.0335666
      48.5000     0.0330462
      48.6000     0.0325334
      48.7000     0.0320222
      48.8000     0.0315127
      48.9000     0.0310222
      49.0000     0.0305367
      49.1000     0.0300528
      49.2000     0.0295705
      49.3000     0.0291082
      49.4000     0.0286490
      49.5000     0.0281912
      49.6000     0.0277349
      49.7000     0.0272988
      49.8000     0.0268645
      49.9000     0.0264317
      50.0000     0.0260007
      50.1000     0.0255853
      50.2000     0.0251814
      50.3000     0.0247825
      50.4000     0.0243893
      50.5000     0.0240022
      50.6000     0.0236206
      50.7000     0.0232444
      50.8000     0.0228729
      50.9000     0.0225073
      51.0000     0.0221477
      51.1000     0.0217938
      51.2000     0.0214447
      51.3000     0.0211006
      51.4000     0.0207622
      51.5000     0.0204284
      51.6000     0.0200990
      51.7000     0.0197740
      51.8000     0.0194516
      51.9000     0.0191338
      52.0000     0.0188208
      52.1000     0.0185127
      52.2000     0.0182085
      52.3000     0.0179084
      52.4000     0.0176135
      52.5000     0.0173228
      52.6000     0.0170359
      52.7000     0.0167527
      52.8000     0.0164733
      52.9000     0.0161985
      53.0000     0.0159279
      53.1000     0.0156612
      53.2000     0.0153988
      53.3000     0.0151401
      53.4000     0.0148853
      53.5000     0.0146344
      53.6000     0.0143869
      53.7000     0.0141430
      53.8000     0.0139029
      53.9000     0.0136665
      54.0000     0.0134341
      54.1000     0.0132057
      54.2000     0.0129802
      54.3000     0.0127578
      54.4000     0.0125390
      54.5000     0.0123237
      54.6000     0.0121116
      54.7000     0.0119030
      54.8000     0.0116976
      54.9000     0.0114954
      55.0000     0.0112964
      55.1000     0.0111002
      55.2000     0.0108976
      55.3000     0.0106894
      55.4000     0.0104845
      55.5000     0.0102828
      55.6000     0.0100849
      55.7000    0.00989038
      55.8000    0.00969907
      55.9000    0.00951114
      56.0000    0.00932770
      56.1000    0.00914389
      56.2000    0.00896027
      56.3000    0.00878028
      56.4000    0.00860337
      56.5000    0.00842938
      56.6000    0.00825841
      56.7000    0.00809073
      56.8000    0.00792600
      56.9000    0.00776452
      57.0000    0.00760629
      57.1000    0.00745093
      57.2000    0.00729809
      57.3000    0.00714776
      57.4000    0.00700043
      57.5000    0.00685594
      57.6000    0.00671405
      57.7000    0.00657466
      57.8000    0.00643809
      57.9000    0.00630404
      58.0000    0.00617245
      58.1000    0.00604322
      58.2000    0.00591668
      58.3000    0.00579252
      58.4000    0.00567055
      58.5000    0.00555075
      58.6000    0.00543336
      58.7000    0.00531835
      58.8000    0.00520553
      58.9000    0.00509476
      59.0000    0.00498602
      59.1000    0.00487942
      59.2000    0.00477482
      59.3000    0.00467226
      59.4000    0.00457181
      59.5000    0.00447348
      59.6000    0.00437702
      59.7000    0.00428226
      59.8000    0.00418923
      59.9000    0.00409803
      60.0000    0.00400884
      60.1000    0.00392141
      60.2000    0.00383569
      60.3000    0.00375162
      60.4000    0.00366918
      60.5000    0.00358851
      60.6000    0.00350937
      60.7000    0.00343174
      60.8000    0.00335565
      60.9000    0.00328103
      61.0000    0.00320794
      61.1000    0.00313633
      61.2000    0.00306618
      61.3000    0.00299749
      61.4000    0.00293020
      61.5000    0.00286426
      61.6000    0.00279969
      61.7000    0.00273642
      61.8000    0.00267478
      61.9000    0.00261454
      62.0000    0.00255555
      62.1000    0.00249782
      62.2000    0.00244140
      62.3000    0.00238611
      62.4000    0.00233191
      62.5000    0.00227879
      62.6000    0.00222674
      62.7000    0.00217576
      62.8000    0.00212604
      62.9000    0.00207740
      63.0000    0.00202979
      63.1000    0.00198318
      63.2000    0.00193753
      63.3000    0.00189280
      63.4000    0.00184898
      63.5000    0.00180615
      63.6000    0.00176424
      63.7000    0.00172323
      63.8000    0.00168311
      63.9000    0.00164386
      64.0000    0.00160544
      64.1000    0.00156784
      64.2000    0.00153107
      64.3000    0.00149511
      64.4000    0.00145993
      64.5000    0.00142551
      64.6000    0.00139182
      64.7000    0.00135884
      64.8000    0.00132656
      64.9000    0.00129497
      65.0000    0.00126407
      65.1000    0.00123392
      65.2000    0.00120446
      65.3000    0.00117565
      65.4000    0.00114746
      65.5000    0.00111986
      65.6000    0.00109284
      65.7000    0.00106642
      65.8000    0.00104062
      65.9000    0.00101541
      66.0000   0.000990791
      66.1000   0.000966771
      66.2000   0.000943290
      66.3000   0.000920319
      66.4000   0.000897838
      66.5000   0.000875848
      66.6000   0.000854350
      66.7000   0.000833354
      66.8000   0.000812855
      66.9000   0.000792950
      67.0000   0.000773612
      67.1000   0.000754719
      67.2000   0.000736248
      67.3000   0.000718208
      67.4000   0.000700574
      67.5000   0.000683347
      67.6000   0.000666519
      67.7000   0.000650078
      67.8000   0.000633991
      67.9000   0.000618233
      68.0000   0.000602896
      68.1000   0.000587987
      68.2000   0.000573417
      68.3000   0.000559194
      68.4000   0.000545311
      68.5000   0.000531759
      68.6000   0.000518518
      68.7000   0.000505575
      68.8000   0.000492925
      68.9000   0.000480694
      69.0000   0.000469486
      69.1000   0.000459973
      69.2000   0.000451459
      69.3000   0.000443186
      69.4000   0.000435229
      69.5000   0.000427213
      69.6000   0.000419066
      69.7000   0.000411223
      69.8000   0.000403725
      69.9000   0.000396364
      70.0000   0.000389125
      70.1000   0.000381909
      70.2000   0.000375298
      70.3000   0.000369277
      70.4000   0.000363329
      70.5000   0.000357531
      70.6000   0.000351870
      70.7000   0.000346296
      70.8000   0.000340800
      70.9000   0.000335233
      71.0000   0.000329614
      71.1000   0.000324242
      71.2000   0.000319112
      71.3000   0.000313761
      71.4000   0.000308130
      71.5000   0.000302893
      71.6000   0.000298213
      71.7000   0.000293529
      71.8000   0.000288747
      71.9000   0.000284130
      72.0000   0.000279825
      72.1000   0.000275472
      72.2000   0.000270626
      72.3000   0.000265878
      72.4000   0.000261639
      72.5000   0.000257470
      72.6000   0.000253362
      72.7000   0.000249317
      72.8000   0.000245333
      72.9000   0.000241417
      73.0000   0.000237641
      73.1000   0.000233962
      73.2000   0.000230343
      73.3000   0.000226779
      73.4000   0.000223297
      73.5000   0.000219914
      73.6000   0.000216580
      73.7000   0.000213294
      73.8000   0.000210055
      73.9000   0.000206863
      74.0000   0.000203737
      74.1000   0.000200860
      74.2000   0.000198084
      74.3000   0.000195149
      74.4000   0.000192106
      74.5000   0.000189150
      74.6000   0.000186324
      74.7000   0.000183537
      74.8000   0.000180788
      74.9000   0.000178077
      75.0000   0.000175384
      75.1000   0.000172726
      75.2000   0.000170107
      75.3000   0.000167527
      75.4000   0.000165005
      75.5000   0.000162563
      75.6000   0.000160155
      75.7000   0.000157782
      75.8000   0.000155443
      75.9000   0.000153158
      76.0000   0.000150916
      76.1000   0.000148709
      76.2000   0.000146533
      76.3000   0.000144395
      76.4000   0.000142317
      76.5000   0.000140272
      76.6000   0.000138252
      76.7000   0.000136257
      76.8000   0.000134288
      76.9000   0.000132345
      77.0000   0.000130428
      77.1000   0.000128540
      77.2000   0.000126681
      77.3000   0.000124850
      77.4000   0.000123047
      77.5000   0.000121268
      77.6000   0.000119487
      77.7000   0.000117729
      77.8000   0.000115993
      77.9000   0.000114279
      78.0000   0.000112570
      78.1000   0.000110836
      78.2000   0.000109131
      78.3000   0.000107557
      78.4000   0.000106045
      78.5000   0.000104545
      78.6000   0.000103035
      78.7000   0.000101546
      78.8000   0.000100038
      78.9000   9.85393e-05
      79.0000   9.70603e-05
      79.1000   9.56007e-05
      79.2000   9.41641e-05
      79.3000   9.27801e-05
      79.4000   9.14282e-05
      79.5000   9.00865e-05
      79.6000   8.87321e-05
      79.7000   8.73968e-05
      79.8000   8.60649e-05
      79.9000   8.47444e-05
      80.0000   8.34393e-05
      80.1000   8.21152e-05
      80.2000   8.08073e-05
      80.3000   7.94786e-05
      80.4000   7.81332e-05
      80.5000   7.68079e-05
      80.6000   7.55052e-05
      80.7000   7.42242e-05
      80.8000   7.29697e-05
      80.9000   7.17493e-05
      81.0000   7.05482e-05
      81.1000   6.93680e-05
      81.2000   6.82075e-05
      81.3000   6.70665e-05
      81.4000   6.60101e-05
      81.5000   6.49734e-05
      81.6000   6.39714e-05
      81.7000   6.30246e-05
      81.8000   6.20945e-05
      81.9000   6.12052e-05
      82.0000   6.03427e-05
      82.1000   5.94940e-05
      82.2000   5.86356e-05
      82.3000   5.77911e-05
      82.4000   5.69917e-05
      82.5000   5.62712e-05
      82.6000   5.55581e-05
      82.7000   5.48367e-05
      82.8000   5.41043e-05
      82.9000   5.33801e-05
      83.0000   5.26716e-05
      83.1000   5.19752e-05
      83.2000   5.12885e-05
      83.3000   5.06110e-05
      83.4000   4.99431e-05
      83.5000   4.92858e-05
      83.6000   4.86494e-05
      83.7000   4.80207e-05
      83.8000   4.73961e-05
      83.9000   4.67708e-05
      84.0000   4.61532e-05
      84.1000   4.55510e-05
      84.2000   4.49680e-05
      84.3000   4.43921e-05
      84.4000   4.38178e-05
      84.5000   4.32465e-05
      84.6000   4.26827e-05
      84.7000   4.21342e-05
      84.8000   4.15974e-05
      84.9000   4.10676e-05
      85.0000   4.05325e-05
      85.1000   4.00007e-05
      85.2000   3.94760e-05
      85.3000   3.89757e-05
      85.4000   3.84846e-05
      85.5000   3.80002e-05
      85.6000   3.75131e-05
      85.7000   3.70315e-05
      85.8000   3.65555e-05
      85.9000   3.60852e-05
      86.0000   3.56204e-05
      86.1000   3.51617e-05
      86.2000   3.47197e-05
      86.3000   3.42830e-05
      86.4000   3.38512e-05
      86.5000   3.34243e-05
      86.6000   3.30024e-05
      86.7000   3.25856e-05
      86.8000   3.21492e-05
      86.9000   3.17176e-05
      87.0000   3.12920e-05
      87.1000   3.08774e-05
      87.2000   3.04687e-05
      87.3000   3.00656e-05
      87.4000   2.96593e-05
      87.5000   2.92566e-05
      87.6000   2.88588e-05
      87.7000   2.84710e-05
      87.8000   2.80890e-05
      87.9000   2.77114e-05
      88.0000   2.73384e-05
      88.1000   2.69698e-05
      88.2000   2.66061e-05
      88.3000   2.62535e-05
      88.4000   2.59114e-05
      88.5000   2.55748e-05
      88.6000   2.52404e-05
      88.7000   2.49071e-05
      88.8000   2.45783e-05
      88.9000   2.42534e-05
      89.0000   2.39319e-05
      89.1000   2.36148e-05
      89.2000   2.33011e-05
      89.3000   2.29906e-05
      89.4000   2.26828e-05
      89.5000   2.23788e-05
      89.6000   2.20786e-05
      89.7000   2.17820e-05
      89.8000   2.14888e-05
      89.9000   2.11991e-05
      90.0000   2.09133e-05
      90.1000   2.06317e-05
      90.2000   2.03488e-05
      90.3000   2.00584e-05
      90.4000   1.97719e-05
      90.5000   1.94897e-05
      90.6000   1.92156e-05
      90.7000   1.89402e-05
      90.8000   1.86629e-05
      90.9000   1.83829e-05
      91.0000   1.81055e-05
      91.1000   1.78319e-05
      91.2000   1.75593e-05
      91.3000   1.72860e-05
      91.4000   1.70161e-05
      91.5000   1.67507e-05
      91.6000   1.64896e-05
      91.7000   1.62496e-05
      91.8000   1.60396e-05
      91.9000   1.58639e-05
      92.0000   1.56709e-05
      92.1000   1.54760e-05
      92.2000   1.52728e-05
      92.3000   1.50626e-05
      92.4000   1.48497e-05
      92.5000   1.46399e-05
      92.6000   1.44329e-05
      92.7000   1.42285e-05
      92.8000   1.40267e-05
      92.9000   1.38297e-05
      93.0000   1.36398e-05
      93.1000   1.34524e-05
      93.2000   1.32676e-05
      93.3000   1.30909e-05
      93.4000   1.29185e-05
      93.5000   1.27484e-05
      93.6000   1.25799e-05
      93.7000   1.24129e-05
      93.8000   1.22472e-05
      93.9000   1.20835e-05
      94.0000   1.19214e-05
      94.1000   1.17612e-05
      94.2000   1.16031e-05
      94.3000   1.14480e-05
      94.4000   1.12982e-05
      94.5000   1.11506e-05
      94.6000   1.10051e-05
      94.7000   1.08618e-05
      94.8000   1.07204e-05
      94.9000   1.05809e-05
      95.0000   1.04433e-05
      95.1000   1.03079e-05
      95.2000   1.01738e-05
      95.3000   1.00412e-05
      95.4000   9.91039e-06
      95.5000   9.78278e-06
      95.6000   9.65647e-06
      95.7000   9.53150e-06
      95.8000   9.40669e-06
      95.9000   9.28297e-06
      96.0000   9.16064e-06
      96.1000   9.03968e-06
      96.2000   8.92009e-06
      96.3000   8.80247e-06
      96.4000   8.68639e-06
      96.5000   8.57186e-06
      96.6000   8.45919e-06
      96.7000   8.34848e-06
      96.8000   8.23897e-06
      96.9000   8.13070e-06
      97.0000   8.02375e-06
      97.1000   7.91850e-06
      97.2000   7.81431e-06
      97.3000   7.71010e-06
      97.4000   7.60611e-06
      97.5000   7.50364e-06
      97.6000   7.40243e-06
      97.7000   7.30295e-06
      97.8000   7.20509e-06
      97.9000   7.10873e-06
      98.0000   7.01354e-06
      98.1000   6.91950e-06
      98.2000   6.82682e-06
      98.3000   6.74554e-06
      98.4000   6.67019e-06
      98.5000   6.59900e-06
      98.6000   6.52868e-06
      98.7000   6.45906e-06
      98.8000   6.39005e-06
      98.9000   6.32165e-06
      99.0000   6.25409e-06
      99.1000   6.18710e-06
      99.2000   6.12031e-06
      99.3000   6.05226e-06
      99.4000   5.98496e-06
      99.5000   5.91836e-06
      99.6000   5.85288e-06
      99.7000   5.79093e-06
      99.8000   5.73208e-06
      99.9000   5.69517e-06
      100.000   5.69162e-06
      100.100   5.68613e-06
      100.200   5.68059e-06
      100.300   5.67501e-06
      100.400   5.66939e-06
      100.500   5.66449e-06
      100.600   5.65941e-06
      100.700   5.65422e-06
      100.800   5.64888e-06
      100.900   5.64339e-06
      101.000   5.63776e-06
      101.100   5.63201e-06
      101.200   5.62619e-06
      101.300   5.62032e-06
      101.400   5.61443e-06
      101.500   5.60856e-06
      101.600   5.60271e-06
      101.700   5.59746e-06
      101.800   5.59242e-06
      101.900   5.58740e-06
      102.000   5.58249e-06
      102.100   5.57841e-06
      102.200   5.57474e-06
      102.300   5.57097e-06
      102.400   5.56715e-06
      102.500   5.56322e-06
      102.600   5.55916e-06
      102.700   5.55496e-06
      102.800   5.55063e-06
      102.900   5.54618e-06
      103.000   5.54159e-06
      103.100   5.53690e-06
      103.200   5.53212e-06
      103.300   5.52727e-06
      103.400   5.52236e-06
      103.500   5.51740e-06
      103.600   5.51242e-06
      103.700   5.50734e-06
      103.800   5.50095e-06
      103.900   5.49300e-06
      104.000   5.48495e-06
      104.100   5.47695e-06
      104.200   5.46958e-06
      104.300   5.46618e-06
      104.400   5.46287e-06
      104.500   5.45954e-06
      104.600   5.45607e-06
      104.700   5.45125e-06
      104.800   5.44581e-06
      104.900   5.44027e-06
      105.000   5.43469e-06
      105.100   5.42992e-06
      105.200   5.42735e-06
      105.300   5.42476e-06
      105.400   5.42207e-06
      105.500   5.41930e-06
      105.600   5.41700e-06
      105.700   5.41476e-06
      105.800   5.41245e-06
      105.900   5.41014e-06
      106.000   5.40860e-06
      106.100   5.40870e-06
      106.200   5.40889e-06
      106.300   5.40904e-06
      106.400   5.40910e-06
      106.500   5.40911e-06
      106.600   5.40904e-06
      106.700   5.40892e-06
      106.800   5.40873e-06
      106.900   5.40851e-06
      107.000   5.40824e-06
      107.100   5.40791e-06
      107.200   5.40754e-06
      107.300   5.40710e-06
      107.400   5.40651e-06
      107.500   5.40579e-06
      107.600   5.40500e-06
      107.700   5.40416e-06
      107.800   5.40331e-06
      107.900   5.40204e-06
      108.000   5.40073e-06
      108.100   5.39936e-06
      108.200   5.39791e-06
      108.300   5.39633e-06
      108.400   5.39424e-06
      108.500   5.39208e-06
      108.600   5.38983e-06
      108.700   5.38747e-06
      108.800   5.38368e-06
      108.900   5.37787e-06
      109.000   5.37195e-06
      109.100   5.36592e-06
      109.200   5.35983e-06
      109.300   5.35370e-06
      109.400   5.34750e-06
      109.500   5.34126e-06
      109.600   5.33498e-06
      109.700   5.32865e-06
      109.800   5.32228e-06
      109.900   5.31590e-06
      110.000   5.30950e-06
      110.100   5.30308e-06
      110.200   5.29661e-06
      110.300   5.29098e-06
      110.400   5.28539e-06
      110.500   5.27980e-06
      110.600   5.27415e-06
      110.700   5.26846e-06
      110.800   5.26270e-06
      110.900   5.25688e-06
      111.000   5.25098e-06
      111.100   5.24500e-06
      111.200   5.23903e-06
      111.300   5.23477e-06
      111.400   5.23044e-06
      111.500   5.22598e-06
      111.600   5.22142e-06
      111.700   5.21686e-06
      111.800   5.21336e-06
      111.900   5.20983e-06
      112.000   5.20624e-06
      112.100   5.20257e-06
      112.200   5.19885e-06
      112.300   5.19393e-06
      112.400   5.18893e-06
      112.500   5.18394e-06
      112.600   5.17894e-06
      112.700   5.17413e-06
      112.800   5.17049e-06
      112.900   5.16401e-06
      113.000   5.15850e-06
      113.100   5.15341e-06
      113.200   5.14772e-06
      113.300   5.14261e-06
      113.400   5.13089e-06
      113.500   5.11746e-06
      113.600   5.10966e-06
      113.700   5.10001e-06
      113.800   5.08638e-06
      113.900   5.07829e-06
      114.000   5.07008e-06
      114.100   5.05772e-06
      114.200   5.04731e-06
      114.300   5.04010e-06
      114.400   5.03196e-06
      114.500   5.02286e-06
      114.600   5.01800e-06
      114.700   5.00986e-06
      114.800   5.00387e-06
      114.900   5.00293e-06
      115.000   4.99828e-06
      115.100   4.99142e-06
      115.200   4.98428e-06
      115.300   4.98177e-06
      115.400   4.97478e-06
      115.500   4.96995e-06
      115.600   4.96319e-06
      115.700   4.95356e-06
      115.800   4.94766e-06
      115.900   4.93968e-06
      116.000   4.93494e-06
      116.100   4.93522e-06
      116.200   4.93500e-06
      116.300   4.93375e-06
      116.400   4.93073e-06
      116.500   4.93131e-06
      116.600   4.93063e-06
      116.700   4.93080e-06
      116.800   4.92981e-06
      116.900   4.92419e-06
      117.000   4.92367e-06
      117.100   4.93797e-06
      117.200   4.96282e-06
      117.300   4.97739e-06
      117.400   4.99130e-06
      117.500   5.00540e-06
      117.600   5.01342e-06
      117.700   5.01902e-06
      117.800   5.02138e-06
      117.900   5.02207e-06
      118.000   5.01960e-06
      118.100   5.01409e-06
      118.200   5.01088e-06
      118.300   5.00863e-06
      118.400   4.99442e-06
      118.500   4.98106e-06
      118.600   4.97310e-06
      118.700   4.96309e-06
      118.800   4.95032e-06
      118.900   4.93928e-06
      119.000   4.92160e-06
      119.100   4.89664e-06
      119.200   4.87909e-06
      119.300   4.86780e-06
      119.400   4.85949e-06
      119.500   4.85250e-06
      119.600   4.84108e-06
      119.700   4.82447e-06
      119.800   4.79759e-06
      119.900   4.75705e-06
      120.000   4.72077e-06
      120.100   4.68789e-06
      120.200   4.67185e-06
      120.300   4.66551e-06
      120.400   4.65898e-06
      120.500   4.63848e-06
      120.600   4.60726e-06
      120.700   4.57248e-06
      120.800   4.53979e-06
      120.900   4.52533e-06
      121.000   4.53951e-06
      121.100   4.54897e-06
      121.200   4.54433e-06
      121.300   4.52923e-06
      121.400   4.50606e-06
      121.500   4.47673e-06
      121.600   4.42384e-06
      121.700   4.38011e-06
      121.800   4.32788e-06
      121.900   4.27442e-06
      122.000   4.21512e-06
      122.100   4.15994e-06
      122.200   4.10540e-06
      122.300   4.07094e-06
      122.400   4.05837e-06
      122.500   4.05046e-06
      122.600   4.03969e-06
      122.700   4.02866e-06
      122.800   4.01252e-06
      122.900   3.99924e-06
      123.000   4.01209e-06
      123.100   4.07072e-06
      123.200   4.13280e-06
      123.300   4.21898e-06
      123.400   4.32546e-06
      123.500   4.46097e-06
      123.600   4.58118e-06
      123.700   4.65400e-06
      123.800   4.71348e-06
      123.900   4.78721e-06
      124.000   4.88402e-06
      124.100   5.05546e-06
      124.200   5.38649e-06
      124.300   5.87499e-06
      124.400   6.35101e-06
      124.500   6.50999e-06
      124.600   6.52091e-06
      124.700   6.51462e-06
      124.800   6.51004e-06
      124.900   6.50531e-06
      125.000   6.50034e-06
      125.100   6.49414e-06
      125.200   6.48777e-06
      125.300   6.48136e-06
      125.400   6.47494e-06
      125.500   6.46850e-06
      125.600   6.46202e-06
      125.700   6.45552e-06
      125.800   6.44894e-06
      125.900   6.44236e-06
      126.000   6.43572e-06
      126.100   6.42903e-06
      126.200   6.42227e-06
      126.300   6.41541e-06
      126.400   6.40847e-06
      126.500   6.40141e-06
      126.600   6.39427e-06
      126.700   6.38704e-06
      126.800   6.37971e-06
      126.900   6.37226e-06
      127.000   6.36457e-06
      127.100   6.35624e-06
      127.200   6.34763e-06
      127.300   6.33886e-06
      127.400   6.33001e-06
      127.500   6.32111e-06
      127.600   6.31217e-06
      127.700   6.30319e-06
      127.800   6.29416e-06
      127.900   6.28508e-06
      128.000   6.27600e-06
      128.100   6.26687e-06
      128.200   6.25771e-06
      128.300   6.24853e-06
      128.400   6.23931e-06
      128.500   6.23003e-06
      128.600   6.22068e-06
      128.700   6.21131e-06
      128.800   6.20187e-06
      128.900   6.19235e-06
      129.000   6.18277e-06
      129.100   6.17299e-06
      129.200   6.16273e-06
      129.300   6.15238e-06
      129.400   6.14196e-06
      129.500   6.13146e-06
      129.600   6.12090e-06
      129.700   6.11025e-06
      129.800   6.09954e-06
      129.900   6.08877e-06
      130.000   6.07795e-06
      130.100   6.06711e-06
      130.200   6.05623e-06
      130.300   6.04532e-06
      130.400   6.03441e-06
      130.500   6.02347e-06
      130.600   6.01251e-06
      130.700   6.00157e-06
      130.800   5.99064e-06
      130.900   5.97970e-06
      131.000   5.96874e-06
      131.100   5.95779e-06
      131.200   5.94678e-06
      131.300   5.93564e-06
      131.400   5.92448e-06
      131.500   5.91330e-06
      131.600   5.90208e-06
      131.700   5.89082e-06
      131.800   5.87951e-06
      131.900   5.86814e-06
      132.000   5.85671e-06
      132.100   5.84519e-06
      132.200   5.83361e-06
      132.300   5.82195e-06
      132.400   5.81021e-06
      132.500   5.79838e-06
      132.600   5.78647e-06
      132.700   5.77447e-06
      132.800   5.76240e-06
      132.900   5.75028e-06
      133.000   5.73809e-06
      133.100   5.72584e-06
      133.200   5.71355e-06
      133.300   5.70118e-06
      133.400   5.68875e-06
      133.500   5.67627e-06
      133.600   5.66376e-06
      133.700   5.65126e-06
      133.800   5.63876e-06
      133.900   5.62627e-06
      134.000   5.61378e-06
      134.100   5.60130e-06
      134.200   5.58883e-06
      134.300   5.57638e-06
      134.400   5.56394e-06
      134.500   5.55152e-06
      134.600   5.53911e-06
      134.700   5.52669e-06
      134.800   5.51428e-06
      134.900   5.50184e-06
      135.000   5.48941e-06
      135.100   5.47695e-06
      135.200   5.46448e-06
      135.300   5.45198e-06
      135.400   5.43943e-06
      135.500   5.42669e-06
      135.600   5.41378e-06
      135.700   5.40082e-06
      135.800   5.38782e-06
      135.900   5.37478e-06
      136.000   5.36170e-06
      136.100   5.34857e-06
      136.200   5.33541e-06
      136.300   5.32218e-06
      136.400   5.30891e-06
      136.500   5.29562e-06
      136.600   5.28229e-06
      136.700   5.26894e-06
      136.800   5.25556e-06
      136.900   5.24217e-06
      137.000   5.22876e-06
      137.100   5.21532e-06
      137.200   5.20186e-06
      137.300   5.18838e-06
      137.400   5.17492e-06
      137.500   5.16145e-06
      137.600   5.14795e-06
      137.700   5.13437e-06
      137.800   5.12074e-06
      137.900   5.10710e-06
      138.000   5.09345e-06
      138.100   5.07982e-06
      138.200   5.06621e-06
      138.300   5.05258e-06
      138.400   5.03896e-06
      138.500   5.02535e-06
      138.600   5.01174e-06
      138.700   4.99812e-06
      138.800   4.98452e-06
      138.900   4.97092e-06
      139.000   4.95732e-06
      139.100   4.94372e-06
      139.200   4.93013e-06
      139.300   4.91653e-06
      139.400   4.90293e-06
      139.500   4.88934e-06
      139.600   4.87573e-06
      139.700   4.86213e-06
      139.800   4.84854e-06
      139.900   4.83491e-06
      140.000   4.82123e-06
      140.100   4.80755e-06
      140.200   4.79385e-06
      140.300   4.78016e-06
      140.400   4.76646e-06
      140.500   4.75275e-06
      140.600   4.73903e-06
      140.700   4.72531e-06
      140.800   4.71158e-06
      140.900   4.69782e-06
      141.000   4.68404e-06
      141.100   4.67026e-06
      141.200   4.65648e-06
      141.300   4.64269e-06
      141.400   4.62889e-06
      141.500   4.61508e-06
      141.600   4.60126e-06
      141.700   4.58742e-06
      141.800   4.57359e-06
      141.900   4.55975e-06
      142.000   4.54592e-06
      142.100   4.53564e-06
      142.200   4.53549e-06
      142.300   4.54411e-06
      142.400   4.55267e-06
      142.500   4.56114e-06
      142.600   4.56954e-06
      142.700   4.57790e-06
      142.800   4.58618e-06
      142.900   4.59441e-06
      143.000   4.60257e-06
      143.100   4.61066e-06
      143.200   4.61869e-06
      143.300   4.62663e-06
      143.400   4.63453e-06
      143.500   4.64237e-06
      143.600   4.65014e-06
      143.700   4.65784e-06
      143.800   4.66548e-06
      143.900   4.67305e-06
      144.000   4.68054e-06
      144.100   4.68795e-06
      144.200   4.69529e-06
      144.300   4.70256e-06
      144.400   4.71078e-06
      144.500   4.73266e-06
      144.600   4.75894e-06
      144.700   4.78570e-06
      144.800   4.81244e-06
      144.900   4.83915e-06
      145.000   4.86587e-06
      145.100   4.89257e-06
      145.200   4.91927e-06
      145.300   4.94595e-06
      145.400   4.97261e-06
      145.500   4.99925e-06
      145.600   5.02584e-06
      145.700   5.05237e-06
      145.800   5.07892e-06
      145.900   5.10546e-06
      146.000   5.13196e-06
      146.100   5.15842e-06
      146.200   5.18485e-06
      146.300   5.21124e-06
      146.400   5.23758e-06
      146.500   5.26387e-06
      146.600   5.29014e-06
      146.700   5.31638e-06
      146.800   5.34225e-06
      146.900   5.36758e-06
      147.000   5.39285e-06
      147.100   5.41806e-06
      147.200   5.44324e-06
      147.300   5.46836e-06
      147.400   5.49343e-06
      147.500   5.51845e-06
      147.600   5.54339e-06
      147.700   5.56830e-06
      147.800   5.59315e-06
      147.900   5.61792e-06
      148.000   5.64263e-06
      148.100   5.66727e-06
      148.200   5.69186e-06
      148.300   5.71642e-06
      148.400   5.74093e-06
      148.500   5.76538e-06
      148.600   5.78976e-06
      148.700   5.81408e-06
      148.800   5.83831e-06
      148.900   5.86253e-06
      149.000   5.88671e-06
      149.100   5.91082e-06
      149.200   5.93484e-06
      149.300   5.95878e-06
      149.400   5.98267e-06
      149.500   6.00651e-06
      149.600   6.03028e-06
      149.700   6.05395e-06
      149.800   6.07757e-06
      149.900   6.10114e-06
      150.000   6.12464e-06
      150.100   6.14808e-06
      150.200   6.17140e-06
      150.300   6.19465e-06
      150.400   6.21782e-06
      150.500   6.24091e-06
      150.600   6.26389e-06
      150.700   6.28679e-06
      150.800   6.30956e-06
      150.900   6.33222e-06
      151.000   6.35475e-06
      151.100   6.37720e-06
      151.200   6.39951e-06
      151.300   6.42168e-06
      151.400   6.44375e-06
      151.500   6.46568e-06
      151.600   6.48763e-06
      151.700   6.50962e-06
      151.800   6.53151e-06
      151.900   6.55323e-06
      152.000   6.57479e-06
      152.100   6.59623e-06
      152.200   6.61758e-06
      152.300   6.63874e-06
      152.400   6.65976e-06
      152.500   6.68069e-06
      152.600   6.70147e-06
      152.700   6.72212e-06
      152.800   6.74263e-06
      152.900   6.76305e-06
      153.000   6.78339e-06
      153.100   6.80359e-06
      153.200   6.82370e-06
      153.300   6.84372e-06
      153.400   6.86363e-06
      153.500   6.88343e-06
      153.600   6.90315e-06
      153.700   6.92284e-06
      153.800   6.94239e-06
      153.900   6.96185e-06
      154.000   6.98283e-06
      154.100   7.00733e-06
      154.200   7.03296e-06
      154.300   7.05854e-06
      154.400   7.08408e-06
      154.500   7.10949e-06
      154.600   7.13482e-06
      154.700   7.16008e-06
      154.800   7.18524e-06
      154.900   7.21025e-06
      155.000   7.23516e-06
      155.100   7.26001e-06
      155.200   7.28467e-06
      155.300   7.30921e-06
      155.400   7.33362e-06
      155.500   7.35791e-06
      155.600   7.38201e-06
      155.700   7.40594e-06
      155.800   7.42976e-06
      155.900   7.45338e-06
      156.000   7.47684e-06
      156.100   7.50011e-06
      156.200   7.52322e-06
      156.300   7.54619e-06
      156.400   7.56895e-06
      156.500   7.59124e-06
      156.600   7.61163e-06
      156.700   7.63180e-06
      156.800   7.65176e-06
      156.900   7.67156e-06
      157.000   7.69124e-06
      157.100   7.71068e-06
      157.200   7.72997e-06
      157.300   7.74911e-06
      157.400   7.76810e-06
      157.500   7.78690e-06
      157.600   7.80554e-06
      157.700   7.82409e-06
      157.800   7.84245e-06
      157.900   7.86063e-06
      158.000   7.87870e-06
      158.100   7.89666e-06
      158.200   7.91443e-06
      158.300   7.93206e-06
      158.400   7.94958e-06
      158.500   7.96695e-06
      158.600   7.98416e-06
      158.700   8.00119e-06
      158.800   8.01815e-06
      158.900   8.03490e-06
      159.000   8.05149e-06
      159.100   8.06786e-06
      159.200   8.08410e-06
      159.300   8.10013e-06
      159.400   8.11598e-06
      159.500   8.13165e-06
      159.600   8.14718e-06
      159.700   8.16249e-06
      159.800   8.17760e-06
      159.900   8.19255e-06
      160.000   8.20726e-06
      160.100   8.22177e-06
      160.200   8.23606e-06
      160.300   8.25016e-06
      160.400   8.26408e-06
      160.500   8.27775e-06
      160.600   8.29121e-06
      160.700   8.30447e-06
      160.800   8.31750e-06
      160.900   8.33030e-06
      161.000   8.34288e-06
      161.100   8.35531e-06
      161.200   8.36749e-06
      161.300   8.37944e-06
      161.400   8.39120e-06
      161.500   8.40280e-06
      161.600   8.41412e-06
      161.700   8.42515e-06
      161.800   8.43602e-06
      161.900   8.44669e-06
      162.000   8.45712e-06
      162.100   8.46737e-06
      162.200   8.47748e-06
      162.300   8.48736e-06
      162.400   8.49706e-06
      162.500   8.50657e-06
      162.600   8.51593e-06
      162.700   8.52511e-06
      162.800   8.53407e-06
      162.900   8.54285e-06
      163.000   8.55146e-06
      163.100   8.55989e-06
      163.200   8.56810e-06
      163.300   8.57611e-06
      163.400   8.58395e-06
      163.500   8.59158e-06
      163.600   8.59899e-06
      163.700   8.60619e-06
      163.800   8.61324e-06
      163.900   8.62003e-06
      164.000   8.62658e-06
      164.100   8.63297e-06
      164.200   8.63909e-06
      164.300   8.64552e-06
      164.400   8.65172e-06
      164.500   8.65774e-06
      164.600   8.66354e-06
      164.700   8.66908e-06
      164.800   8.67440e-06
      164.900   8.67952e-06
      165.000   8.68444e-06
      165.100   8.68913e-06
      165.200   8.69359e-06
      165.300   8.69786e-06
      165.400   8.70197e-06
      165.500   8.70584e-06
      165.600   8.70950e-06
      165.700   8.71302e-06
      165.800   8.71633e-06
      165.900   8.71943e-06
      166.000   8.72238e-06
      166.100   8.72517e-06
      166.200   8.72781e-06
      166.300   8.73028e-06
      166.400   8.73253e-06
      166.500   8.73468e-06
      166.600   8.73669e-06
      166.700   8.73850e-06
      166.800   8.74009e-06
      166.900   8.74154e-06
      167.000   8.74293e-06
      167.100   8.74404e-06
      167.200   8.74498e-06
      167.300   8.74579e-06
      167.400   8.74645e-06
      167.500   8.74693e-06
      167.600   8.74725e-06
      167.700   8.74743e-06
      167.800   8.74743e-06
      167.900   8.74724e-06
      168.000   8.74687e-06
      168.100   8.74634e-06
      168.200   8.74560e-06
      168.300   8.74466e-06
      168.400   8.74352e-06
      168.500   8.74224e-06
      168.600   8.74068e-06
      168.700   8.73891e-06
      168.800   8.73692e-06
      168.900   8.73475e-06
      169.000   8.73236e-06
      169.100   8.72971e-06
      169.200   8.72686e-06
      169.300   8.72378e-06
      169.400   8.72045e-06
      169.500   8.71640e-06
      169.600   8.70991e-06
      169.700   8.70061e-06
      169.800   8.69036e-06
      169.900   8.67976e-06
      170.000   8.66886e-06
      170.100   8.65767e-06
      170.200   8.64618e-06
      170.300   1.57856e-05
      170.400   7.90136e-05
      170.500   0.000258750
      170.600   0.000544711
      170.700   0.000861207
      170.800    0.00104751
      170.900    0.00108188
      171.000    0.00107438
      171.100    0.00106681
      171.200    0.00105917
      171.300    0.00105146
      171.400    0.00104369
      171.500    0.00103585
      171.600    0.00102796
      171.700    0.00102004
      171.800    0.00101209
      171.900    0.00100414
      172.000   0.000996205
      172.100   0.000988298
      172.200   0.000980442
      172.300   0.000972628
      172.400   0.000964764
      172.500   0.000956946
      172.600   0.000949203
      172.700   0.000941540
      172.800   0.000933956
      172.900   0.000926450
      173.000   0.000919030
      173.100   0.000911694
      173.200   0.000904438
      173.300   0.000897267
      173.400   0.000890173
      173.500   0.000883161
      173.600   0.000876231
      173.700   0.000869374
      173.800   0.000862591
      173.900   0.000855882
      174.000   0.000849241
      174.100   0.000842663
      174.200   0.000836152
      174.300   0.000829701
      174.400   0.000823308
      174.500   0.000816970
      174.600   0.000810681
      174.700   0.000804446
      174.800   0.000798260
      174.900   0.000792119
      175.000   0.000786018
      175.100   0.000779956
      175.200   0.000773956
      175.300   0.000767989
      175.400   0.000762062
      175.500   0.000756177
      175.600   0.000750332
      175.700   0.000744528
      175.800   0.000738762
      175.900   0.000733038
      176.000   0.000727354
      176.100   0.000721712
      176.200   0.000716108
      176.300   0.000710542
      176.400   0.000705018
      176.500   0.000699532
      176.600   0.000694082
      176.700   0.000688670
      176.800   0.000683294
      176.900   0.000677956
      177.000   0.000672650
      177.100   0.000667377
      177.200   0.000662138
      177.300   0.000656930
      177.400   0.000651751
      177.500   0.000646600
      177.600   0.000641478
      177.700   0.000636384
      177.800   0.000631317
      177.900   0.000626268
      178.000   0.000621285
      178.100   0.000616330
      178.200   0.000611397
      178.300   0.000606490
      178.400   0.000601610
      178.500   0.000596754
      178.600   0.000591922
      178.700   0.000587113
      178.800   0.000582332
      178.900   0.000577578
      179.000   0.000572850
      179.100   0.000568147
      179.200   0.000563473
      179.300   0.000558828
      179.400   0.000554213
      179.500   0.000549629
      179.600   0.000545075
      179.700   0.000540555
      179.800   0.000536066
      179.900   0.000531611
      180.000   0.000527188
      180.100   0.000522801
      180.200   0.000518450
      180.300   0.000514135
      180.400   0.000509854
      180.500   0.000505611
      180.600   0.000501404
      180.700   0.000497234
      180.800   0.000493102
      180.900   0.000489007
      181.000   0.000484948
      181.100   0.000480928
      181.200   0.000476942
      181.300   0.000472992
      181.400   0.000469079
      181.500   0.000465201
      181.600   0.000461358
      181.700   0.000457549
      181.800   0.000453775
      181.900   0.000450036
      182.000   0.000446332
      182.100   0.000442660
      182.200   0.000439023
      182.300   0.000435419
      182.400   0.000431848
      182.500   0.000428310
      182.600   0.000424803
      182.700   0.000421329
      182.800   0.000417887
      182.900   0.000414476
      183.000   0.000411097
      183.100   0.000407749
      183.200   0.000404431
      183.300   0.000401143
      183.400   0.000397885
      183.500   0.000394657
      183.600   0.000391457
      183.700   0.000388288
      183.800   0.000385157
      183.900   0.000382057
      184.000   0.000378985
      184.100   0.000375939
      184.200   0.000372919
      184.300   0.000369924
      184.400   0.000366954
      184.500   0.000364010
      184.600   0.000361088
      184.700   0.000358190
      184.800   0.000355315
      184.900   0.000352461
      185.000   0.000349630
      185.100   0.000346818
      185.200   0.000344027
      185.300   0.000341258
      185.400   0.000338507
      185.500   0.000335776
      185.600   0.000333063
      185.700   0.000330367
      185.800   0.000327691
      185.900   0.000325033
      186.000   0.000322390
      186.100   0.000319764
      186.200   0.000317155
      186.300   0.000314562
      186.400   0.000311986
      186.500   0.000309425
      186.600   0.000306879
      186.700   0.000304348
      186.800   0.000301831
      186.900   0.000299330
      187.000   0.000296843
      187.100   0.000294371
      187.200   0.000291914
      187.300   0.000289473
      187.400   0.000287046
      187.500   0.000284634
      187.600   0.000282237
      187.700   0.000279856
      187.800   0.000277488
      187.900   0.000275136
      188.000   0.000272799
      188.100   0.000270477
      188.200   0.000268170
      188.300   0.000265877
      188.400   0.000263599
      188.500   0.000261337
      188.600   0.000259091
      188.700   0.000256859
      188.800   0.000254644
      188.900   0.000252444
      189.000   0.000250260
      189.100   0.000248091
      189.200   0.000245938
      189.300   0.000243801
      189.400   0.000241681
      189.500   0.000239576
      189.600   0.000237487
      189.700   0.000235414
      189.800   0.000233378
      189.900   0.000231360
      190.000   0.000229357
      190.100   0.000227372
      190.200   0.000225402
      190.300   0.000223449
      190.400   0.000221511
      190.500   0.000219590
      190.600   0.000217686
      190.700   0.000215797
      190.800   0.000213924
      190.900   0.000212068
      191.000   0.000210228
      191.100   0.000208404
      191.200   0.000206596
      191.300   0.000204804
      191.400   0.000203028
      191.500   0.000201267
      191.600   0.000199522
      191.700   0.000197792
      191.800   0.000196077
      191.900   0.000194377
      192.000   0.000192694
      192.100   0.000191025
      192.200   0.000189371
      192.300   0.000187732
      192.400   0.000186108
      192.500   0.000184497
      192.600   0.000182902
      192.700   0.000181320
      192.800   0.000179752
      192.900   0.000178194
      193.000   0.000176650
      193.100   0.000175120
      193.200   0.000173604
      193.300   0.000172102
      193.400   0.000170614
      193.500   0.000169140
      193.600   0.000167679
      193.700   0.000166232
      193.800   0.000164798
      193.900   0.000163378
      194.000   0.000161971
      194.100   0.000160578
      194.200   0.000159198
      194.300   0.000157832
      194.400   0.000156478
      194.500   0.000155136
      194.600   0.000153808
      194.700   0.000152492
      194.800   0.000151188
      194.900   0.000149897
      195.000   0.000148617
      195.100   0.000147349
      195.200   0.000146093
      195.300   0.000144849
      195.400   0.000143616
      195.500   0.000142394
      195.600   0.000141182
      195.700   0.000139980
      195.800   0.000138789
      195.900   0.000137606
      196.000   0.000136380
      196.100   0.000135164
      196.200   0.000133958
      196.300   0.000132762
      196.400   0.000131576
      196.500   0.000130398
      196.600   0.000129231
      196.700   0.000128072
      196.800   0.000126921
      196.900   0.000125780
      197.000   0.000124646
      197.100   0.000123521
      197.200   0.000122404
      197.300   0.000121295
      197.400   0.000120193
      197.500   0.000119099
      197.600   0.000118013
      197.700   0.000116934
      197.800   0.000115863
      197.900   0.000114798
      198.000   0.000113741
      198.100   0.000112692
      198.200   0.000111650
      198.300   0.000110615
      198.400   0.000109588
      198.500   0.000108568
      198.600   0.000107555
      198.700   0.000106550
      198.800   0.000105552
      198.900   0.000104562
      199.000   0.000103579
      199.100   0.000102603
      199.200   0.000101636
      199.300   0.000100676
      199.400   9.97234e-05
      199.500   9.87791e-05
      199.600   9.78423e-05
      199.700   9.69131e-05
      199.800   9.59916e-05
      199.900   9.50780e-05
      200.000   9.41719e-05
      200.100   9.32785e-05
      200.200   9.23879e-05
      200.300   9.15053e-05
      200.400   9.06303e-05
      200.500   8.97629e-05
      200.600   8.89030e-05
      200.700   8.80508e-05
      200.800   8.72056e-05
      200.900   8.63682e-05
      201.000   8.55384e-05
      201.100   8.47156e-05
      201.200   8.39000e-05
      201.300   8.30918e-05
      201.400   8.22911e-05
      201.500   8.14969e-05
      201.600   8.07100e-05
      201.700   7.99303e-05
      201.800   7.91571e-05
      201.900   7.83908e-05
      202.000   7.76320e-05
      202.100   7.68796e-05
      202.200   7.61341e-05
      202.300   7.54126e-05
      202.400   7.47337e-05
      202.500   7.40705e-05
      202.600   7.34117e-05
      202.700   7.27589e-05
      202.800   7.21118e-05
      202.900   7.14701e-05
      203.000   7.08344e-05
      203.100   7.02045e-05
      203.200   6.95799e-05
      203.300   6.89609e-05
      203.400   6.83476e-05
      203.500   6.77400e-05
      203.600   6.71380e-05
      203.700   6.65417e-05
      203.800   6.59512e-05
      203.900   6.53666e-05
      204.000   6.47874e-05
      204.100   6.42140e-05
      204.200   6.36465e-05
      204.300   6.30842e-05
      204.400   6.25277e-05
      204.500   6.19768e-05
      204.600   6.14313e-05
      204.700   6.08913e-05
      204.800   6.03572e-05
      204.900   5.98283e-05
      205.000   5.93048e-05
      205.100   5.87867e-05
      205.200   5.82737e-05
      205.300   5.77660e-05
      205.400   5.72635e-05
      205.500   5.67658e-05
      205.600   5.62808e-05
      205.700   5.58084e-05
      205.800   5.53413e-05
      205.900   5.48787e-05
      206.000   5.44208e-05
      206.100   5.39669e-05
      206.200   5.35170e-05
      206.300   5.30715e-05
      206.400   5.26302e-05
      206.500   5.21925e-05
      206.600   5.17588e-05
      206.700   5.13290e-05
      206.800   5.09027e-05
      206.900   5.04801e-05
      207.000   5.00612e-05
      207.100   4.96457e-05
      207.200   4.92338e-05
      207.300   4.88252e-05
      207.400   4.84198e-05
      207.500   4.80176e-05
      207.600   4.76187e-05
      207.700   4.72228e-05
      207.800   4.68300e-05
      207.900   4.64403e-05
      208.000   4.60536e-05
      208.100   4.56698e-05
      208.200   4.52890e-05
      208.300   4.49111e-05
      208.400   4.45359e-05
      208.500   4.41638e-05
      208.600   4.37942e-05
      208.700   4.34274e-05
      208.800   4.30634e-05
      208.900   4.27006e-05
      209.000   4.23353e-05
      209.100   4.19724e-05
      209.200   4.16123e-05
      209.300   4.12548e-05
      209.400   4.09003e-05
      209.500   4.05483e-05
      209.600   4.01991e-05
      209.700   3.98526e-05
      209.800   3.95089e-05
      209.900   3.91677e-05
      210.000   3.88292e-05
      210.100   3.84932e-05
      210.200   3.81599e-05
      210.300   3.78291e-05
      210.400   3.75008e-05
      210.500   3.71750e-05
      210.600   3.68517e-05
      210.700   3.65308e-05
      210.800   3.62124e-05
      210.900   3.58963e-05
      211.000   3.55826e-05
      211.100   3.52713e-05
      211.200   3.49622e-05
      211.300   3.46555e-05
      211.400   3.43512e-05
      211.500   3.40490e-05
      211.600   3.37491e-05
      211.700   3.34514e-05
      211.800   3.31558e-05
      211.900   3.28623e-05
      212.000   3.25711e-05
      212.100   3.22820e-05
      212.200   3.19948e-05
      212.300   3.17100e-05
      212.400   3.14273e-05
      212.500   3.11467e-05
      212.600   3.08682e-05
      212.700   3.05917e-05
      212.800   3.03173e-05
      212.900   3.00449e-05
      213.000   2.97745e-05
      213.100   2.95062e-05
      213.200   2.92399e-05
      213.300   2.89756e-05
      213.400   2.87134e-05
      213.500   2.84532e-05
      213.600   2.81950e-05
      213.700   2.79389e-05
      213.800   2.76847e-05
      213.900   2.74327e-05
      214.000   2.71827e-05
      214.100   2.69347e-05
      214.200   2.66889e-05
      214.300   2.64450e-05
      214.400   2.62032e-05
      214.500   2.59634e-05
      214.600   2.57258e-05
      214.700   2.54902e-05
      214.800   2.52567e-05
      214.900   2.50254e-05
      215.000   2.47959e-05
      215.100   2.45687e-05
      215.200   2.43434e-05
      215.300   2.41204e-05
      215.400   2.38993e-05
      215.500   2.36803e-05
      215.600   2.34635e-05
      215.700   2.32486e-05
      215.800   2.30356e-05
      215.900   2.28247e-05
      216.000   2.26159e-05
      216.100   2.24090e-05
      216.200   2.22041e-05
      216.300   2.20012e-05
      216.400   2.18003e-05
      216.500   2.16013e-05
      216.600   2.14043e-05
      216.700   2.12093e-05
      216.800   2.10161e-05
      216.900   2.08248e-05
      217.000   2.06353e-05
      217.100   2.04477e-05
      217.200   2.02620e-05
      217.300   2.00780e-05
      217.400   1.98958e-05
      217.500   1.97155e-05
      217.600   1.95368e-05
      217.700   1.93599e-05
      217.800   1.91847e-05
      217.900   1.90113e-05
      218.000   1.88394e-05
      218.100   1.86693e-05
      218.200   1.85007e-05
      218.300   1.83339e-05
      218.400   1.81686e-05
      218.500   1.80048e-05
      218.600   1.78427e-05
      218.700   1.76820e-05
      218.800   1.75229e-05
      218.900   1.73653e-05
      219.000   1.72092e-05
      219.100   1.70545e-05
      219.200   1.69013e-05
      219.300   1.67495e-05
      219.400   1.65991e-05
      219.500   1.64501e-05
      219.600   1.63025e-05
      219.700   1.61562e-05
      219.800   1.60114e-05
      219.900   1.58679e-05
      220.000   1.57256e-05
      220.100   1.55847e-05
      220.200   1.54450e-05
      220.300   1.53067e-05
      220.400   1.51696e-05
      220.500   1.50338e-05
      220.600   1.48993e-05
      220.700   1.47659e-05
      220.800   1.46337e-05
      220.900   1.45028e-05
      221.000   1.43730e-05
      221.100   1.42444e-05
      221.200   1.41169e-05
      221.300   1.39907e-05
      221.400   1.38655e-05
      221.500   1.37414e-05
      221.600   1.36185e-05
      221.700   1.34966e-05
      221.800   1.33758e-05
      221.900   1.32561e-05
      222.000   1.31374e-05
      222.100   1.30198e-05
      222.200   1.29032e-05
      222.300   1.27876e-05
      222.400   1.26730e-05
      222.500   1.25594e-05
      222.600   1.24468e-05
      222.700   1.23351e-05
      222.800   1.22243e-05
      222.900   1.21145e-05
      223.000   1.20056e-05
      223.100   1.18975e-05
      223.200   1.17904e-05
      223.300   1.16842e-05
      223.400   1.15789e-05
      223.500   1.14745e-05
      223.600   1.13709e-05
      223.700   1.12682e-05
      223.800   1.11663e-05
      223.900   1.10654e-05
      224.000   1.09652e-05
      224.100   1.08658e-05
      224.200   1.07672e-05
      224.300   1.06694e-05
      224.400   1.05725e-05
      224.500   1.04763e-05
      224.600   1.03808e-05
      224.700   1.02862e-05
      224.800   1.01923e-05
      224.900   1.00992e-05
      225.000   1.00068e-05
      225.100   9.91513e-06
      225.200   9.82418e-06
      225.300   9.73400e-06
      225.400   9.64451e-06
      225.500   9.55571e-06
      225.600   9.46764e-06
      225.700   9.38028e-06
      225.800   9.29358e-06
      225.900   9.20758e-06
      226.000   9.12229e-06
      226.100   9.03767e-06
      226.200   8.95379e-06
      226.300   8.87113e-06
      226.400   8.78966e-06
      226.500   8.70871e-06
      226.600   8.62821e-06
      226.700   8.54827e-06
      226.800   8.46884e-06
      226.900   8.38998e-06
      227.000   8.31176e-06
      227.100   8.23413e-06
      227.200   8.15714e-06
      227.300   8.08080e-06
      227.400   8.00507e-06
      227.500   7.92996e-06
      227.600   7.85547e-06
      227.700   7.78161e-06
      227.800   7.70836e-06
      227.900   7.63572e-06
      228.000   7.56370e-06
      228.100   7.49228e-06
      228.200   7.42145e-06
      228.300   7.35123e-06
      228.400   7.28164e-06
      228.500   7.21262e-06
      228.600   7.14421e-06
      228.700   7.07640e-06
      228.800   7.00916e-06
      228.900   6.94256e-06
      229.000   6.87653e-06
      229.100   6.81109e-06
      229.200   6.74623e-06
      229.300   6.68196e-06
      229.400   6.61828e-06
      229.500   6.55519e-06
      229.600   6.49266e-06
      229.700   6.43071e-06
      229.800   6.36933e-06
      229.900   6.30853e-06
      230.000   6.24825e-06
      230.100   6.18787e-06
      230.200   6.12807e-06
      230.300   6.06889e-06
      230.400   6.01025e-06
      230.500   5.95218e-06
      230.600   5.89467e-06
      230.700   5.83770e-06
      230.800   5.78130e-06
      230.900   5.72545e-06
      231.000   5.67013e-06
      231.100   5.61535e-06
      231.200   5.56111e-06
      231.300   5.50740e-06
      231.400   5.45425e-06
      231.500   5.40158e-06
      231.600   5.34942e-06
      231.700   5.29779e-06
      231.800   5.24668e-06
      231.900   5.19606e-06
      232.000   5.14594e-06
      232.100   5.09631e-06
      232.200   5.04718e-06
      232.300   4.99853e-06
      232.400   4.95036e-06
      232.500   4.90265e-06
      232.600   4.85542e-06
      232.700   4.80866e-06
      232.800   4.76235e-06
      232.900   4.71650e-06
      233.000   4.67109e-06
      233.100   4.62615e-06
      233.200   4.58163e-06
      233.300   4.53756e-06
      233.400   4.49392e-06
      233.500   4.45070e-06
      233.600   4.40792e-06
      233.700   4.36553e-06
      233.800   4.31943e-06
      233.900   4.27317e-06
      234.000   4.22743e-06
      234.100   4.18220e-06
      234.200   4.13747e-06
      234.300   4.09321e-06
      234.400   4.04942e-06
      234.500   4.00610e-06
      234.600   3.96325e-06
      234.700   3.92086e-06
      234.800   3.87894e-06
      234.900   3.83745e-06
      235.000   3.79641e-06
      235.100   3.75581e-06
      235.200   3.71566e-06
      235.300   3.67593e-06
      235.400   3.63662e-06
      235.500   3.59775e-06
      235.600   3.55930e-06
      235.700   3.52125e-06
      235.800   3.48363e-06
      235.900   3.44641e-06
      236.000   3.40959e-06
      236.100   3.37317e-06
      236.200   3.33713e-06
      236.300   3.30148e-06
      236.400   3.26623e-06
      236.500   3.23135e-06
      236.600   3.19684e-06
      236.700   3.16271e-06
      236.800   3.12894e-06
      236.900   3.09553e-06
      237.000   3.06248e-06
      237.100   3.02977e-06
      237.200   2.99743e-06
      237.300   2.96543e-06
      237.400   2.93377e-06
      237.500   2.90244e-06
      237.600   2.87140e-06
      237.700   2.84071e-06
      237.800   2.81034e-06
      237.900   2.78029e-06
      238.000   2.75057e-06
      238.100   2.72115e-06
      238.200   2.69204e-06
      238.300   2.66323e-06
      238.400   2.63472e-06
      238.500   2.60651e-06
      238.600   2.57859e-06
      238.700   2.55097e-06
      238.800   2.52363e-06
      238.900   2.49657e-06
      239.000   2.46978e-06
      239.100   2.44327e-06
      239.200   2.41704e-06
      239.300   2.39106e-06
      239.400   2.36537e-06
      239.500   2.33993e-06
      239.600   2.31475e-06
      239.700   2.28983e-06
      239.800   2.26516e-06
      239.900   2.24073e-06
      240.000   2.21655e-06
      240.100   2.19261e-06
      240.200   2.16890e-06
      240.300   2.14543e-06
      240.400   2.12219e-06
      240.500   2.09920e-06
      240.600   2.07643e-06
      240.700   2.05389e-06
      240.800   2.03157e-06
      240.900   2.00947e-06
      241.000   1.98760e-06
      241.100   1.96594e-06
      241.200   1.94450e-06
      241.300   1.92326e-06
      241.400   1.90224e-06
      241.500   1.88143e-06
      241.600   1.86082e-06
      241.700   1.84042e-06
      241.800   1.82022e-06
      241.900   1.80021e-06
      242.000   1.78042e-06
      242.100   1.76082e-06
      242.200   1.74142e-06
      242.300   1.72222e-06
      242.400   1.70321e-06
      242.500   1.68439e-06
      242.600   1.66576e-06
      242.700   1.64732e-06
      242.800   1.62907e-06
      242.900   1.61100e-06
      243.000   1.59312e-06
      243.100   1.57542e-06
      243.200   1.55789e-06
      243.300   1.54055e-06
      243.400   1.52340e-06
      243.500   1.50641e-06
      243.600   1.48961e-06
      243.700   1.47298e-06
      243.800   1.45652e-06
      243.900   1.44024e-06
      244.000   1.42412e-06
      244.100   1.40818e-06
      244.200   1.39240e-06
      244.300   1.37678e-06
      244.400   1.36133e-06
      244.500   1.34604e-06
      244.600   1.33091e-06
      244.700   1.31595e-06
      244.800   1.30115e-06
      244.900   1.28650e-06
      245.000   1.27200e-06
      245.100   1.25767e-06
      245.200   1.24348e-06
      245.300   1.22945e-06
      245.400   1.21556e-06
      245.500   1.20183e-06
      245.600   1.18824e-06
      245.700   1.17480e-06
      245.800   1.16149e-06
      245.900   1.14834e-06
      246.000   1.13534e-06
      246.100   1.12247e-06
      246.200   1.10974e-06
      246.300   1.09714e-06
      246.400   1.08469e-06
      246.500   1.07236e-06
      246.600   1.06018e-06
      246.700   1.04812e-06
      246.800   1.03619e-06
      246.900   1.02439e-06
      247.000   1.01273e-06
      247.100   1.00119e-06
      247.200   9.89782e-07
      247.300   9.78497e-07
      247.400   9.67334e-07
      247.500   9.56293e-07
      247.600   9.45372e-07
      247.700   9.34572e-07
      247.800   9.23891e-07
      247.900   9.13324e-07
      248.000   9.02876e-07
      248.100   8.92554e-07
      248.200   8.82343e-07
      248.300   8.72243e-07
      248.400   8.62256e-07
      248.500   8.52376e-07
      248.600   8.42608e-07
      248.700   8.32950e-07
      248.800   8.23399e-07
      248.900   8.13957e-07
      249.000   8.04619e-07
      249.100   7.95388e-07
      249.200   7.86265e-07
      249.300   7.77243e-07
      249.400   7.68323e-07
      249.500   7.59505e-07
      249.600   7.50784e-07
      249.700   7.42162e-07
      249.800   7.33638e-07
      249.900   7.25211e-07
      250.000   7.16882e-07
      250.100   7.08652e-07
      250.200   7.00510e-07
      250.300   6.92468e-07
      250.400   6.84518e-07
      250.500   6.76659e-07
      250.600   6.68892e-07
      250.700   6.61212e-07
      250.800   6.53621e-07
      250.900   6.46117e-07
      251.000   6.38700e-07
      251.100   6.31368e-07
      251.200   6.24123e-07
      251.300   6.16965e-07
      251.400   6.09891e-07
      251.500   6.02895e-07
      251.600   5.95982e-07
      251.700   5.89151e-07
      251.800   5.82398e-07
      251.900   5.75723e-07
      252.000   5.69124e-07
      252.100   5.62605e-07
      252.200   5.56158e-07
      252.300   5.49791e-07
      252.400   5.43494e-07
      252.500   5.37274e-07
      252.600   5.31124e-07
      252.700   5.25046e-07
      252.800   5.19038e-07
      252.900   5.13099e-07
      253.000   5.07229e-07
      253.100   5.01427e-07
      253.200   4.95692e-07
      253.300   4.90233e-07
      253.400   4.84933e-07
      253.500   4.79693e-07
      253.600   4.74512e-07
      253.700   4.69385e-07
      253.800   4.64317e-07
      253.900   4.59303e-07
      254.000   4.54342e-07
      254.100   4.49434e-07
      254.200   4.44579e-07
      254.300   4.39777e-07
      254.400   4.35026e-07
      254.500   4.30326e-07
      254.600   4.25676e-07
      254.700   4.21077e-07
      254.800   4.16529e-07
      254.900   4.12028e-07
      255.000   4.07575e-07
      255.100   4.03167e-07
      255.200   3.98807e-07
      255.300   3.94494e-07
      255.400   3.90225e-07
      255.500   3.86003e-07
      255.600   3.81825e-07
      255.700   3.77691e-07
      255.800   3.73600e-07
      255.900   3.69552e-07
      256.000   3.65545e-07
      256.100   3.61583e-07
      256.200   3.57661e-07
      256.300   3.53779e-07
      256.400   3.49942e-07
      256.500   3.46141e-07
      256.600   3.42382e-07
      256.700   3.38662e-07
      256.800   3.34979e-07
      256.900   3.31335e-07
      257.000   3.27730e-07
      257.100   3.24161e-07
      257.200   3.20631e-07
      257.300   3.17138e-07
      257.400   3.13767e-07
      257.500   3.10464e-07
      257.600   3.07197e-07
      257.700   3.03962e-07
      257.800   3.00759e-07
      257.900   2.97590e-07
      258.000   2.94452e-07
      258.100   2.91345e-07
      258.200   2.88269e-07
      258.300   2.85226e-07
      258.400   2.82212e-07
      258.500   2.79227e-07
      258.600   2.76274e-07
      258.700   2.73350e-07
      258.800   2.70455e-07
      258.900   2.67591e-07
      259.000   2.64754e-07
      259.100   2.61947e-07
      259.200   2.59166e-07
      259.300   2.56416e-07
      259.400   2.53693e-07
      259.500   2.50996e-07
      259.600   2.48328e-07
      259.700   2.45688e-07
      259.800   2.43072e-07
      259.900   2.40482e-07
      260.000   2.37920e-07
      260.100   2.35384e-07
      260.200   2.32873e-07
      260.300   2.30388e-07
      260.400   2.27928e-07
      260.500   2.25493e-07
      260.600   2.23082e-07
      260.700   2.20696e-07
      260.800   2.18335e-07
      260.900   2.15997e-07
      261.000   2.13683e-07
      261.100   2.11393e-07
      261.200   2.09125e-07
      261.300   2.06881e-07
      261.400   2.04660e-07
      261.500   2.02472e-07
      261.600   2.00337e-07
      261.700   1.98229e-07
      261.800   1.96142e-07
      261.900   1.94075e-07
      262.000   1.92029e-07
      262.100   1.90003e-07
      262.200   1.87998e-07
      262.300   1.86012e-07
      262.400   1.84046e-07
      262.500   1.82100e-07
      262.600   1.80173e-07
      262.700   1.78265e-07
      262.800   1.76376e-07
      262.900   1.74506e-07
      263.000   1.72656e-07
      263.100   1.70823e-07
      263.200   1.69009e-07
      263.300   1.67212e-07
      263.400   1.65434e-07
      263.500   1.63674e-07
      263.600   1.61931e-07
      263.700   1.60206e-07
      263.800   1.58497e-07
      263.900   1.56807e-07
      264.000   1.55133e-07
      264.100   1.53476e-07
      264.200   1.51835e-07
      264.300   1.50212e-07
      264.400   1.48605e-07
      264.500   1.47013e-07
      264.600   1.45438e-07
      264.700   1.43879e-07
      264.800   1.42335e-07
      264.900   1.40807e-07
      265.000   1.39295e-07
      265.100   1.37798e-07
      265.200   1.36316e-07
      265.300   1.34849e-07
      265.400   1.33398e-07
      265.500   1.31961e-07
      265.600   1.30539e-07
      265.700   1.29131e-07
      265.800   1.27741e-07
      265.900   1.26364e-07
      266.000   1.25003e-07
      266.100   1.23655e-07
      266.200   1.22321e-07
      266.300   1.21001e-07
      266.400   1.19694e-07
      266.500   1.18401e-07
      266.600   1.17121e-07
      266.700   1.15855e-07
      266.800   1.14602e-07
      266.900   1.13362e-07
      267.000   1.12135e-07
      267.100   1.10920e-07
      267.200   1.09719e-07
      267.300   1.08530e-07
      267.400   1.07353e-07
      267.500   1.06189e-07
      267.600   1.05037e-07
      267.700   1.03897e-07
      267.800   1.02769e-07
      267.900   1.01653e-07
      268.000   1.00549e-07
      268.100   9.94567e-08
      268.200   9.83761e-08
      268.300   9.73073e-08
      268.400   9.62491e-08
      268.500   9.52022e-08
      268.600   9.41665e-08
      268.700   9.31421e-08
      268.800   9.21284e-08
      268.900   9.11259e-08
      269.000   9.01342e-08
      269.100   8.91527e-08
      269.200   8.81823e-08
      269.300   8.72221e-08
      269.400   8.62716e-08
      269.500   8.53316e-08
      269.600   8.44021e-08
      269.700   8.34826e-08
      269.800   8.25730e-08
      269.900   8.16730e-08
      270.000   8.07830e-08
      270.100   7.99048e-08
      270.200   7.90372e-08
      270.300   7.81790e-08
      270.400   7.73297e-08
      270.500   7.64899e-08
      270.600   7.56588e-08
      270.700   7.48370e-08
      270.800   7.40242e-08
      270.900   7.32196e-08
      271.000   7.24242e-08
      271.100   7.16373e-08
      271.200   7.08585e-08
      271.300   7.00887e-08
      271.400   6.93268e-08
      271.500   6.85735e-08
      271.600   6.78278e-08
      271.700   6.70905e-08
      271.800   6.63613e-08
      271.900   6.56398e-08
      272.000   6.49264e-08
      272.100   6.42203e-08
      272.200   6.35222e-08
      272.300   6.28312e-08
      272.400   6.21478e-08
      272.500   6.14720e-08
      272.600   6.08033e-08
      272.700   6.01418e-08
      272.800   5.94875e-08
      272.900   5.88404e-08
      273.000   5.82003e-08
      273.100   5.75669e-08
      273.200   5.69403e-08
      273.300   5.63208e-08
      273.400   5.57077e-08
      273.500   5.51013e-08
      273.600   5.45014e-08
      273.700   5.39079e-08
      273.800   5.33207e-08
      273.900   5.27403e-08
      274.000   5.21658e-08
      274.100   5.15975e-08
      274.200   5.10353e-08
      274.300   5.04792e-08
      274.400   4.99138e-08
      274.500   4.93139e-08
      274.600   4.87140e-08
      274.700   4.81219e-08
      274.800   4.75365e-08
      274.900   4.69581e-08
      275.000   4.63866e-08
      275.100   4.58219e-08
      275.200   4.52640e-08
      275.300   4.47125e-08
      275.400   4.41678e-08
      275.500   4.36297e-08
      275.600   4.30975e-08
      275.700   4.25720e-08
      275.800   4.20528e-08
      275.900   4.15396e-08
      276.000   4.10325e-08
      276.100   4.05315e-08
      276.200   4.00363e-08
      276.300   3.95470e-08
      276.400   3.90636e-08
      276.500   3.85857e-08
      276.600   3.81138e-08
      276.700   3.76473e-08
      276.800   3.71865e-08
      276.900   3.67310e-08
      277.000   3.62810e-08
      277.100   3.58362e-08
      277.200   3.53968e-08
      277.300   3.49627e-08
      277.400   3.45337e-08
      277.500   3.41096e-08
      277.600   3.36908e-08
      277.700   3.32768e-08
      277.800   3.28677e-08
      277.900   3.24636e-08
      278.000   3.20643e-08
      278.100   3.16698e-08
      278.200   3.12798e-08
      278.300   3.08947e-08
      278.400   3.05141e-08
      278.500   3.01379e-08
      278.600   2.97661e-08
      278.700   2.93989e-08
      278.800   2.90360e-08
      278.900   2.86747e-08
      279.000   2.83168e-08
      279.100   2.79633e-08
      279.200   2.76139e-08
      279.300   2.72689e-08
      279.400   2.69279e-08
      279.500   2.65911e-08
      279.600   2.62583e-08
      279.700   2.59297e-08
      279.800   2.56049e-08
      279.900   2.52839e-08
      280.000   2.49669e-08
      280.100   2.46536e-08
      280.200   2.43443e-08
      280.300   2.40386e-08
      280.400   2.37365e-08
      280.500   2.34383e-08
      280.600   2.31436e-08
      280.700   2.28524e-08
      280.800   2.25648e-08
      280.900   2.22806e-08
      281.000   2.19999e-08
      281.100   2.17226e-08
      281.200   2.14486e-08
      281.300   2.11779e-08
      281.400   2.09106e-08
      281.500   2.06465e-08
      281.600   2.03855e-08
      281.700   2.01277e-08
      281.800   1.98732e-08
      281.900   1.96216e-08
      282.000   1.93730e-08
      282.100   1.91275e-08
      282.200   1.88852e-08
      282.300   1.86457e-08
      282.400   1.84091e-08
      282.500   1.81753e-08
      282.600   1.79444e-08
      282.700   1.77164e-08
      282.800   1.74910e-08
      282.900   1.72686e-08
      283.000   1.70487e-08
      283.100   1.68316e-08
      283.200   1.66171e-08
      283.300   1.64053e-08
      283.400   1.61961e-08
      283.500   1.59895e-08
      283.600   1.57853e-08
      283.700   1.55835e-08
      283.800   1.53843e-08
      283.900   1.51876e-08
      284.000   1.49933e-08
      284.100   1.48013e-08
      284.200   1.46117e-08
      284.300   1.44245e-08
      284.400   1.42395e-08
      284.500   1.40568e-08
      284.600   1.38764e-08
      284.700   1.36982e-08
      284.800   1.35222e-08
      284.900   1.33484e-08
      285.000   1.31767e-08
      285.100   1.30071e-08
      285.200   1.28397e-08
      285.300   1.26742e-08
      285.400   1.25108e-08
      285.500   1.23495e-08
      285.600   1.21902e-08
      285.700   1.20328e-08
      285.800   1.18775e-08
      285.900   1.17240e-08
      286.000   1.15724e-08
      286.100   1.14228e-08
      286.200   1.12749e-08
      286.300   1.11290e-08
      286.400   1.09849e-08
      286.500   1.08426e-08
      286.600   1.07020e-08
      286.700   1.05632e-08
      286.800   1.04261e-08
      286.900   1.02907e-08
      287.000   1.01571e-08
      287.100   1.00251e-08
      287.200   9.89473e-09
      287.300   9.76603e-09
      287.400   9.63891e-09
      287.500   9.51340e-09
      287.600   9.38948e-09
      287.700   9.26708e-09
      287.800   9.14626e-09
      287.900   9.02698e-09
      288.000   8.90922e-09
      288.100   8.79289e-09
      288.200   8.67810e-09
      288.300   8.56478e-09
      288.400   8.45283e-09
      288.500   8.34236e-09
      288.600   8.23320e-09
      288.700   8.12547e-09
      288.800   8.01909e-09
      288.900   7.91411e-09
      289.000   7.81042e-09
      289.100   7.70803e-09
      289.200   7.60698e-09
      289.300   7.50719e-09
      289.400   7.40865e-09
      289.500   7.31139e-09
      289.600   7.21534e-09
      289.700   7.12059e-09
      289.800   7.02697e-09
      289.900   6.93454e-09
      290.000   6.84333e-09
      290.100   6.75325e-09
      290.200   6.66437e-09
      290.300   6.57661e-09
      290.400   6.48998e-09
      290.500   6.40449e-09
      290.600   6.32004e-09
      290.700   6.23669e-09
      290.800   6.15446e-09
      290.900   6.07324e-09
      291.000   5.99303e-09
      291.100   5.91385e-09
      291.200   5.83572e-09
      291.300   5.75858e-09
      291.400   5.68244e-09
      291.500   5.60728e-09
      291.600   5.53306e-09
      291.700   5.45985e-09
      291.800   5.38755e-09
      291.900   5.31622e-09
      292.000   5.24580e-09
      292.100   5.17627e-09
      292.200   5.10768e-09
      292.300   5.03993e-09
      292.400   4.97307e-09
      292.500   4.90705e-09
      292.600   4.84189e-09
      292.700   4.77759e-09
      292.800   4.71412e-09
      292.900   4.65148e-09
      293.000   4.58965e-09
      293.100   4.52860e-09
      293.200   4.46834e-09
      293.300   4.40887e-09
      293.400   4.35020e-09
      293.500   4.29227e-09
      293.600   4.23510e-09
      293.700   4.17866e-09
      293.800   4.12296e-09
      293.900   4.06801e-09
      294.000   4.01374e-09
      294.100   3.96019e-09
      294.200   3.90735e-09
      294.300   3.85520e-09
      294.400   3.80368e-09
      294.500   3.75286e-09
      294.600   3.70269e-09
      294.700   3.65319e-09
      294.800   3.60433e-09
      294.900   3.55610e-09
      295.000   3.50851e-09
      295.100   3.46156e-09
      295.200   3.41521e-09
      295.300   3.36946e-09
      295.400   3.32432e-09
      295.500   3.27978e-09
      295.600   3.23580e-09
      295.700   3.19240e-09
      295.800   3.14958e-09
      295.900   3.10729e-09
      296.000   3.06556e-09
      296.100   3.02437e-09
      296.200   2.98374e-09
      296.300   2.94363e-09
      296.400   2.90408e-09
      296.500   2.86503e-09
      296.600   2.82648e-09
      296.700   2.78845e-09
      296.800   2.75092e-09
      296.900   2.71387e-09
      297.000   2.67731e-09
      297.100   2.64124e-09
      297.200   2.60563e-09
      297.300   2.57049e-09
      297.400   2.53581e-09
      297.500   2.50158e-09
      297.600   2.46781e-09
      297.700   2.43448e-09
      297.800   2.40159e-09
      297.900   2.36914e-09
      298.000   2.33713e-09
      298.100   2.30553e-09
      298.200   2.27434e-09
      298.300   2.24358e-09
      298.400   2.21320e-09
      298.500   2.18323e-09
      298.600   2.15364e-09
      298.700   2.12446e-09
      298.800   2.09564e-09
      298.900   2.06724e-09
      299.000   2.03921e-09
      299.100   2.01155e-09
      299.200   1.98424e-09
      299.300   1.95730e-09
      299.400   1.93072e-09
      299.500   1.90448e-09
      299.600   1.87860e-09
      299.700   1.85305e-09
      299.800   1.82783e-09
      299.900   1.80297e-09
      300.000   1.77842e-09
      300.100   1.75420e-09
      300.192   1.73221e-09
      300.285   1.71024e-09
      300.377   1.68878e-09
      300.470   1.66737e-09
      300.562   1.64644e-09
      300.654   1.62576e-09
      300.747   1.60511e-09
      300.839   1.58494e-09
      300.932   1.56479e-09
      301.025   1.54490e-09
      301.117   1.52547e-09
      301.210   1.50606e-09
      301.303   1.48689e-09
      301.395   1.46818e-09
      301.488   1.44947e-09
      301.581   1.43102e-09
      301.674   1.41278e-09
      301.766   1.39496e-09
      301.859   1.37717e-09
      301.952   1.35961e-09
      302.045   1.34225e-09
      302.138   1.32515e-09
      302.231   1.30831e-09
      302.324   1.29169e-09
      302.417   1.27527e-09
      302.510   1.25904e-09
      302.603   1.24303e-09
      302.696   1.22721e-09
      302.789   1.21159e-09
      302.882   1.19615e-09
      302.976   1.18075e-09
      303.069   1.16570e-09
      303.162   1.15084e-09
      303.255   1.13616e-09
      303.349   1.12151e-09
      303.442   1.10718e-09
      303.535   1.09305e-09
      303.629   1.07894e-09
      303.722   1.06516e-09
      303.816   1.05140e-09
      303.909   1.03795e-09
      304.003   1.02453e-09
      304.096   1.01141e-09
      304.190   9.98323e-10
      304.283   9.85534e-10
      304.377   9.72780e-10
      304.471   9.60173e-10
      304.564   9.47859e-10
      304.658   9.35577e-10
      304.752   9.23433e-10
      304.846   9.11456e-10
      304.939   8.99750e-10
      305.033   8.88064e-10
      305.127   8.76528e-10
      305.221   8.65138e-10
      305.315   8.53892e-10
      305.409   8.42786e-10
      305.503   8.31822e-10
      305.597   8.20997e-10
      305.691   8.10306e-10
      305.785   7.99748e-10
      305.879   7.89324e-10
      305.973   7.79038e-10
      306.067   7.68874e-10
      306.161   7.58846e-10
      306.255   7.48942e-10
      306.350   7.39059e-10
      306.444   7.29405e-10
      306.538   7.19872e-10
      306.633   7.10366e-10
      306.727   7.01074e-10
      306.821   6.91900e-10
      306.916   6.82749e-10
      307.010   6.73815e-10
      307.105   6.64907e-10
      307.199   6.56205e-10
      307.294   6.47521e-10
      307.388   6.39040e-10
      307.483   6.30581e-10
      307.577   6.22315e-10
      307.672   6.14069e-10
      307.767   6.05931e-10
      307.861   5.97982e-10
      307.956   5.90045e-10
      308.051   5.82214e-10
      308.146   5.74486e-10
      308.240   5.66939e-10
      308.335   5.59407e-10
      308.430   5.51968e-10
      308.525   5.44628e-10
      308.620   5.37386e-10
      308.715   5.30235e-10
      308.810   5.23178e-10
      308.905   5.16211e-10
      309.000   5.09335e-10
      309.095   5.02549e-10
      309.190   4.95853e-10
      309.285   4.89240e-10
      309.380   4.82713e-10
      309.476   4.76208e-10
      309.571   4.69851e-10
      309.666   4.63575e-10
      309.761   4.57383e-10
      309.857   4.51208e-10
      309.952   4.45176e-10
      310.047   4.39225e-10
      310.143   4.33288e-10
      310.238   4.27491e-10
      310.334   4.21710e-10
      310.429   4.16061e-10
      310.525   4.10432e-10
      310.620   4.04933e-10
      310.716   3.99447e-10
      310.811   3.94092e-10
      310.907   3.88754e-10
      311.003   3.83485e-10
      311.098   3.78337e-10
      311.194   3.73204e-10
      311.290   3.68141e-10
      311.386   3.63146e-10
      311.481   3.58265e-10
      311.577   3.53401e-10
      311.673   3.48599e-10
      311.769   3.43861e-10
      311.865   3.39189e-10
      311.961   3.34602e-10
      312.057   3.30188e-10
      312.153   3.25875e-10
      312.249   3.21613e-10
      312.345   3.17406e-10
      312.441   3.13251e-10
      312.537   3.09150e-10
      312.633   3.05103e-10
      312.730   3.01064e-10
      312.826   2.97120e-10
      312.922   2.93227e-10
      313.018   2.89384e-10
      313.115   2.85551e-10
      313.211   2.81805e-10
      313.307   2.78108e-10
      313.404   2.74421e-10
      313.500   2.70818e-10
      313.597   2.67228e-10
      313.693   2.63720e-10
      313.790   2.60220e-10
      313.886   2.56802e-10
      313.983   2.53391e-10
      314.079   2.50059e-10
      314.176   2.46738e-10
      314.273   2.43459e-10
      314.369   2.40257e-10
      314.466   2.37064e-10
      314.563   2.33911e-10
      314.660   2.30801e-10
      314.756   2.27761e-10
      314.853   2.24730e-10
      314.950   2.21739e-10
      315.047   2.18787e-10
      315.144   2.15872e-10
      315.241   2.12997e-10
      315.338   2.10158e-10
      315.435   2.07357e-10
      315.532   2.04593e-10
      315.629   2.01865e-10
      315.726   1.99173e-10
      315.823   1.96514e-10
      315.921   1.93866e-10
      316.018   1.91278e-10
      316.115   1.88724e-10
      316.212   1.86203e-10
      316.310   1.83690e-10
      316.407   1.81235e-10
      316.504   1.78812e-10
      316.602   1.76397e-10
      316.699   1.74038e-10
      316.796   1.71710e-10
      316.894   1.69389e-10
      316.991   1.67131e-10
      317.089   1.64938e-10
      317.187   1.62809e-10
      317.284   1.60725e-10
      317.382   1.58646e-10
      317.479   1.56613e-10
      317.577   1.54586e-10
      317.675   1.52586e-10
      317.773   1.50610e-10
      317.870   1.48679e-10
      317.968   1.46752e-10
      318.066   1.44850e-10
      318.164   1.42972e-10
      318.262   1.41119e-10
      318.360   1.39288e-10
      318.458   1.37481e-10
      318.556   1.35698e-10
      318.654   1.33937e-10
      318.752   1.32198e-10
      318.850   1.30481e-10
      318.948   1.28786e-10
      319.046   1.27113e-10
      319.144   1.25460e-10
      319.242   1.23829e-10
      319.341   1.22203e-10
      319.439   1.20613e-10
      319.537   1.19044e-10
      319.635   1.17495e-10
      319.734   1.15949e-10
      319.832   1.14440e-10
      319.930   1.12948e-10
      320.029   1.11462e-10
      320.127   1.10009e-10
      320.226   1.08561e-10
      320.324   1.07144e-10
      320.423   1.05731e-10
      320.522   1.04338e-10
      320.620   1.02977e-10
      320.719   1.01618e-10
      320.818   1.00278e-10
      320.916   9.89675e-11
      321.015   9.76606e-11
      321.114   9.63707e-11
      321.213   9.50973e-11
      321.311   9.38534e-11
      321.410   9.26132e-11
      321.509   9.13882e-11
      321.608   9.01798e-11
      321.707   8.89866e-11
      321.806   8.78085e-11
      321.905   8.66461e-11
      322.004   8.54983e-11
      322.103   8.43659e-11
      322.202   8.32476e-11
      322.301   8.21441e-11
      322.401   8.10442e-11
      322.500   7.99693e-11
      322.599   7.89084e-11
      322.698   7.78612e-11
      322.798   7.68171e-11
      322.897   7.57967e-11
      322.996   7.47898e-11
      323.096   7.37854e-11
      323.195   7.28043e-11
      323.294   7.18360e-11
      323.394   7.08710e-11
      323.493   6.99277e-11
      323.593   6.89873e-11
      323.692   6.80685e-11
      323.792   6.71528e-11
      323.892   6.62488e-11
      323.991   6.53651e-11
      324.091   6.44849e-11
      324.191   6.36158e-11
      324.291   6.27582e-11
      324.390   6.19206e-11
      324.490   6.10851e-11
      324.590   6.02609e-11
      324.690   5.94476e-11
      324.790   5.86448e-11
      324.890   5.78528e-11
      324.990   5.70708e-11
      325.090   5.62990e-11
      325.190   5.55377e-11
      325.290   5.47868e-11
      325.390   5.40447e-11
      325.490   5.33133e-11
      325.590   5.25915e-11
      325.690   5.18787e-11
      325.790   5.11754e-11
      325.891   5.04747e-11
      325.991   4.97901e-11
      326.091   4.91142e-11
      326.192   4.84409e-11
      326.292   4.77830e-11
      326.392   4.71339e-11
      326.493   4.64870e-11
      326.593   4.58548e-11
      326.694   4.52253e-11
      326.794   4.46099e-11
      326.895   4.39966e-11
      326.995   4.33973e-11
      327.096   4.28004e-11
      327.197   4.22114e-11
      327.297   4.16358e-11
      327.398   4.10622e-11
      327.499   4.04965e-11
      327.599   3.99435e-11
      327.700   3.93925e-11
      327.801   3.88489e-11
      327.902   3.83129e-11
      328.003   3.77838e-11
      328.104   3.72617e-11
      328.205   3.67468e-11
      328.306   3.62387e-11
      328.407   3.57375e-11
      328.508   3.52429e-11
      328.609   3.47549e-11
      328.710   3.42736e-11
      328.811   3.37988e-11
      328.912   3.33303e-11
      329.013   3.28681e-11
      329.115   3.24078e-11
      329.216   3.19580e-11
      329.317   3.15142e-11
      329.419   3.10725e-11
      329.520   3.06406e-11
      329.621   3.02145e-11
      329.723   2.97900e-11
      329.824   2.93759e-11
      329.926   2.89630e-11
      330.027   2.85596e-11
      330.129   2.81579e-11
      330.230   2.77656e-11
      330.332   2.73746e-11
      330.434   2.69892e-11
      330.535   2.66125e-11
      330.637   2.62373e-11
      330.739   2.58674e-11
      330.840   2.55060e-11
      330.942   2.51459e-11
      331.044   2.47909e-11
      331.146   2.44408e-11
      331.248   2.40954e-11
      331.350   2.37548e-11
      331.452   2.34195e-11
      331.554   2.31013e-11
      331.656   2.28070e-11
      331.758   2.25164e-11
      331.860   2.22292e-11
      331.962   2.19457e-11
      332.064   2.16655e-11
      332.166   2.13890e-11
      332.268   2.11157e-11
      332.371   2.08434e-11
      332.473   2.05768e-11
      332.575   2.03134e-11
      332.677   2.00535e-11
      332.780   1.97943e-11
      332.882   1.95407e-11
      332.985   1.92879e-11
      333.087   1.90405e-11
      333.190   1.87939e-11
      333.292   1.85471e-11
      333.395   1.82862e-11
      333.497   1.80258e-11
      333.600   1.77664e-11
      333.702   1.75131e-11
      333.805   1.72611e-11
      333.908   1.70123e-11
      334.011   1.67671e-11
      334.113   1.65277e-11
      334.216   1.62892e-11
      334.319   1.60542e-11
      334.422   1.58224e-11
      334.525   1.55939e-11
      334.628   1.53686e-11
      334.731   1.51466e-11
      334.834   1.49277e-11
      334.937   1.47118e-11
      335.040   1.44988e-11
      335.143   1.42890e-11
      335.246   1.40821e-11
      335.349   1.38782e-11
      335.452   1.36771e-11
      335.555   1.34789e-11
      335.659   1.32815e-11
      335.762   1.30889e-11
      335.865   1.28990e-11
      335.969   1.27100e-11
      336.072   1.25253e-11
      336.175   1.23435e-11
      336.279   1.21624e-11
      336.382   1.19857e-11
      336.486   1.18097e-11
      336.589   1.16379e-11
      336.693   1.14670e-11
      336.796   1.13002e-11
      336.900   1.11341e-11
      337.004   1.09703e-11
      337.107   1.08105e-11
      337.211   1.06514e-11
      337.315   1.04948e-11
      337.419   1.03403e-11
      337.523   1.01880e-11
      337.626   1.00394e-11
      337.730   9.89150e-12
      337.834   9.74570e-12
      337.938   9.60208e-12
      338.042   9.46105e-12
      338.146   9.32446e-12
      338.250   9.18998e-12
      338.354   9.05739e-12
      338.458   8.92660e-12
      338.562   8.79769e-12
      338.667   8.66946e-12
      338.771   8.54418e-12
      338.875   8.42071e-12
      338.979   8.29896e-12
      339.084   8.17792e-12
      339.188   8.05966e-12
      339.292   7.94312e-12
      339.397   7.82709e-12
      339.501   7.71389e-12
      339.606   7.60112e-12
      339.710   7.49110e-12
      339.815   7.38158e-12
      339.919   7.27472e-12
      340.024   7.16828e-12
      340.128   7.06450e-12
      340.233   6.96110e-12
      340.338   6.85930e-12
      340.442   6.75983e-12
      340.547   6.66090e-12
      340.652   6.56336e-12
      340.757   6.46725e-12
      340.862   6.37252e-12
      340.966   6.28007e-12
      341.071   6.18806e-12
      341.176   6.09739e-12
      341.281   6.00800e-12
      341.386   5.91997e-12
      341.491   5.83313e-12
      341.596   5.74763e-12
      341.702   5.66255e-12
      341.807   5.57947e-12
      341.912   5.49762e-12
      342.017   5.41695e-12
      342.122   5.33742e-12
      342.228   5.25838e-12
      342.333   5.18117e-12
      342.438   5.10510e-12
      342.544   5.02946e-12
      342.649   4.95558e-12
      342.754   4.88283e-12
      342.860   4.81041e-12
      342.965   4.73968e-12
      343.071   4.66943e-12
      343.176   4.60082e-12
      343.282   4.53253e-12
      343.388   4.46530e-12
      343.493   4.40016e-12
      343.599   4.33995e-12
      343.705   4.28100e-12
      343.810   4.22333e-12
      343.916   4.16595e-12
      344.022   4.10933e-12
      344.128   4.05348e-12
      344.234   3.99835e-12
      344.340   3.94399e-12
      344.446   3.89034e-12
      344.552   3.83741e-12
      344.658   3.78523e-12
      344.764   3.73377e-12
      344.870   3.68294e-12
      344.976   3.63285e-12
      345.082   3.58340e-12
      345.188   3.53466e-12
      345.294   3.48652e-12
      345.401   3.43862e-12
      345.507   3.39180e-12
      345.613   3.34563e-12
      345.719   3.30007e-12
      345.826   3.25471e-12
      345.932   3.21037e-12
      346.039   3.16624e-12
      346.145   3.12309e-12
      346.252   3.08015e-12
      346.358   3.03816e-12
      346.465   2.99639e-12
      346.571   2.95555e-12
      346.678   2.91487e-12
      346.785   2.87475e-12
      346.891   2.83556e-12
      346.998   2.79654e-12
      347.105   2.75805e-12
      347.212   2.72008e-12
      347.319   2.68262e-12
      347.425   2.64600e-12
      347.532   2.60955e-12
      347.639   2.57361e-12
      347.746   2.53815e-12
      347.853   2.50316e-12
      347.960   2.46866e-12
      348.067   2.43464e-12
      348.174   2.40109e-12
      348.281   2.36797e-12
      348.389   2.33502e-12
      348.496   2.30280e-12
      348.603   2.27106e-12
      348.710   2.23972e-12
      348.818   2.20853e-12
      348.925   2.17803e-12
      349.032   2.14797e-12
      349.140   2.11792e-12
      349.247   2.08853e-12
      349.355   2.05930e-12
      349.462   2.03073e-12
      349.570   2.00225e-12
      349.677   1.97446e-12
      349.785   1.94678e-12
      349.892   1.91974e-12
      350.000   1.89283e-12
      350.100   1.86824e-12
      350.193   1.84566e-12
      350.287   1.82309e-12
      350.380   1.80104e-12
      350.473   1.77926e-12
      350.567   1.75748e-12
      350.660   1.73621e-12
      350.754   1.71497e-12
      350.847   1.69422e-12
      350.941   1.67348e-12
      351.034   1.65321e-12
      351.128   1.63297e-12
      351.221   1.61319e-12
      351.315   1.59342e-12
      351.409   1.57389e-12
      351.502   1.55481e-12
      351.596   1.53576e-12
      351.690   1.51691e-12
      351.783   1.49852e-12
      351.877   1.48014e-12
      351.971   1.46198e-12
      352.065   1.44404e-12
      352.159   1.42631e-12
      352.252   1.40898e-12
      352.346   1.39167e-12
      352.440   1.37457e-12
      352.534   1.35770e-12
      352.628   1.34100e-12
      352.722   1.32451e-12
      352.816   1.30822e-12
      352.910   1.29214e-12
      353.004   1.27625e-12
      353.098   1.26054e-12
      353.192   1.24501e-12
      353.287   1.22952e-12
      353.381   1.21437e-12
      353.475   1.19941e-12
      353.569   1.18462e-12
      353.663   1.17002e-12
      353.758   1.15545e-12
      353.852   1.14120e-12
      353.946   1.12712e-12
      354.041   1.11306e-12
      354.135   1.09932e-12
      354.229   1.08573e-12
      354.324   1.07218e-12
      354.418   1.05893e-12
      354.513   1.04570e-12
      354.607   1.03277e-12
      354.702   1.01980e-12
      354.796   1.00686e-12
      354.891   9.93915e-13
      354.985   9.81276e-13
      355.080   9.68659e-13
      355.175   9.56194e-13
      355.269   9.44017e-13
      355.364   9.31862e-13
      355.459   9.19866e-13
      355.553   9.08134e-13
      355.648   8.96434e-13
      355.743   8.84883e-13
      355.838   8.73460e-13
      355.933   8.62197e-13
      356.027   8.51185e-13
      356.122   8.40190e-13
      356.217   8.29337e-13
      356.312   8.18628e-13
      356.407   8.08043e-13
      356.502   7.97595e-13
      356.597   7.87274e-13
      356.692   7.77086e-13
      356.787   7.67026e-13
      356.882   7.57085e-13
      356.977   7.47281e-13
      357.073   7.37495e-13
      357.168   7.27925e-13
      357.263   7.18482e-13
      357.358   7.09156e-13
      357.453   6.99949e-13
      357.549   6.90764e-13
      357.644   6.81788e-13
      357.739   6.72929e-13
      357.835   6.64081e-13
      357.930   6.55441e-13
      358.025   6.46909e-13
      358.121   6.38398e-13
      358.216   6.30080e-13
      358.312   6.21780e-13
      358.407   6.13674e-13
      358.503   6.05586e-13
      358.598   5.97687e-13
      358.694   5.89801e-13
      358.790   5.82015e-13
      358.885   5.74406e-13
      358.981   5.66819e-13
      359.076   5.59408e-13
      359.172   5.52015e-13
      359.268   5.44708e-13
      359.364   5.37497e-13
      359.459   5.30460e-13
      359.555   5.23433e-13
      359.651   5.16495e-13
      359.747   5.09647e-13
      359.843   5.02887e-13
      359.939   4.96212e-13
      360.035   4.89627e-13
      360.131   4.83127e-13
      360.227   4.76702e-13
      360.323   4.70366e-13
      360.419   4.64112e-13
      360.515   4.57939e-13
      360.611   4.51841e-13
      360.707   4.45817e-13
      360.803   4.39882e-13
      360.899   4.34015e-13
      360.995   4.28230e-13
      361.092   4.22457e-13
      361.188   4.16815e-13
      361.284   4.11248e-13
      361.380   4.05753e-13
      361.477   4.00272e-13
      361.573   3.94917e-13
      361.669   3.89633e-13
      361.766   3.84360e-13
      361.862   3.79213e-13
      361.959   3.74080e-13
      362.055   3.69059e-13
      362.152   3.64060e-13
      362.248   3.59174e-13
      362.345   3.54298e-13
      362.441   3.49540e-13
      362.538   3.44795e-13
      362.635   3.40111e-13
      362.731   3.35534e-13
      362.828   3.30970e-13
      362.925   3.26467e-13
      363.021   3.22067e-13
      363.118   3.17683e-13
      363.215   3.13353e-13
      363.312   3.09080e-13
      363.409   3.04865e-13
      363.505   3.00748e-13
      363.602   2.96640e-13
      363.699   2.92589e-13
      363.796   2.88590e-13
      363.893   2.84644e-13
      363.990   2.80750e-13
      364.087   2.76908e-13
      364.184   2.73116e-13
      364.281   2.69374e-13
      364.378   2.65682e-13
      364.475   2.62039e-13
      364.573   2.58406e-13
      364.670   2.54859e-13
      364.767   2.51360e-13
      364.864   2.47906e-13
      364.961   2.44498e-13
      365.059   2.41101e-13
      365.156   2.37785e-13
      365.253   2.34511e-13
      365.351   2.31248e-13
      365.448   2.28061e-13
      365.545   2.24918e-13
      365.643   2.21783e-13
      365.740   2.18722e-13
      365.838   2.15672e-13
      365.935   2.12694e-13
      366.033   2.09725e-13
      366.130   2.06825e-13
      366.228   2.03936e-13
      366.326   2.01086e-13
      366.423   1.98303e-13
      366.521   1.95530e-13
      366.618   1.92819e-13
      366.716   1.90119e-13
      366.814   1.87457e-13
      366.912   1.84831e-13
      367.010   1.82239e-13
      367.107   1.79708e-13
      367.205   1.77185e-13
      367.303   1.74698e-13
      367.401   1.72244e-13
      367.499   1.69823e-13
      367.597   1.67435e-13
      367.695   1.65081e-13
      367.793   1.62759e-13
      367.891   1.60468e-13
      367.989   1.58207e-13
      368.087   1.55978e-13
      368.185   1.53780e-13
      368.283   1.51611e-13
      368.381   1.49471e-13
      368.480   1.47340e-13
      368.578   1.45260e-13
      368.676   1.43208e-13
      368.774   1.41185e-13
      368.873   1.39169e-13
      368.971   1.37201e-13
      369.069   1.35259e-13
      369.168   1.33324e-13
      369.266   1.31436e-13
      369.364   1.29574e-13
      369.463   1.27719e-13
      369.561   1.25909e-13
      369.660   1.24105e-13
      369.758   1.22344e-13
      369.857   1.20590e-13
      369.955   1.18878e-13
      370.054   1.17172e-13
      370.153   1.15489e-13
      370.251   1.13848e-13
      370.350   1.12213e-13
      370.449   1.10601e-13
      370.547   1.09027e-13
      370.646   1.07458e-13
      370.745   1.05913e-13
      370.844   1.04388e-13
      370.943   1.02886e-13
      371.041   1.01419e-13
      371.140   9.99577e-14
      371.239   9.85167e-14
      371.338   9.70969e-14
      371.437   9.56970e-14
      371.536   9.43168e-14
      371.635   9.29553e-14
      371.734   9.16136e-14
      371.833   9.02910e-14
      371.932   8.89870e-14
      372.032   8.76883e-14
      372.131   8.64204e-14
      372.230   8.51715e-14
      372.329   8.39402e-14
      372.428   8.27258e-14
      372.528   8.15171e-14
      372.627   8.03378e-14
      372.726   7.91749e-14
      372.826   7.80171e-14
      372.925   7.68870e-14
      373.024   7.57728e-14
      373.124   7.46633e-14
      373.223   7.35813e-14
      373.323   7.25041e-14
      373.422   7.14523e-14
      373.522   7.04051e-14
      373.621   6.93840e-14
      373.721   6.83669e-14
      373.820   6.73745e-14
      373.920   6.63864e-14
      374.020   6.54117e-14
      374.119   6.44618e-14
      374.219   6.35153e-14
      374.319   6.25832e-14
      374.419   6.16649e-14
      374.518   6.07679e-14
      374.618   5.98753e-14
      374.718   5.89947e-14
      374.818   5.81282e-14
      374.918   5.72743e-14
      375.018   5.64320e-14
      375.118   5.56024e-14
      375.218   5.47842e-14
      375.318   5.39785e-14
      375.418   5.31838e-14
      375.518   5.24016e-14
      375.618   5.16306e-14
      375.718   5.08703e-14
      375.818   5.01213e-14
      375.918   4.93831e-14
      376.019   4.86489e-14
      376.119   4.79321e-14
      376.219   4.72260e-14
      376.319   4.65299e-14
      376.420   4.58376e-14
      376.520   4.51620e-14
      376.620   4.44965e-14
      376.721   4.38337e-14
      376.821   4.31875e-14
      376.922   4.25443e-14
      377.022   4.19167e-14
      377.122   4.12985e-14
      377.223   4.06833e-14
      377.323   4.00833e-14
      377.424   3.94859e-14
      377.525   3.88975e-14
      377.625   3.83235e-14
      377.726   3.77523e-14
      377.827   3.71896e-14
      377.927   3.66404e-14
      378.028   3.60943e-14
      378.129   3.55561e-14
      378.230   3.50261e-14
      378.330   3.45100e-14
      378.431   3.39966e-14
      378.532   3.34912e-14
      378.633   3.29927e-14
      378.734   3.25017e-14
      378.835   3.20181e-14
      378.936   3.15416e-14
      379.037   3.10723e-14
      379.138   3.06097e-14
      379.239   3.01539e-14
      379.340   2.97053e-14
      379.441   2.92631e-14
      379.542   2.88273e-14
      379.643   2.83982e-14
      379.745   2.79713e-14
      379.846   2.75547e-14
      379.947   2.71443e-14
      380.048   2.67402e-14
      380.150   2.63380e-14
      380.251   2.59456e-14
      380.352   2.55593e-14
      380.454   2.51750e-14
      380.555   2.48000e-14
      380.656   2.44305e-14
      380.758   2.40629e-14
      380.859   2.37045e-14
      380.961   2.33480e-14
      381.062   2.30002e-14
      381.164   2.26541e-14
      381.266   2.23133e-14
      381.367   2.19808e-14
      381.469   2.16502e-14
      381.570   2.13277e-14
      381.672   2.10068e-14
      381.774   2.06907e-14
      381.876   2.03793e-14
      381.977   2.00757e-14
      382.079   1.97736e-14
      382.181   1.94761e-14
      382.283   1.91832e-14
      382.385   1.88945e-14
      382.487   1.86100e-14
      382.589   1.83300e-14
      382.691   1.80542e-14
      382.793   1.77825e-14
      382.895   1.75150e-14
      382.997   1.72513e-14
      383.099   1.69917e-14
      383.201   1.67360e-14
      383.303   1.64841e-14
      383.405   1.62360e-14
      383.507   1.59915e-14
      383.610   1.57486e-14
      383.712   1.55115e-14
      383.814   1.52781e-14
      383.916   1.50482e-14
      384.019   1.48195e-14
      384.121   1.45964e-14
      384.223   1.43766e-14
      384.326   1.41582e-14
      384.428   1.39449e-14
      384.531   1.37328e-14
      384.633   1.35259e-14
      384.736   1.33201e-14
      384.838   1.31193e-14
      384.941   1.29197e-14
      385.043   1.27250e-14
      385.146   1.25314e-14
      385.249   1.23407e-14
      385.351   1.21547e-14
      385.454   1.19697e-14
      385.557   1.17876e-14
      385.660   1.16082e-14
      385.762   1.14333e-14
      385.865   1.12593e-14
      385.968   1.10878e-14
      386.071   1.09190e-14
      386.174   1.07528e-14
      386.277   1.05891e-14
      386.380   1.04279e-14
      386.483   1.02691e-14
      386.586   1.01128e-14
      386.689   9.95885e-15
      386.792   9.80719e-15
      386.895   9.65785e-15
      386.998   9.51077e-15
      387.101   9.36595e-15
      387.204   9.22318e-15
      387.308   9.08133e-15
      387.411   8.94296e-15
      387.514   8.80668e-15
      387.617   8.67252e-15
      387.721   8.53913e-15
      387.824   8.40900e-15
      387.927   8.28074e-15
      388.031   8.15329e-15
      388.134   8.02901e-15
      388.238   7.90549e-15
      388.341   7.78490e-15
      388.445   7.66504e-15
      388.548   7.54807e-15
      388.652   7.43186e-15
      388.755   7.31851e-15
      388.859   7.20576e-15
      388.962   7.09582e-15
      389.066   6.98644e-15
      389.170   6.87885e-15
      389.274   6.77282e-15
      389.377   6.66941e-15
      389.481   6.56653e-15
      389.585   6.46531e-15
      389.689   6.36559e-15
      389.793   6.26736e-15
      389.897   6.17072e-15
      390.000   6.07639e-15
      390.104   5.98265e-15
      390.208   5.89027e-15
      390.312   5.79935e-15
      390.416   5.70978e-15
      390.520   5.62148e-15
      390.625   5.53368e-15
      390.729   5.44815e-15
      390.833   5.36386e-15
      390.937   5.28086e-15
      391.041   5.19916e-15
      391.145   5.11870e-15
      391.250   5.03868e-15
      391.354   4.96068e-15
      391.458   4.88386e-15
      391.563   4.80746e-15
      391.667   4.73298e-15
      391.771   4.65964e-15
      391.876   4.58669e-15
      391.980   4.51556e-15
      392.085   4.44484e-15
      392.189   4.37589e-15
      392.294   4.30732e-15
      392.398   4.24047e-15
      392.503   4.17399e-15
      392.607   4.10917e-15
      392.712   4.04473e-15
      392.817   3.98125e-15
      392.921   3.91939e-15
      393.026   3.85785e-15
      393.131   3.79730e-15
      393.236   3.73762e-15
      393.340   3.67945e-15
      393.445   3.62164e-15
      393.550   3.56471e-15
      393.655   3.50864e-15
      393.760   3.45345e-15
      393.865   3.39909e-15
      393.970   3.34562e-15
      394.075   3.29291e-15
      394.180   3.24106e-15
      394.285   3.18999e-15
      394.390   3.13972e-15
      394.495   3.09019e-15
      394.600   3.04145e-15
      394.706   2.99301e-15
      394.811   2.94578e-15
      394.916   2.89924e-15
      395.021   2.85343e-15
      395.126   2.80837e-15
      395.232   2.76353e-15
      395.337   2.71982e-15
      395.443   2.67639e-15
      395.548   2.63403e-15
      395.653   2.59234e-15
      395.759   2.55088e-15
      395.864   2.51047e-15
      395.970   2.47030e-15
      396.075   2.43112e-15
      396.181   2.39218e-15
      396.286   2.35419e-15
      396.392   2.31649e-15
      396.498   2.27935e-15
      396.603   2.24310e-15
      396.709   2.20711e-15
      396.815   2.17166e-15
      396.921   2.13676e-15
      397.026   2.10276e-15
      397.132   2.06894e-15
      397.238   2.03568e-15
      397.344   2.00290e-15
      397.450   1.97070e-15
      397.556   1.93894e-15
      397.662   1.90770e-15
      397.768   1.87696e-15
      397.874   1.84669e-15
      397.980   1.81689e-15
      398.086   1.78755e-15
      398.192   1.75869e-15
      398.298   1.73027e-15
      398.404   1.70229e-15
      398.510   1.67475e-15
      398.617   1.64742e-15
      398.723   1.62075e-15
      398.829   1.59448e-15
      398.935   1.56864e-15
      399.042   1.54297e-15
      399.148   1.51793e-15
      399.255   1.49307e-15
      399.361   1.46883e-15
      399.467   1.44494e-15
      399.574   1.42125e-15
      399.680   1.39812e-15
      399.787   1.37515e-15
      399.893       0.00000
      400.000       0.00000
