Filter Al-poly
observation_date 22Sept2020
wavelength effective area
      1.00000   2.78457e-10
      1.10000   7.94912e-10
      1.20000   2.06647e-09
      1.30000   4.94130e-09
      1.40000   1.12121e-08
      1.50000   2.39196e-08
      1.60000   4.84224e-08
      1.70000   9.40051e-08
      1.80000   1.75011e-07
      1.90000   3.14549e-07
      2.00000   5.46840e-07
      2.10000   9.23641e-07
      2.20000   1.52300e-06
      2.30000   2.44824e-06
      2.40000   3.84365e-06
      2.50000   5.87417e-06
      2.60000   8.96464e-06
      2.70000   1.33657e-05
      2.80000   1.95463e-05
      2.90000   2.82915e-05
      3.00000   4.03106e-05
      3.10000   5.66981e-05
      3.20000   7.88778e-05
      3.30000   0.000108619
      3.40000   0.000148017
      3.50000   0.000199757
      3.60000   0.000268344
      3.70000   0.000356658
      3.80000   0.000472080
      3.90000   0.000621399
      4.00000   0.000812870
      4.10000    0.00105843
      4.20000    0.00137327
      4.30000    0.00177673
      4.40000    0.00229265
      4.50000    0.00295030
      4.60000    0.00378395
      4.70000    0.00485310
      4.80000    0.00621813
      4.90000    0.00786480
      5.00000     0.0102098
      5.10000     0.0130674
      5.20000     0.0167749
      5.30000     0.0213527
      5.40000     0.0271370
      5.50000     0.0345495
      5.60000     0.0426387
      5.70000     0.0554397
      5.80000     0.0650144
      5.90000     0.0992983
      6.00000      0.133527
      6.10000      0.170722
      6.20000      0.209741
      6.30000      0.247000
      6.40000      0.279021
      6.50000      0.302662
      6.60000      0.313458
      6.70000      0.323421
      6.80000      0.324040
      6.90000      0.425374
      7.00000      0.462887
      7.10000      0.489880
      7.20000      0.511450
      7.30000      0.529195
      7.40000      0.542887
      7.50000      0.553914
      7.60000      0.562385
      7.70000      0.566805
      7.80000      0.566060
      7.90000      0.566007
      8.00000      0.955381
      8.10000       1.05129
      8.20000       1.07414
      8.30000       1.09235
      8.40000       1.10653
      8.50000       1.11915
      8.60000       1.12987
      8.70000       1.13938
      8.80000       1.14732
      8.90000       1.15422
      9.00000       1.15999
      9.10000       1.16467
      9.20000       1.16848
      9.30000       1.17129
      9.40000       1.17326
      9.50000       1.17446
      9.60000       1.17481
      9.70000       1.17442
      9.80000       1.17343
      9.90000       1.17186
      10.0000       1.16978
      10.1000       1.16720
      10.2000       1.16413
      10.3000       1.16053
      10.4000       1.15642
      10.5000       1.15182
      10.6000       1.14678
      10.7000       1.14130
      10.8000       1.13541
      10.9000       1.12912
      11.0000       1.12244
      11.1000       1.11542
      11.2000       1.10805
      11.3000       1.10037
      11.4000       1.09236
      11.5000       1.08401
      11.6000       1.07534
      11.7000       1.06625
      11.8000       1.05685
      11.9000       1.04695
      12.0000       1.03546
      12.1000       1.02760
      12.2000       1.03768
      12.3000       1.03690
      12.4000       1.02842
      12.5000       1.01914
      12.6000       1.00945
      12.7000      0.999510
      12.8000      0.989375
      12.9000      0.979057
      13.0000      0.968612
      13.1000      0.958075
      13.2000      0.947472
      13.3000      0.936822
      13.4000      0.926151
      13.5000      0.915618
      13.6000      0.905194
      13.7000      0.894769
      13.8000      0.884333
      13.9000      0.873924
      14.0000      0.863538
      14.1000      0.853145
      14.2000      0.842748
      14.3000      0.832338
      14.4000      0.821884
      14.5000      0.811400
      14.6000      0.800867
      14.7000      0.790300
      14.8000      0.779708
      14.9000      0.769095
      15.0000      0.758476
      15.1000      0.747875
      15.2000      0.737293
      15.3000      0.726735
      15.4000      0.716205
      15.5000      0.705713
      15.6000      0.695303
      15.7000      0.684934
      15.8000      0.674661
      15.9000      0.664480
      16.0000      0.654384
      16.1000      0.644385
      16.2000      0.634505
      16.3000      0.624691
      16.4000      0.614949
      16.5000      0.605272
      16.6000      0.595652
      16.7000      0.586088
      16.8000      0.576582
      16.9000      0.567135
      17.0000      0.557749
      17.1000      0.548420
      17.2000      0.539143
      17.3000      0.529931
      17.4000      0.520921
      17.5000      0.512142
      17.6000      0.503532
      17.7000      0.495159
      17.8000      0.487147
      17.9000      0.479218
      18.0000      0.471301
      18.1000      0.463426
      18.2000      0.455540
      18.3000      0.447613
      18.4000      0.439598
      18.5000      0.431526
      18.6000      0.423386
      18.7000      0.415114
      18.8000      0.406902
      18.9000      0.398755
      19.0000      0.390670
      19.1000      0.382688
      19.2000      0.374799
      19.3000      0.367027
      19.4000      0.359377
      19.5000      0.351836
      19.6000      0.344462
      19.7000      0.337190
      19.8000      0.330015
      19.9000      0.322978
      20.0000      0.316019
      20.1000      0.309144
      20.2000      0.302336
      20.3000      0.295593
      20.4000      0.288939
      20.5000      0.282336
      20.6000      0.275787
      20.7000      0.269314
      20.8000      0.262895
      20.9000      0.256517
      21.0000      0.250205
      21.1000      0.243965
      21.2000      0.237725
      21.3000      0.231536
      21.4000      0.225416
      21.5000      0.219298
      21.6000      0.213175
      21.7000      0.207059
      21.8000      0.200974
      21.9000      0.194665
      22.0000      0.188341
      22.1000      0.181896
      22.2000      0.175060
      22.3000      0.167900
      22.4000      0.158037
      22.5000      0.147407
      22.6000      0.125601
      22.7000      0.114744
      22.8000      0.156773
      22.9000      0.209359
      23.0000      0.267385
      23.1000      0.304837
      23.2000      0.322151
      23.3000      0.326061
      23.4000      0.322990
      23.5000      0.319482
      23.6000      0.315883
      23.7000      0.311416
      23.8000      0.306904
      23.9000      0.302272
      24.0000      0.297636
      24.1000      0.292788
      24.2000      0.287965
      24.3000      0.283134
      24.4000      0.278315
      24.5000      0.273464
      24.6000      0.268650
      24.7000      0.263873
      24.8000      0.259128
      24.9000      0.254412
      25.0000      0.249742
      25.1000      0.245122
      25.2000      0.240544
      25.3000      0.236011
      25.4000      0.231528
      25.5000      0.227108
      25.6000      0.222747
      25.7000      0.218458
      25.8000      0.214214
      25.9000      0.210038
      26.0000      0.205902
      26.1000      0.201826
      26.2000      0.197790
      26.3000      0.193828
      26.4000      0.189901
      26.5000      0.186038
      26.6000      0.182209
      26.7000      0.178455
      26.8000      0.174748
      26.9000      0.171090
      27.0000      0.167469
      27.1000      0.163868
      27.2000      0.160294
      27.3000      0.157119
      27.4000      0.154428
      27.5000      0.151635
      27.6000      0.148510
      27.7000      0.145411
      27.8000      0.142284
      27.9000      0.139185
      28.0000      0.136159
      28.1000      0.133169
      28.2000      0.130244
      28.3000      0.127373
      28.4000      0.124548
      28.5000      0.121788
      28.6000      0.119060
      28.7000      0.116445
      28.8000      0.113855
      28.9000      0.111327
      29.0000      0.108833
      29.1000      0.106385
      29.2000      0.103985
      29.3000      0.101615
      29.4000     0.0993076
      29.5000     0.0970238
      29.6000     0.0947982
      29.7000     0.0926042
      29.8000     0.0904517
      29.9000     0.0883469
      30.0000     0.0862652
      30.1000     0.0842461
      30.2000     0.0822478
      30.3000     0.0835457
      30.4000     0.0866892
      30.5000     0.0887019
      30.6000     0.0866717
      30.7000     0.0846625
      30.8000     0.0827063
      30.9000     0.0807802
      31.0000     0.0788869
      31.1000     0.0770414
      31.2000     0.0752154
      31.3000     0.0734419
      31.4000     0.0716944
      31.5000     0.0699782
      31.6000     0.0683068
      31.7000     0.0666535
      31.8000     0.0650490
      31.9000     0.0634696
      32.0000     0.0619172
      32.1000     0.0604098
      32.2000     0.0589190
      32.3000     0.0574709
      32.4000     0.0560504
      32.5000     0.0546527
      32.6000     0.0533265
      32.7000     0.0520191
      32.8000     0.0507438
      32.9000     0.0494974
      33.0000     0.0482650
      33.1000     0.0471101
      33.2000     0.0459809
      33.3000     0.0448732
      33.4000     0.0437964
      33.5000     0.0427319
      33.6000     0.0416963
      33.7000     0.0406841
      33.8000     0.0396829
      33.9000     0.0387174
      34.0000     0.0377657
      34.1000     0.0368336
      34.2000     0.0359279
      34.3000     0.0350318
      34.4000     0.0341568
      34.5000     0.0333059
      34.6000     0.0324642
      34.7000     0.0316327
      34.8000     0.0308109
      34.9000     0.0299981
      35.0000     0.0292178
      35.1000     0.0284487
      35.2000     0.0276908
      35.3000     0.0269635
      35.4000     0.0262443
      35.5000     0.0255402
      35.6000     0.0248610
      35.7000     0.0241896
      35.8000     0.0235360
      35.9000     0.0229025
      36.0000     0.0222762
      36.1000     0.0216699
      36.2000     0.0210797
      36.3000     0.0204963
      36.4000     0.0199340
      36.5000     0.0193847
      36.6000     0.0188418
      36.7000     0.0183208
      36.8000     0.0178103
      36.9000     0.0173058
      37.0000     0.0168232
      37.1000     0.0163493
      37.2000     0.0158809
      37.3000     0.0154342
      37.4000     0.0149949
      37.5000     0.0145609
      37.6000     0.0141474
      37.7000     0.0137406
      37.8000     0.0133387
      37.9000     0.0129563
      38.0000     0.0125803
      38.1000     0.0122087
      38.2000     0.0118550
      38.3000     0.0115077
      38.4000     0.0111647
      38.5000     0.0108376
      38.6000     0.0105172
      38.7000     0.0102009
      38.8000    0.00989840
      38.9000    0.00960340
      39.0000    0.00931205
      39.1000    0.00903245
      39.2000    0.00876118
      39.3000    0.00849331
      39.4000    0.00823479
      39.5000    0.00798560
      39.6000    0.00773956
      39.7000    0.00750055
      39.8000    0.00727214
      39.9000    0.00704662
      40.0000    0.00682570
      40.1000    0.00661653
      40.2000    0.00641003
      40.3000    0.00620619
      40.4000    0.00601447
      40.5000    0.00582567
      40.6000    0.00563930
      40.7000    0.00546206
      40.8000    0.00528964
      40.9000    0.00511947
      41.0000    0.00495555
      41.1000    0.00479832
      41.2000    0.00464317
      41.3000    0.00449165
      41.4000    0.00434875
      41.5000    0.00420772
      41.6000    0.00406856
      41.7000    0.00393771
      41.8000    0.00380951
      41.9000    0.00368302
      42.0000    0.00356207
      42.1000    0.00344586
      42.2000    0.00333121
      42.3000    0.00321923
      42.4000    0.00311395
      42.5000    0.00301009
      42.6000    0.00290763
      42.7000    0.00281114
      42.8000    0.00271718
      42.9000    0.00262449
      43.0000    0.00253509
      43.1000    0.00245026
      43.2000    0.00236659
      43.3000    0.00228407
      43.4000    0.00722307
      43.5000     0.0164570
      43.6000     0.0343205
      43.7000     0.0584599
      43.8000     0.0759103
      43.9000     0.0791145
      44.0000     0.0768508
      44.1000     0.0695103
      44.2000     0.0678353
      44.3000     0.0666493
      44.4000     0.0654869
      44.5000     0.0643544
      44.6000     0.0632256
      44.7000     0.0621003
      44.8000     0.0610177
      44.9000     0.0599442
      45.0000     0.0588741
      45.1000     0.0578203
      45.2000     0.0568006
      45.3000     0.0557842
      45.4000     0.0547711
      45.5000     0.0537899
      45.6000     0.0528252
      45.7000     0.0518638
      45.8000     0.0509070
      45.9000     0.0499929
      46.0000     0.0490817
      46.1000     0.0481734
      46.2000     0.0473228
      46.3000     0.0465691
      46.4000     0.0458178
      46.5000     0.0450690
      46.6000     0.0443566
      46.7000     0.0436636
      46.8000     0.0429729
      46.9000     0.0422843
      47.0000     0.0416442
      47.1000     0.0410094
      47.2000     0.0403766
      47.3000     0.0397509
      47.4000     0.0391510
      47.5000     0.0385531
      47.6000     0.0379570
      47.7000     0.0373717
      47.8000     0.0368021
      47.9000     0.0362343
      48.0000     0.0356684
      48.1000     0.0351169
      48.2000     0.0345769
      48.3000     0.0340387
      48.4000     0.0335021
      48.5000     0.0329823
      48.6000     0.0324701
      48.7000     0.0319596
      48.8000     0.0314506
      48.9000     0.0309608
      49.0000     0.0304759
      49.1000     0.0299927
      49.2000     0.0295110
      49.3000     0.0290493
      49.4000     0.0285907
      49.5000     0.0281335
      49.6000     0.0276777
      49.7000     0.0272422
      49.8000     0.0268085
      49.9000     0.0263762
      50.0000     0.0259457
      50.1000     0.0255308
      50.2000     0.0251274
      50.3000     0.0247291
      50.4000     0.0243365
      50.5000     0.0239499
      50.6000     0.0235689
      50.7000     0.0231933
      50.8000     0.0228224
      50.9000     0.0224573
      51.0000     0.0220983
      51.1000     0.0217450
      51.2000     0.0213965
      51.3000     0.0210530
      51.4000     0.0207151
      51.5000     0.0203818
      51.6000     0.0200529
      51.7000     0.0197285
      51.8000     0.0194066
      51.9000     0.0190892
      52.0000     0.0187766
      52.1000     0.0184690
      52.2000     0.0181653
      52.3000     0.0178657
      52.4000     0.0175712
      52.5000     0.0172811
      52.6000     0.0169946
      52.7000     0.0167119
      52.8000     0.0164330
      52.9000     0.0161586
      53.0000     0.0158886
      53.1000     0.0156224
      53.2000     0.0153605
      53.3000     0.0151023
      53.4000     0.0148479
      53.5000     0.0145975
      53.6000     0.0143504
      53.7000     0.0141069
      53.8000     0.0138673
      53.9000     0.0136313
      54.0000     0.0133993
      54.1000     0.0131713
      54.2000     0.0129462
      54.3000     0.0127242
      54.4000     0.0125058
      54.5000     0.0122908
      54.6000     0.0120792
      54.7000     0.0118710
      54.8000     0.0116660
      54.9000     0.0114641
      55.0000     0.0112655
      55.1000     0.0110698
      55.2000     0.0108676
      55.3000     0.0106598
      55.4000     0.0104553
      55.5000     0.0102541
      55.6000     0.0100566
      55.7000    0.00986253
      55.8000    0.00967163
      55.9000    0.00948410
      56.0000    0.00930105
      56.1000    0.00911764
      56.2000    0.00893442
      56.3000    0.00875481
      56.4000    0.00857828
      56.5000    0.00840466
      56.6000    0.00823406
      56.7000    0.00806674
      56.8000    0.00790238
      56.9000    0.00774126
      57.0000    0.00758338
      57.1000    0.00742838
      57.2000    0.00727590
      57.3000    0.00712592
      57.4000    0.00697894
      57.5000    0.00683480
      57.6000    0.00669325
      57.7000    0.00655420
      57.8000    0.00641796
      57.9000    0.00628425
      58.0000    0.00615298
      58.1000    0.00602408
      58.2000    0.00589785
      58.3000    0.00577400
      58.4000    0.00565233
      58.5000    0.00553283
      58.6000    0.00541574
      58.7000    0.00530101
      58.8000    0.00518848
      58.9000    0.00507799
      59.0000    0.00496952
      59.1000    0.00486320
      59.2000    0.00475886
      59.3000    0.00465657
      59.4000    0.00455638
      59.5000    0.00445831
      59.6000    0.00436211
      59.7000    0.00426760
      59.8000    0.00417483
      59.9000    0.00408387
      60.0000    0.00399492
      60.1000    0.00390773
      60.2000    0.00382225
      60.3000    0.00373842
      60.4000    0.00365621
      60.5000    0.00357576
      60.6000    0.00349685
      60.7000    0.00341944
      60.8000    0.00334357
      60.9000    0.00326917
      61.0000    0.00319629
      61.1000    0.00312489
      61.2000    0.00305494
      61.3000    0.00298645
      61.4000    0.00291936
      61.5000    0.00285362
      61.6000    0.00278924
      61.7000    0.00272616
      61.8000    0.00266470
      61.9000    0.00260465
      62.0000    0.00254584
      62.1000    0.00248828
      62.2000    0.00243203
      62.3000    0.00237691
      62.4000    0.00232288
      62.5000    0.00226993
      62.6000    0.00221805
      62.7000    0.00216722
      62.8000    0.00211766
      62.9000    0.00206918
      63.0000    0.00202172
      63.1000    0.00197527
      63.2000    0.00192976
      63.3000    0.00188518
      63.4000    0.00184150
      63.5000    0.00179881
      63.6000    0.00175704
      63.7000    0.00171616
      63.8000    0.00167618
      63.9000    0.00163706
      64.0000    0.00159877
      64.1000    0.00156129
      64.2000    0.00152465
      64.3000    0.00148881
      64.4000    0.00145375
      64.5000    0.00141945
      64.6000    0.00138588
      64.7000    0.00135301
      64.8000    0.00132085
      64.9000    0.00128937
      65.0000    0.00125859
      65.1000    0.00122855
      65.2000    0.00119920
      65.3000    0.00117048
      65.4000    0.00114240
      65.5000    0.00111490
      65.6000    0.00108798
      65.7000    0.00106166
      65.8000    0.00103595
      65.9000    0.00101084
      66.0000   0.000986315
      66.1000   0.000962385
      66.2000   0.000938992
      66.3000   0.000916107
      66.4000   0.000893711
      66.5000   0.000871804
      66.6000   0.000850388
      66.7000   0.000829471
      66.8000   0.000809051
      66.9000   0.000789222
      67.0000   0.000769960
      67.1000   0.000751142
      67.2000   0.000732744
      67.3000   0.000714775
      67.4000   0.000697212
      67.5000   0.000680055
      67.6000   0.000663295
      67.7000   0.000646922
      67.8000   0.000630902
      67.9000   0.000615209
      68.0000   0.000599937
      68.1000   0.000585093
      68.2000   0.000570586
      68.3000   0.000556424
      68.4000   0.000542603
      68.5000   0.000529110
      68.6000   0.000515927
      68.7000   0.000503042
      68.8000   0.000490448
      68.9000   0.000478271
      69.0000   0.000467114
      69.1000   0.000457642
      69.2000   0.000449165
      69.3000   0.000440928
      69.4000   0.000433004
      69.5000   0.000425023
      69.6000   0.000416910
      69.7000   0.000409101
      69.8000   0.000401634
      69.9000   0.000394305
      70.0000   0.000387096
      70.1000   0.000379910
      70.2000   0.000373327
      70.3000   0.000367331
      70.4000   0.000361406
      70.5000   0.000355632
      70.6000   0.000349994
      70.7000   0.000344443
      70.8000   0.000338969
      70.9000   0.000333426
      71.0000   0.000327830
      71.1000   0.000322482
      71.2000   0.000317374
      71.3000   0.000312046
      71.4000   0.000306440
      71.5000   0.000301226
      71.6000   0.000296567
      71.7000   0.000291903
      71.8000   0.000287143
      71.9000   0.000282548
      72.0000   0.000278263
      72.1000   0.000273930
      72.2000   0.000269107
      72.3000   0.000264382
      72.4000   0.000260164
      72.5000   0.000256015
      72.6000   0.000251927
      72.7000   0.000247901
      72.8000   0.000243937
      72.9000   0.000240040
      73.0000   0.000236282
      73.1000   0.000232621
      73.2000   0.000229018
      73.3000   0.000225471
      73.4000   0.000222006
      73.5000   0.000218639
      73.6000   0.000215321
      73.7000   0.000212050
      73.8000   0.000208826
      73.9000   0.000205648
      74.0000   0.000202536
      74.1000   0.000199672
      74.2000   0.000196909
      74.3000   0.000193987
      74.4000   0.000190958
      74.5000   0.000188015
      74.6000   0.000185201
      74.7000   0.000182427
      74.8000   0.000179691
      74.9000   0.000176992
      75.0000   0.000174312
      75.1000   0.000171666
      75.2000   0.000169059
      75.3000   0.000166492
      75.4000   0.000163982
      75.5000   0.000161552
      75.6000   0.000159156
      75.7000   0.000156794
      75.8000   0.000154467
      75.9000   0.000152194
      76.0000   0.000149964
      76.1000   0.000147768
      76.2000   0.000145604
      76.3000   0.000143477
      76.4000   0.000141411
      76.5000   0.000139376
      76.6000   0.000137367
      76.7000   0.000135384
      76.8000   0.000133425
      76.9000   0.000131492
      77.0000   0.000129587
      77.1000   0.000127709
      77.2000   0.000125860
      77.3000   0.000124039
      77.4000   0.000122246
      77.5000   0.000120477
      77.6000   0.000118705
      77.7000   0.000116957
      77.8000   0.000115231
      77.9000   0.000113526
      78.0000   0.000111826
      78.1000   0.000110102
      78.2000   0.000108405
      78.3000   0.000106840
      78.4000   0.000105336
      78.5000   0.000103843
      78.6000   0.000102341
      78.7000   0.000100860
      78.8000   9.93594e-05
      78.9000   9.78685e-05
      79.0000   9.63971e-05
      79.1000   9.49451e-05
      79.2000   9.35160e-05
      79.3000   9.21392e-05
      79.4000   9.07943e-05
      79.5000   8.94596e-05
      79.6000   8.81125e-05
      79.7000   8.67844e-05
      79.8000   8.54598e-05
      79.9000   8.41466e-05
      80.0000   8.28487e-05
      80.1000   8.15322e-05
      80.2000   8.02319e-05
      80.3000   7.89109e-05
      80.4000   7.75736e-05
      80.5000   7.62562e-05
      80.6000   7.49615e-05
      80.7000   7.36883e-05
      80.8000   7.24416e-05
      80.9000   7.12289e-05
      81.0000   7.00354e-05
      81.1000   6.88627e-05
      81.2000   6.77096e-05
      81.3000   6.65759e-05
      81.4000   6.55263e-05
      81.5000   6.44963e-05
      81.6000   6.35007e-05
      81.7000   6.25600e-05
      81.8000   6.16359e-05
      81.9000   6.07524e-05
      82.0000   5.98954e-05
      82.1000   5.90521e-05
      82.2000   5.81993e-05
      82.3000   5.73601e-05
      82.4000   5.65659e-05
      82.5000   5.58498e-05
      82.6000   5.51410e-05
      82.7000   5.44241e-05
      82.8000   5.36963e-05
      82.9000   5.29765e-05
      83.0000   5.22722e-05
      83.1000   5.15801e-05
      83.2000   5.08975e-05
      83.3000   5.02240e-05
      83.4000   4.95601e-05
      83.5000   4.89066e-05
      83.6000   4.82740e-05
      83.7000   4.76489e-05
      83.8000   4.70279e-05
      83.9000   4.64063e-05
      84.0000   4.57922e-05
      84.1000   4.51935e-05
      84.2000   4.46139e-05
      84.3000   4.40412e-05
      84.4000   4.34702e-05
      84.5000   4.29023e-05
      84.6000   4.23418e-05
      84.7000   4.17966e-05
      84.8000   4.12630e-05
      84.9000   4.07363e-05
      85.0000   4.02044e-05
      85.1000   3.96759e-05
      85.2000   3.91545e-05
      85.3000   3.86573e-05
      85.4000   3.81693e-05
      85.5000   3.76880e-05
      85.6000   3.72040e-05
      85.7000   3.67255e-05
      85.8000   3.62527e-05
      85.9000   3.57855e-05
      86.0000   3.53239e-05
      86.1000   3.48683e-05
      86.2000   3.44293e-05
      86.3000   3.39957e-05
      86.4000   3.35670e-05
      86.5000   3.31431e-05
      86.6000   3.27242e-05
      86.7000   3.23104e-05
      86.8000   3.18771e-05
      86.9000   3.14488e-05
      87.0000   3.10263e-05
      87.1000   3.06147e-05
      87.2000   3.02091e-05
      87.3000   2.98089e-05
      87.4000   2.94057e-05
      87.5000   2.90060e-05
      87.6000   2.86111e-05
      87.7000   2.82262e-05
      87.8000   2.78471e-05
      87.9000   2.74723e-05
      88.0000   2.71020e-05
      88.1000   2.67361e-05
      88.2000   2.63750e-05
      88.3000   2.60250e-05
      88.4000   2.56854e-05
      88.5000   2.53512e-05
      88.6000   2.50192e-05
      88.7000   2.46883e-05
      88.8000   2.43618e-05
      88.9000   2.40392e-05
      89.0000   2.37200e-05
      89.1000   2.34050e-05
      89.2000   2.30936e-05
      89.3000   2.27852e-05
      89.4000   2.24796e-05
      89.5000   2.21777e-05
      89.6000   2.18796e-05
      89.7000   2.15850e-05
      89.8000   2.12939e-05
      89.9000   2.10062e-05
      90.0000   2.07224e-05
      90.1000   2.04428e-05
      90.2000   2.01618e-05
      90.3000   1.98735e-05
      90.4000   1.95890e-05
      90.5000   1.93089e-05
      90.6000   1.90367e-05
      90.7000   1.87634e-05
      90.8000   1.84881e-05
      90.9000   1.82102e-05
      91.0000   1.79349e-05
      91.1000   1.76634e-05
      91.2000   1.73929e-05
      91.3000   1.71217e-05
      91.4000   1.68540e-05
      91.5000   1.65907e-05
      91.6000   1.63316e-05
      91.7000   1.60935e-05
      91.8000   1.58852e-05
      91.9000   1.57108e-05
      92.0000   1.55193e-05
      92.1000   1.53260e-05
      92.2000   1.51244e-05
      92.3000   1.49159e-05
      92.4000   1.47048e-05
      92.5000   1.44968e-05
      92.6000   1.42915e-05
      92.7000   1.40888e-05
      92.8000   1.38888e-05
      92.9000   1.36935e-05
      93.0000   1.35052e-05
      93.1000   1.33193e-05
      93.2000   1.31362e-05
      93.3000   1.29610e-05
      93.4000   1.27901e-05
      93.5000   1.26214e-05
      93.6000   1.24545e-05
      93.7000   1.22889e-05
      93.8000   1.21247e-05
      93.9000   1.19623e-05
      94.0000   1.18017e-05
      94.1000   1.16429e-05
      94.2000   1.14862e-05
      94.3000   1.13325e-05
      94.4000   1.11840e-05
      94.5000   1.10377e-05
      94.6000   1.08934e-05
      94.7000   1.07513e-05
      94.8000   1.06112e-05
      94.9000   1.04729e-05
      95.0000   1.03364e-05
      95.1000   1.02021e-05
      95.2000   1.00692e-05
      95.3000   9.93774e-06
      95.4000   9.80802e-06
      95.5000   9.68149e-06
      95.6000   9.55623e-06
      95.7000   9.43231e-06
      95.8000   9.30855e-06
      95.9000   9.18586e-06
      96.0000   9.06456e-06
      96.1000   8.94461e-06
      96.2000   8.82602e-06
      96.3000   8.70938e-06
      96.4000   8.59428e-06
      96.5000   8.48070e-06
      96.6000   8.36898e-06
      96.7000   8.25920e-06
      96.8000   8.15061e-06
      96.9000   8.04325e-06
      97.0000   7.93720e-06
      97.1000   7.83285e-06
      97.2000   7.72955e-06
      97.3000   7.62624e-06
      97.4000   7.52315e-06
      97.5000   7.42157e-06
      97.6000   7.32124e-06
      97.7000   7.22264e-06
      97.8000   7.12564e-06
      97.9000   7.03014e-06
      98.0000   6.93580e-06
      98.1000   6.84261e-06
      98.2000   6.75076e-06
      98.3000   6.67021e-06
      98.4000   6.59552e-06
      98.5000   6.52496e-06
      98.6000   6.45525e-06
      98.7000   6.38626e-06
      98.8000   6.31787e-06
      98.9000   6.25009e-06
      99.0000   6.18314e-06
      99.1000   6.11677e-06
      99.2000   6.05059e-06
      99.3000   5.98318e-06
      99.4000   5.91652e-06
      99.5000   5.85055e-06
      99.6000   5.78570e-06
      99.7000   5.72434e-06
      99.8000   5.66604e-06
      99.9000   5.62945e-06
      100.000   5.62582e-06
      100.100   5.62029e-06
      100.200   5.61470e-06
      100.300   5.60908e-06
      100.400   5.60341e-06
      100.500   5.59847e-06
      100.600   5.59333e-06
      100.700   5.58810e-06
      100.800   5.58271e-06
      100.900   5.57718e-06
      101.000   5.57151e-06
      101.100   5.56571e-06
      101.200   5.55985e-06
      101.300   5.55393e-06
      101.400   5.54800e-06
      101.500   5.54208e-06
      101.600   5.53619e-06
      101.700   5.53088e-06
      101.800   5.52579e-06
      101.900   5.52070e-06
      102.000   5.51572e-06
      102.100   5.51157e-06
      102.200   5.50781e-06
      102.300   5.50396e-06
      102.400   5.50005e-06
      102.500   5.49603e-06
      102.600   5.49188e-06
      102.700   5.48759e-06
      102.800   5.48317e-06
      102.900   5.47862e-06
      103.000   5.47394e-06
      103.100   5.46916e-06
      103.200   5.46429e-06
      103.300   5.45935e-06
      103.400   5.45433e-06
      103.500   5.44927e-06
      103.600   5.44420e-06
      103.700   5.43902e-06
      103.800   5.43255e-06
      103.900   5.42452e-06
      104.000   5.41641e-06
      104.100   5.40834e-06
      104.200   5.40089e-06
      104.300   5.39737e-06
      104.400   5.39393e-06
      104.500   5.39047e-06
      104.600   5.38687e-06
      104.700   5.38194e-06
      104.800   5.37640e-06
      104.900   5.37077e-06
      105.000   5.36509e-06
      105.100   5.36020e-06
      105.200   5.35750e-06
      105.300   5.35477e-06
      105.400   5.35194e-06
      105.500   5.34904e-06
      105.600   5.34661e-06
      105.700   5.34423e-06
      105.800   5.34179e-06
      105.900   5.33934e-06
      106.000   5.33767e-06
      106.100   5.33761e-06
      106.200   5.33764e-06
      106.300   5.33762e-06
      106.400   5.33754e-06
      106.500   5.33739e-06
      106.600   5.33717e-06
      106.700   5.33690e-06
      106.800   5.33657e-06
      106.900   5.33621e-06
      107.000   5.33579e-06
      107.100   5.33532e-06
      107.200   5.33481e-06
      107.300   5.33425e-06
      107.400   5.33352e-06
      107.500   5.33268e-06
      107.600   5.33176e-06
      107.700   5.33080e-06
      107.800   5.32983e-06
      107.900   5.32845e-06
      108.000   5.32702e-06
      108.100   5.32554e-06
      108.200   5.32398e-06
      108.300   5.32230e-06
      108.400   5.32011e-06
      108.500   5.31785e-06
      108.600   5.31550e-06
      108.700   5.31305e-06
      108.800   5.30919e-06
      108.900   5.30333e-06
      109.000   5.29737e-06
      109.100   5.29130e-06
      109.200   5.28516e-06
      109.300   5.27899e-06
      109.400   5.27276e-06
      109.500   5.26648e-06
      109.600   5.26016e-06
      109.700   5.25379e-06
      109.800   5.24738e-06
      109.900   5.24095e-06
      110.000   5.23451e-06
      110.100   5.22805e-06
      110.200   5.22155e-06
      110.300   5.21586e-06
      110.400   5.21022e-06
      110.500   5.20457e-06
      110.600   5.19887e-06
      110.700   5.19312e-06
      110.800   5.18730e-06
      110.900   5.18142e-06
      111.000   5.17547e-06
      111.100   5.16943e-06
      111.200   5.16340e-06
      111.300   5.15906e-06
      111.400   5.15465e-06
      111.500   5.15010e-06
      111.600   5.14546e-06
      111.700   5.14081e-06
      111.800   5.13722e-06
      111.900   5.13359e-06
      112.000   5.12989e-06
      112.100   5.12612e-06
      112.200   5.12230e-06
      112.300   5.11729e-06
      112.400   5.11221e-06
      112.500   5.10713e-06
      112.600   5.10205e-06
      112.700   5.09716e-06
      112.800   5.09341e-06
      112.900   5.08687e-06
      113.000   5.08128e-06
      113.100   5.07610e-06
      113.200   5.07033e-06
      113.300   5.06514e-06
      113.400   5.05344e-06
      113.500   5.04005e-06
      113.600   5.03221e-06
      113.700   5.02254e-06
      113.800   5.00895e-06
      113.900   5.00082e-06
      114.000   4.99258e-06
      114.100   4.98025e-06
      114.200   4.96984e-06
      114.300   4.96258e-06
      114.400   4.95441e-06
      114.500   4.94529e-06
      114.600   4.94035e-06
      114.700   4.93218e-06
      114.800   4.92613e-06
      114.900   4.92504e-06
      115.000   4.92031e-06
      115.100   4.91340e-06
      115.200   4.90623e-06
      115.300   4.90360e-06
      115.400   4.89657e-06
      115.500   4.89166e-06
      115.600   4.88486e-06
      115.700   4.87523e-06
      115.800   4.86927e-06
      115.900   4.86128e-06
      116.000   4.85646e-06
      116.100   4.85659e-06
      116.200   4.85623e-06
      116.300   4.85485e-06
      116.400   4.85173e-06
      116.500   4.85216e-06
      116.600   4.85135e-06
      116.700   4.85137e-06
      116.800   4.85025e-06
      116.900   4.84458e-06
      117.000   4.84393e-06
      117.100   4.85786e-06
      117.200   4.88215e-06
      117.300   4.89635e-06
      117.400   4.90988e-06
      117.500   4.92361e-06
      117.600   4.93135e-06
      117.700   4.93672e-06
      117.800   4.93890e-06
      117.900   4.93943e-06
      118.000   4.93686e-06
      118.100   4.93129e-06
      118.200   4.92799e-06
      118.300   4.92563e-06
      118.400   4.91151e-06
      118.500   4.89823e-06
      118.600   4.89026e-06
      118.700   4.88027e-06
      118.800   4.86757e-06
      118.900   4.85656e-06
      119.000   4.83904e-06
      119.100   4.81435e-06
      119.200   4.79696e-06
      119.300   4.78571e-06
      119.400   4.77740e-06
      119.500   4.77038e-06
      119.600   4.75901e-06
      119.700   4.74254e-06
      119.800   4.71597e-06
      119.900   4.67597e-06
      120.000   4.64016e-06
      120.100   4.60771e-06
      120.200   4.59180e-06
      120.300   4.58543e-06
      120.400   4.57887e-06
      120.500   4.55857e-06
      120.600   4.52775e-06
      120.700   4.49343e-06
      120.800   4.46116e-06
      120.900   4.44681e-06
      121.000   4.46061e-06
      121.100   4.46976e-06
      121.200   4.46506e-06
      121.300   4.45008e-06
      121.400   4.42717e-06
      121.500   4.39821e-06
      121.600   4.34611e-06
      121.700   4.30300e-06
      121.800   4.25156e-06
      121.900   4.19890e-06
      122.000   4.14052e-06
      122.100   4.08619e-06
      122.200   4.03248e-06
      122.300   3.99850e-06
      122.400   3.98603e-06
      122.500   3.97813e-06
      122.600   3.96742e-06
      122.700   3.95646e-06
      122.800   3.94048e-06
      122.900   3.92731e-06
      123.000   3.93980e-06
      123.100   3.99725e-06
      123.200   4.05807e-06
      123.300   4.14256e-06
      123.400   4.24698e-06
      123.500   4.37989e-06
      123.600   4.49777e-06
      123.700   4.56911e-06
      123.800   4.62735e-06
      123.900   4.69959e-06
      124.000   4.79447e-06
      124.100   4.96261e-06
      124.200   5.28739e-06
      124.300   5.76672e-06
      124.400   6.23377e-06
      124.500   6.38961e-06
      124.600   6.40012e-06
      124.700   6.39375e-06
      124.800   6.38905e-06
      124.900   6.38421e-06
      125.000   6.37913e-06
      125.100   6.37285e-06
      125.200   6.36641e-06
      125.300   6.35993e-06
      125.400   6.35344e-06
      125.500   6.34694e-06
      125.600   6.34039e-06
      125.700   6.33382e-06
      125.800   6.32718e-06
      125.900   6.32053e-06
      126.000   6.31383e-06
      126.100   6.30708e-06
      126.200   6.30026e-06
      126.300   6.29335e-06
      126.400   6.28635e-06
      126.500   6.27924e-06
      126.600   6.27205e-06
      126.700   6.26476e-06
      126.800   6.25738e-06
      126.900   6.24990e-06
      127.000   6.24216e-06
      127.100   6.23380e-06
      127.200   6.22518e-06
      127.300   6.21639e-06
      127.400   6.20753e-06
      127.500   6.19862e-06
      127.600   6.18967e-06
      127.700   6.18067e-06
      127.800   6.17163e-06
      127.900   6.16254e-06
      128.000   6.15344e-06
      128.100   6.14431e-06
      128.200   6.13514e-06
      128.300   6.12594e-06
      128.400   6.11672e-06
      128.500   6.10743e-06
      128.600   6.09807e-06
      128.700   6.08869e-06
      128.800   6.07925e-06
      128.900   6.06972e-06
      129.000   6.06014e-06
      129.100   6.05035e-06
      129.200   6.04010e-06
      129.300   6.02976e-06
      129.400   6.01935e-06
      129.500   6.00887e-06
      129.600   5.99831e-06
      129.700   5.98768e-06
      129.800   5.97698e-06
      129.900   5.96622e-06
      130.000   5.95542e-06
      130.100   5.94460e-06
      130.200   5.93373e-06
      130.300   5.92285e-06
      130.400   5.91196e-06
      130.500   5.90103e-06
      130.600   5.89009e-06
      130.700   5.87916e-06
      130.800   5.86825e-06
      130.900   5.85733e-06
      131.000   5.84639e-06
      131.100   5.83546e-06
      131.200   5.82447e-06
      131.300   5.81334e-06
      131.400   5.80221e-06
      131.500   5.79105e-06
      131.600   5.77986e-06
      131.700   5.76862e-06
      131.800   5.75734e-06
      131.900   5.74600e-06
      132.000   5.73460e-06
      132.100   5.72311e-06
      132.200   5.71157e-06
      132.300   5.69995e-06
      132.400   5.68825e-06
      132.500   5.67647e-06
      132.600   5.66460e-06
      132.700   5.65265e-06
      132.800   5.64063e-06
      132.900   5.62856e-06
      133.000   5.61643e-06
      133.100   5.60424e-06
      133.200   5.59201e-06
      133.300   5.57971e-06
      133.400   5.56734e-06
      133.500   5.55493e-06
      133.600   5.54249e-06
      133.700   5.53007e-06
      133.800   5.51765e-06
      133.900   5.50523e-06
      134.000   5.49282e-06
      134.100   5.48042e-06
      134.200   5.46803e-06
      134.300   5.45566e-06
      134.400   5.44331e-06
      134.500   5.43098e-06
      134.600   5.41865e-06
      134.700   5.40632e-06
      134.800   5.39400e-06
      134.900   5.38166e-06
      135.000   5.36932e-06
      135.100   5.35696e-06
      135.200   5.34458e-06
      135.300   5.33219e-06
      135.400   5.31974e-06
      135.500   5.30711e-06
      135.600   5.29433e-06
      135.700   5.28149e-06
      135.800   5.26861e-06
      135.900   5.25570e-06
      136.000   5.24274e-06
      136.100   5.22975e-06
      136.200   5.21672e-06
      136.300   5.20363e-06
      136.400   5.19050e-06
      136.500   5.17735e-06
      136.600   5.16417e-06
      136.700   5.15096e-06
      136.800   5.13774e-06
      136.900   5.12450e-06
      137.000   5.11124e-06
      137.100   5.09795e-06
      137.200   5.08466e-06
      137.300   5.07134e-06
      137.400   5.05804e-06
      137.500   5.04473e-06
      137.600   5.03140e-06
      137.700   5.01798e-06
      137.800   5.00452e-06
      137.900   4.99105e-06
      138.000   4.97758e-06
      138.100   4.96412e-06
      138.200   4.95068e-06
      138.300   4.93723e-06
      138.400   4.92379e-06
      138.500   4.91035e-06
      138.600   4.89691e-06
      138.700   4.88348e-06
      138.800   4.87005e-06
      138.900   4.85663e-06
      139.000   4.84321e-06
      139.100   4.82979e-06
      139.200   4.81637e-06
      139.300   4.80296e-06
      139.400   4.78954e-06
      139.500   4.77612e-06
      139.600   4.76270e-06
      139.700   4.74928e-06
      139.800   4.73586e-06
      139.900   4.72242e-06
      140.000   4.70893e-06
      140.100   4.69543e-06
      140.200   4.68191e-06
      140.300   4.66840e-06
      140.400   4.65489e-06
      140.500   4.64136e-06
      140.600   4.62782e-06
      140.700   4.61427e-06
      140.800   4.60073e-06
      140.900   4.58716e-06
      141.000   4.57356e-06
      141.100   4.55996e-06
      141.200   4.54636e-06
      141.300   4.53275e-06
      141.400   4.51912e-06
      141.500   4.50550e-06
      141.600   4.49186e-06
      141.700   4.47819e-06
      141.800   4.46454e-06
      141.900   4.45089e-06
      142.000   4.43723e-06
      142.100   4.42704e-06
      142.200   4.42674e-06
      142.300   4.43500e-06
      142.400   4.44319e-06
      142.500   4.45129e-06
      142.600   4.45933e-06
      142.700   4.46732e-06
      142.800   4.47524e-06
      142.900   4.48309e-06
      143.000   4.49089e-06
      143.100   4.49861e-06
      143.200   4.50627e-06
      143.300   4.51384e-06
      143.400   4.52137e-06
      143.500   4.52884e-06
      143.600   4.53624e-06
      143.700   4.54356e-06
      143.800   4.55083e-06
      143.900   4.55803e-06
      144.000   4.56515e-06
      144.100   4.57218e-06
      144.200   4.57915e-06
      144.300   4.58605e-06
      144.400   4.59387e-06
      144.500   4.61501e-06
      144.600   4.64044e-06
      144.700   4.66633e-06
      144.800   4.69219e-06
      144.900   4.71803e-06
      145.000   4.74387e-06
      145.100   4.76969e-06
      145.200   4.79551e-06
      145.300   4.82130e-06
      145.400   4.84708e-06
      145.500   4.87282e-06
      145.600   4.89852e-06
      145.700   4.92416e-06
      145.800   4.94981e-06
      145.900   4.97545e-06
      146.000   5.00105e-06
      146.100   5.02660e-06
      146.200   5.05213e-06
      146.300   5.07761e-06
      146.400   5.10304e-06
      146.500   5.12842e-06
      146.600   5.15379e-06
      146.700   5.17912e-06
      146.800   5.20408e-06
      146.900   5.22852e-06
      147.000   5.25290e-06
      147.100   5.27721e-06
      147.200   5.30150e-06
      147.300   5.32573e-06
      147.400   5.34991e-06
      147.500   5.37403e-06
      147.600   5.39808e-06
      147.700   5.42209e-06
      147.800   5.44604e-06
      147.900   5.46993e-06
      148.000   5.49374e-06
      148.100   5.51749e-06
      148.200   5.54120e-06
      148.300   5.56486e-06
      148.400   5.58848e-06
      148.500   5.61204e-06
      148.600   5.63554e-06
      148.700   5.65898e-06
      148.800   5.68232e-06
      148.900   5.70565e-06
      149.000   5.72895e-06
      149.100   5.75219e-06
      149.200   5.77532e-06
      149.300   5.79839e-06
      149.400   5.82140e-06
      149.500   5.84437e-06
      149.600   5.86727e-06
      149.700   5.89008e-06
      149.800   5.91283e-06
      149.900   5.93553e-06
      150.000   5.95817e-06
      150.100   5.98075e-06
      150.200   6.00322e-06
      150.300   6.02561e-06
      150.400   6.04794e-06
      150.500   6.07017e-06
      150.600   6.09231e-06
      150.700   6.11437e-06
      150.800   6.13631e-06
      150.900   6.15813e-06
      151.000   6.17983e-06
      151.100   6.20147e-06
      151.200   6.22295e-06
      151.300   6.24431e-06
      151.400   6.26557e-06
      151.500   6.28669e-06
      151.600   6.30783e-06
      151.700   6.32902e-06
      151.800   6.35010e-06
      151.900   6.37103e-06
      152.000   6.39180e-06
      152.100   6.41245e-06
      152.200   6.43302e-06
      152.300   6.45339e-06
      152.400   6.47365e-06
      152.500   6.49380e-06
      152.600   6.51382e-06
      152.700   6.53371e-06
      152.800   6.55346e-06
      152.900   6.57313e-06
      153.000   6.59271e-06
      153.100   6.61217e-06
      153.200   6.63154e-06
      153.300   6.65081e-06
      153.400   6.66998e-06
      153.500   6.68905e-06
      153.600   6.70804e-06
      153.700   6.72700e-06
      153.800   6.74582e-06
      153.900   6.76455e-06
      154.000   6.78477e-06
      154.100   6.80840e-06
      154.200   6.83313e-06
      154.300   6.85781e-06
      154.400   6.88245e-06
      154.500   6.90696e-06
      154.600   6.93139e-06
      154.700   6.95575e-06
      154.800   6.98002e-06
      154.900   7.00414e-06
      155.000   7.02816e-06
      155.100   7.05211e-06
      155.200   7.07588e-06
      155.300   7.09954e-06
      155.400   7.12306e-06
      155.500   7.14648e-06
      155.600   7.16969e-06
      155.700   7.19275e-06
      155.800   7.21569e-06
      155.900   7.23844e-06
      156.000   7.26102e-06
      156.100   7.28343e-06
      156.200   7.30567e-06
      156.300   7.32777e-06
      156.400   7.34966e-06
      156.500   7.37110e-06
      156.600   7.39069e-06
      156.700   7.41006e-06
      156.800   7.42923e-06
      156.900   7.44824e-06
      157.000   7.46712e-06
      157.100   7.48577e-06
      157.200   7.50427e-06
      157.300   7.52261e-06
      157.400   7.54081e-06
      157.500   7.55883e-06
      157.600   7.57668e-06
      157.700   7.59443e-06
      157.800   7.61201e-06
      157.900   7.62939e-06
      158.000   7.64668e-06
      158.100   7.66385e-06
      158.200   7.68083e-06
      158.300   7.69767e-06
      158.400   7.71439e-06
      158.500   7.73098e-06
      158.600   7.74738e-06
      158.700   7.76362e-06
      158.800   7.77979e-06
      158.900   7.79574e-06
      159.000   7.81153e-06
      159.100   7.82711e-06
      159.200   7.84256e-06
      159.300   7.85779e-06
      159.400   7.87285e-06
      159.500   7.88773e-06
      159.600   7.90246e-06
      159.700   7.91698e-06
      159.800   7.93130e-06
      159.900   7.94546e-06
      160.000   7.95937e-06
      160.100   7.97310e-06
      160.200   7.98660e-06
      160.300   7.99990e-06
      160.400   8.01304e-06
      160.500   8.02592e-06
      160.600   8.03859e-06
      160.700   8.05107e-06
      160.800   8.06332e-06
      160.900   8.07535e-06
      161.000   8.08715e-06
      161.100   8.09880e-06
      161.200   8.11021e-06
      161.300   8.12139e-06
      161.400   8.13237e-06
      161.500   8.14320e-06
      161.600   8.15376e-06
      161.700   8.16403e-06
      161.800   8.17414e-06
      161.900   8.18405e-06
      162.000   8.19372e-06
      162.100   8.20322e-06
      162.200   8.21258e-06
      162.300   8.22171e-06
      162.400   8.23066e-06
      162.500   8.23943e-06
      162.600   8.24804e-06
      162.700   8.25649e-06
      162.800   8.26471e-06
      162.900   8.27275e-06
      163.000   8.28063e-06
      163.100   8.28834e-06
      163.200   8.29582e-06
      163.300   8.30311e-06
      163.400   8.31023e-06
      163.500   8.31715e-06
      163.600   8.32385e-06
      163.700   8.33035e-06
      163.800   8.33670e-06
      163.900   8.34280e-06
      164.000   8.34867e-06
      164.100   8.35437e-06
      164.200   8.35982e-06
      164.300   8.36556e-06
      164.400   8.37109e-06
      164.500   8.37643e-06
      164.600   8.38156e-06
      164.700   8.38645e-06
      164.800   8.39111e-06
      164.900   8.39559e-06
      165.000   8.39987e-06
      165.100   8.40393e-06
      165.200   8.40777e-06
      165.300   8.41142e-06
      165.400   8.41492e-06
      165.500   8.41819e-06
      165.600   8.42126e-06
      165.700   8.42419e-06
      165.800   8.42692e-06
      165.900   8.42945e-06
      166.000   8.43184e-06
      166.100   8.43407e-06
      166.200   8.43616e-06
      166.300   8.43808e-06
      166.400   8.43981e-06
      166.500   8.44143e-06
      166.600   8.44292e-06
      166.700   8.44422e-06
      166.800   8.44531e-06
      166.900   8.44626e-06
      167.000   8.44717e-06
      167.100   8.44780e-06
      167.200   8.44827e-06
      167.300   8.44863e-06
      167.400   8.44883e-06
      167.500   8.44887e-06
      167.600   8.44876e-06
      167.700   8.44852e-06
      167.800   8.44810e-06
      167.900   8.44750e-06
      168.000   8.44674e-06
      168.100   8.44583e-06
      168.200   8.44471e-06
      168.300   8.44341e-06
      168.400   8.44192e-06
      168.500   8.44030e-06
      168.600   8.43841e-06
      168.700   8.43632e-06
      168.800   8.43403e-06
      168.900   8.43156e-06
      169.000   8.42889e-06
      169.100   8.42598e-06
      169.200   8.42287e-06
      169.300   8.41954e-06
      169.400   8.41598e-06
      169.500   8.41173e-06
      169.600   8.40512e-06
      169.700   8.39581e-06
      169.800   8.38559e-06
      169.900   8.37504e-06
      170.000   8.36420e-06
      170.100   8.35309e-06
      170.200   8.34169e-06
      170.300   1.52291e-05
      170.400   7.62254e-05
      170.500   0.000249610
      170.600   0.000525453
      170.700   0.000830730
      170.800    0.00101040
      170.900    0.00104352
      171.000    0.00103626
      171.100    0.00102892
      171.200    0.00102152
      171.300    0.00101405
      171.400    0.00100652
      171.500   0.000998930
      171.600   0.000991293
      171.700   0.000983622
      171.800   0.000975930
      171.900   0.000968234
      172.000   0.000960554
      172.100   0.000952902
      172.200   0.000945301
      172.300   0.000937741
      172.400   0.000930133
      172.500   0.000922570
      172.600   0.000915080
      172.700   0.000907669
      172.800   0.000900333
      172.900   0.000893074
      173.000   0.000885898
      173.100   0.000878804
      173.200   0.000871787
      173.300   0.000864853
      173.400   0.000857994
      173.500   0.000851215
      173.600   0.000844514
      173.700   0.000837885
      173.800   0.000831328
      173.900   0.000824842
      174.000   0.000818422
      174.100   0.000812063
      174.200   0.000805769
      174.300   0.000799534
      174.400   0.000793355
      174.500   0.000787229
      174.600   0.000781150
      174.700   0.000775124
      174.800   0.000769146
      174.900   0.000763211
      175.000   0.000757315
      175.100   0.000751456
      175.200   0.000745658
      175.300   0.000739891
      175.400   0.000734164
      175.500   0.000728477
      175.600   0.000722828
      175.700   0.000717219
      175.800   0.000711649
      175.900   0.000706117
      176.000   0.000700624
      176.100   0.000695172
      176.200   0.000689757
      176.300   0.000684379
      176.400   0.000679042
      176.500   0.000673740
      176.600   0.000668474
      176.700   0.000663244
      176.800   0.000658049
      176.900   0.000652890
      177.000   0.000647763
      177.100   0.000642667
      177.200   0.000637605
      177.300   0.000632573
      177.400   0.000627568
      177.500   0.000622590
      177.600   0.000617640
      177.700   0.000612718
      177.800   0.000607820
      177.900   0.000602941
      178.000   0.000598125
      178.100   0.000593336
      178.200   0.000588569
      178.300   0.000583826
      178.400   0.000579109
      178.500   0.000574416
      178.600   0.000569745
      178.700   0.000565098
      178.800   0.000560477
      178.900   0.000555882
      179.000   0.000551311
      179.100   0.000546765
      179.200   0.000542247
      179.300   0.000537758
      179.400   0.000533296
      179.500   0.000528865
      179.600   0.000524462
      179.700   0.000520093
      179.800   0.000515753
      179.900   0.000511446
      180.000   0.000507170
      180.100   0.000502929
      180.200   0.000498722
      180.300   0.000494549
      180.400   0.000490410
      180.500   0.000486308
      180.600   0.000482240
      180.700   0.000478207
      180.800   0.000474212
      180.900   0.000470252
      181.000   0.000466327
      181.100   0.000462438
      181.200   0.000458584
      181.300   0.000454764
      181.400   0.000450979
      181.500   0.000447229
      181.600   0.000443511
      181.700   0.000439828
      181.800   0.000436177
      181.900   0.000432560
      182.000   0.000428978
      182.100   0.000425426
      182.200   0.000421907
      182.300   0.000418421
      182.400   0.000414967
      182.500   0.000411544
      182.600   0.000408151
      182.700   0.000404790
      182.800   0.000401461
      182.900   0.000398160
      183.000   0.000394891
      183.100   0.000391652
      183.200   0.000388442
      183.300   0.000385261
      183.400   0.000382108
      183.500   0.000378985
      183.600   0.000375890
      183.700   0.000372824
      183.800   0.000369794
      183.900   0.000366795
      184.000   0.000363822
      184.100   0.000360875
      184.200   0.000357953
      184.300   0.000355055
      184.400   0.000352183
      184.500   0.000349334
      184.600   0.000346507
      184.700   0.000343703
      184.800   0.000340922
      184.900   0.000338161
      185.000   0.000335422
      185.100   0.000332703
      185.200   0.000330003
      185.300   0.000327324
      185.400   0.000324664
      185.500   0.000322022
      185.600   0.000319399
      185.700   0.000316792
      185.800   0.000314203
      185.900   0.000311633
      186.000   0.000309078
      186.100   0.000306539
      186.200   0.000304017
      186.300   0.000301510
      186.400   0.000299019
      186.500   0.000296544
      186.600   0.000294084
      186.700   0.000291637
      186.800   0.000289205
      186.900   0.000286788
      187.000   0.000284385
      187.100   0.000281997
      187.200   0.000279624
      187.300   0.000277266
      187.400   0.000274921
      187.500   0.000272592
      187.600   0.000270278
      187.700   0.000267978
      187.800   0.000265692
      187.900   0.000263421
      188.000   0.000261166
      188.100   0.000258924
      188.200   0.000256697
      188.300   0.000254485
      188.400   0.000252287
      188.500   0.000250105
      188.600   0.000247937
      188.700   0.000245785
      188.800   0.000243648
      188.900   0.000241527
      189.000   0.000239420
      189.100   0.000237329
      189.200   0.000235253
      189.300   0.000233193
      189.400   0.000231149
      189.500   0.000229120
      189.600   0.000227107
      189.700   0.000225110
      189.800   0.000223148
      189.900   0.000221203
      190.000   0.000219274
      190.100   0.000217362
      190.200   0.000215465
      190.300   0.000213584
      190.400   0.000211718
      190.500   0.000209868
      190.600   0.000208034
      190.700   0.000206216
      190.800   0.000204414
      190.900   0.000202627
      191.000   0.000200856
      191.100   0.000199102
      191.200   0.000197362
      191.300   0.000195638
      191.400   0.000193930
      191.500   0.000192236
      191.600   0.000190558
      191.700   0.000188894
      191.800   0.000187245
      191.900   0.000185611
      192.000   0.000183993
      192.100   0.000182389
      192.200   0.000180800
      192.300   0.000179225
      192.400   0.000177664
      192.500   0.000176117
      192.600   0.000174584
      192.700   0.000173065
      192.800   0.000171559
      192.900   0.000170063
      193.000   0.000168581
      193.100   0.000167112
      193.200   0.000165657
      193.300   0.000164215
      193.400   0.000162787
      193.500   0.000161373
      193.600   0.000159971
      193.700   0.000158582
      193.800   0.000157207
      193.900   0.000155845
      194.000   0.000154496
      194.100   0.000153159
      194.200   0.000151836
      194.300   0.000150526
      194.400   0.000149228
      194.500   0.000147942
      194.600   0.000146669
      194.700   0.000145407
      194.800   0.000144158
      194.900   0.000142921
      195.000   0.000141695
      195.100   0.000140480
      195.200   0.000139277
      195.300   0.000138086
      195.400   0.000136904
      195.500   0.000135734
      195.600   0.000134573
      195.700   0.000133423
      195.800   0.000132282
      195.900   0.000131150
      196.000   0.000129977
      196.100   0.000128813
      196.200   0.000127660
      196.300   0.000126515
      196.400   0.000125380
      196.500   0.000124254
      196.600   0.000123137
      196.700   0.000122029
      196.800   0.000120929
      196.900   0.000119837
      197.000   0.000118753
      197.100   0.000117678
      197.200   0.000116610
      197.300   0.000115550
      197.400   0.000114496
      197.500   0.000113451
      197.600   0.000112412
      197.700   0.000111381
      197.800   0.000110358
      197.900   0.000109341
      198.000   0.000108331
      198.100   0.000107329
      198.200   0.000106334
      198.300   0.000105345
      198.400   0.000104363
      198.500   0.000103389
      198.600   0.000102422
      198.700   0.000101462
      198.800   0.000100509
      198.900   9.95640e-05
      199.000   9.86255e-05
      199.100   9.76942e-05
      199.200   9.67703e-05
      199.300   9.58539e-05
      199.400   9.49449e-05
      199.500   9.40436e-05
      199.600   9.31493e-05
      199.700   9.22624e-05
      199.800   9.13829e-05
      199.900   9.05110e-05
      200.000   8.96462e-05
      200.100   8.87937e-05
      200.200   8.79438e-05
      200.300   8.71016e-05
      200.400   8.62666e-05
      200.500   8.54389e-05
      200.600   8.46185e-05
      200.700   8.38054e-05
      200.800   8.29989e-05
      200.900   8.22000e-05
      201.000   8.14083e-05
      201.100   8.06233e-05
      201.200   7.98452e-05
      201.300   7.90742e-05
      201.400   7.83103e-05
      201.500   7.75527e-05
      201.600   7.68020e-05
      201.700   7.60582e-05
      201.800   7.53206e-05
      201.900   7.45897e-05
      202.000   7.38659e-05
      202.100   7.31481e-05
      202.200   7.24370e-05
      202.300   7.17489e-05
      202.400   7.11015e-05
      202.500   7.04691e-05
      202.600   6.98409e-05
      202.700   6.92185e-05
      202.800   6.86014e-05
      202.900   6.79895e-05
      203.000   6.73833e-05
      203.100   6.67827e-05
      203.200   6.61871e-05
      203.300   6.55968e-05
      203.400   6.50120e-05
      203.500   6.44326e-05
      203.600   6.38585e-05
      203.700   6.32899e-05
      203.800   6.27268e-05
      203.900   6.21692e-05
      204.000   6.16169e-05
      204.100   6.10701e-05
      204.200   6.05288e-05
      204.300   5.99926e-05
      204.400   5.94619e-05
      204.500   5.89364e-05
      204.600   5.84161e-05
      204.700   5.79011e-05
      204.800   5.73916e-05
      204.900   5.68872e-05
      205.000   5.63879e-05
      205.100   5.58937e-05
      205.200   5.54043e-05
      205.300   5.49200e-05
      205.400   5.44406e-05
      205.500   5.39658e-05
      205.600   5.35032e-05
      205.700   5.30526e-05
      205.800   5.26070e-05
      205.900   5.21657e-05
      206.000   5.17288e-05
      206.100   5.12958e-05
      206.200   5.08666e-05
      206.300   5.04416e-05
      206.400   5.00205e-05
      206.500   4.96028e-05
      206.600   4.91891e-05
      206.700   4.87790e-05
      206.800   4.83721e-05
      206.900   4.79688e-05
      207.000   4.75692e-05
      207.100   4.71725e-05
      207.200   4.67795e-05
      207.300   4.63895e-05
      207.400   4.60026e-05
      207.500   4.56188e-05
      207.600   4.52381e-05
      207.700   4.48602e-05
      207.800   4.44853e-05
      207.900   4.41133e-05
      208.000   4.37441e-05
      208.100   4.33777e-05
      208.200   4.30143e-05
      208.300   4.26535e-05
      208.400   4.22954e-05
      208.500   4.19401e-05
      208.600   4.15873e-05
      208.700   4.12371e-05
      208.800   4.08896e-05
      208.900   4.05432e-05
      209.000   4.01945e-05
      209.100   3.98481e-05
      209.200   3.95043e-05
      209.300   3.91630e-05
      209.400   3.88245e-05
      209.500   3.84885e-05
      209.600   3.81552e-05
      209.700   3.78243e-05
      209.800   3.74962e-05
      209.900   3.71704e-05
      210.000   3.68472e-05
      210.100   3.65265e-05
      210.200   3.62082e-05
      210.300   3.58924e-05
      210.400   3.55790e-05
      210.500   3.52679e-05
      210.600   3.49592e-05
      210.700   3.46529e-05
      210.800   3.43489e-05
      210.900   3.40471e-05
      211.000   3.37476e-05
      211.100   3.34504e-05
      211.200   3.31553e-05
      211.300   3.28625e-05
      211.400   3.25720e-05
      211.500   3.22835e-05
      211.600   3.19972e-05
      211.700   3.17130e-05
      211.800   3.14307e-05
      211.900   3.11506e-05
      212.000   3.08726e-05
      212.100   3.05966e-05
      212.200   3.03225e-05
      212.300   3.00507e-05
      212.400   2.97808e-05
      212.500   2.95130e-05
      212.600   2.92472e-05
      212.700   2.89833e-05
      212.800   2.87213e-05
      212.900   2.84614e-05
      213.000   2.82033e-05
      213.100   2.79473e-05
      213.200   2.76932e-05
      213.300   2.74410e-05
      213.400   2.71908e-05
      213.500   2.69425e-05
      213.600   2.66961e-05
      213.700   2.64518e-05
      213.800   2.62093e-05
      213.900   2.59689e-05
      214.000   2.57304e-05
      214.100   2.54938e-05
      214.200   2.52593e-05
      214.300   2.50267e-05
      214.400   2.47960e-05
      214.500   2.45674e-05
      214.600   2.43408e-05
      214.700   2.41161e-05
      214.800   2.38934e-05
      214.900   2.36728e-05
      215.000   2.34540e-05
      215.100   2.32373e-05
      215.200   2.30225e-05
      215.300   2.28099e-05
      215.400   2.25991e-05
      215.500   2.23904e-05
      215.600   2.21837e-05
      215.700   2.19788e-05
      215.800   2.17758e-05
      215.900   2.15749e-05
      216.000   2.13758e-05
      216.100   2.11787e-05
      216.200   2.09834e-05
      216.300   2.07901e-05
      216.400   2.05987e-05
      216.500   2.04091e-05
      216.600   2.02214e-05
      216.700   2.00356e-05
      216.800   1.98516e-05
      216.900   1.96694e-05
      217.000   1.94889e-05
      217.100   1.93102e-05
      217.200   1.91333e-05
      217.300   1.89582e-05
      217.400   1.87847e-05
      217.500   1.86130e-05
      217.600   1.84429e-05
      217.700   1.82745e-05
      217.800   1.81077e-05
      217.900   1.79426e-05
      218.000   1.77791e-05
      218.100   1.76171e-05
      218.200   1.74568e-05
      218.300   1.72980e-05
      218.400   1.71407e-05
      218.500   1.69849e-05
      218.600   1.68307e-05
      218.700   1.66779e-05
      218.800   1.65265e-05
      218.900   1.63767e-05
      219.000   1.62282e-05
      219.100   1.60811e-05
      219.200   1.59354e-05
      219.300   1.57911e-05
      219.400   1.56481e-05
      219.500   1.55065e-05
      219.600   1.53662e-05
      219.700   1.52272e-05
      219.800   1.50896e-05
      219.900   1.49532e-05
      220.000   1.48180e-05
      220.100   1.46842e-05
      220.200   1.45515e-05
      220.300   1.44201e-05
      220.400   1.42899e-05
      220.500   1.41610e-05
      220.600   1.40332e-05
      220.700   1.39066e-05
      220.800   1.37811e-05
      220.900   1.36568e-05
      221.000   1.35336e-05
      221.100   1.34116e-05
      221.200   1.32907e-05
      221.300   1.31708e-05
      221.400   1.30521e-05
      221.500   1.29344e-05
      221.600   1.28178e-05
      221.700   1.27022e-05
      221.800   1.25876e-05
      221.900   1.24741e-05
      222.000   1.23616e-05
      222.100   1.22501e-05
      222.200   1.21396e-05
      222.300   1.20300e-05
      222.400   1.19214e-05
      222.500   1.18138e-05
      222.600   1.17071e-05
      222.700   1.16013e-05
      222.800   1.14964e-05
      222.900   1.13923e-05
      223.000   1.12892e-05
      223.100   1.11869e-05
      223.200   1.10855e-05
      223.300   1.09850e-05
      223.400   1.08853e-05
      223.500   1.07864e-05
      223.600   1.06884e-05
      223.700   1.05912e-05
      223.800   1.04949e-05
      223.900   1.03993e-05
      224.000   1.03046e-05
      224.100   1.02106e-05
      224.200   1.01173e-05
      224.300   1.00249e-05
      224.400   9.93321e-06
      224.500   9.84228e-06
      224.600   9.75206e-06
      224.700   9.66264e-06
      224.800   9.57392e-06
      224.900   9.48590e-06
      225.000   9.39861e-06
      225.100   9.31202e-06
      225.200   9.22612e-06
      225.300   9.14095e-06
      225.400   9.05643e-06
      225.500   8.97259e-06
      225.600   8.88943e-06
      225.700   8.80696e-06
      225.800   8.72513e-06
      225.900   8.64396e-06
      226.000   8.56347e-06
      226.100   8.48362e-06
      226.200   8.40448e-06
      226.300   8.32649e-06
      226.400   8.24964e-06
      226.500   8.17328e-06
      226.600   8.09736e-06
      226.700   8.02197e-06
      226.800   7.94707e-06
      226.900   7.87272e-06
      227.000   7.79898e-06
      227.100   7.72580e-06
      227.200   7.65324e-06
      227.300   7.58129e-06
      227.400   7.50994e-06
      227.500   7.43916e-06
      227.600   7.36898e-06
      227.700   7.29940e-06
      227.800   7.23040e-06
      227.900   7.16198e-06
      228.000   7.09415e-06
      228.100   7.02689e-06
      228.200   6.96020e-06
      228.300   6.89409e-06
      228.400   6.82857e-06
      228.500   6.76360e-06
      228.600   6.69921e-06
      228.700   6.63539e-06
      228.800   6.57211e-06
      228.900   6.50943e-06
      229.000   6.44731e-06
      229.100   6.38573e-06
      229.200   6.32471e-06
      229.300   6.26426e-06
      229.400   6.20436e-06
      229.500   6.14501e-06
      229.600   6.08621e-06
      229.700   6.02795e-06
      229.800   5.97024e-06
      229.900   5.91307e-06
      230.000   5.85639e-06
      230.100   5.79961e-06
      230.200   5.74338e-06
      230.300   5.68774e-06
      230.400   5.63261e-06
      230.500   5.57802e-06
      230.600   5.52395e-06
      230.700   5.47041e-06
      230.800   5.41740e-06
      230.900   5.36491e-06
      231.000   5.31292e-06
      231.100   5.26145e-06
      231.200   5.21048e-06
      231.300   5.16002e-06
      231.400   5.11008e-06
      231.500   5.06060e-06
      231.600   5.01160e-06
      231.700   4.96310e-06
      231.800   4.91509e-06
      231.900   4.86755e-06
      232.000   4.82048e-06
      232.100   4.77386e-06
      232.200   4.72772e-06
      232.300   4.68205e-06
      232.400   4.63681e-06
      232.500   4.59201e-06
      232.600   4.54767e-06
      232.700   4.50376e-06
      232.800   4.46029e-06
      232.900   4.41725e-06
      233.000   4.37463e-06
      233.100   4.33244e-06
      233.200   4.29065e-06
      233.300   4.24928e-06
      233.400   4.20833e-06
      233.500   4.16776e-06
      233.600   4.12761e-06
      233.700   4.08784e-06
      233.800   4.04457e-06
      233.900   4.00115e-06
      234.000   3.95824e-06
      234.100   3.91579e-06
      234.200   3.87381e-06
      234.300   3.83228e-06
      234.400   3.79120e-06
      234.500   3.75056e-06
      234.600   3.71035e-06
      234.700   3.67058e-06
      234.800   3.63125e-06
      234.900   3.59233e-06
      235.000   3.55382e-06
      235.100   3.51574e-06
      235.200   3.47807e-06
      235.300   3.44080e-06
      235.400   3.40394e-06
      235.500   3.36747e-06
      235.600   3.33141e-06
      235.700   3.29572e-06
      235.800   3.26043e-06
      235.900   3.22552e-06
      236.000   3.19099e-06
      236.100   3.15683e-06
      236.200   3.12304e-06
      236.300   3.08960e-06
      236.400   3.05654e-06
      236.500   3.02383e-06
      236.600   2.99147e-06
      236.700   2.95946e-06
      236.800   2.92779e-06
      236.900   2.89646e-06
      237.000   2.86547e-06
      237.100   2.83480e-06
      237.200   2.80447e-06
      237.300   2.77446e-06
      237.400   2.74477e-06
      237.500   2.71539e-06
      237.600   2.68630e-06
      237.700   2.65752e-06
      237.800   2.62904e-06
      237.900   2.60087e-06
      238.000   2.57300e-06
      238.100   2.54541e-06
      238.200   2.51812e-06
      238.300   2.49111e-06
      238.400   2.46438e-06
      238.500   2.43792e-06
      238.600   2.41175e-06
      238.700   2.38585e-06
      238.800   2.36022e-06
      238.900   2.33485e-06
      239.000   2.30973e-06
      239.100   2.28488e-06
      239.200   2.26028e-06
      239.300   2.23593e-06
      239.400   2.21184e-06
      239.500   2.18799e-06
      239.600   2.16438e-06
      239.700   2.14102e-06
      239.800   2.11788e-06
      239.900   2.09498e-06
      240.000   2.07231e-06
      240.100   2.04986e-06
      240.200   2.02764e-06
      240.300   2.00564e-06
      240.400   1.98385e-06
      240.500   1.96229e-06
      240.600   1.94095e-06
      240.700   1.91981e-06
      240.800   1.89889e-06
      240.900   1.87817e-06
      241.000   1.85766e-06
      241.100   1.83736e-06
      241.200   1.81726e-06
      241.300   1.79735e-06
      241.400   1.77764e-06
      241.500   1.75813e-06
      241.600   1.73881e-06
      241.700   1.71968e-06
      241.800   1.70074e-06
      241.900   1.68199e-06
      242.000   1.66343e-06
      242.100   1.64506e-06
      242.200   1.62687e-06
      242.300   1.60887e-06
      242.400   1.59105e-06
      242.500   1.57341e-06
      242.600   1.55594e-06
      242.700   1.53865e-06
      242.800   1.52154e-06
      242.900   1.50461e-06
      243.000   1.48784e-06
      243.100   1.47125e-06
      243.200   1.45482e-06
      243.300   1.43856e-06
      243.400   1.42248e-06
      243.500   1.40656e-06
      243.600   1.39081e-06
      243.700   1.37522e-06
      243.800   1.35979e-06
      243.900   1.34453e-06
      244.000   1.32942e-06
      244.100   1.31447e-06
      244.200   1.29968e-06
      244.300   1.28504e-06
      244.400   1.27056e-06
      244.500   1.25622e-06
      244.600   1.24204e-06
      244.700   1.22802e-06
      244.800   1.21414e-06
      244.900   1.20041e-06
      245.000   1.18682e-06
      245.100   1.17338e-06
      245.200   1.16009e-06
      245.300   1.14694e-06
      245.400   1.13392e-06
      245.500   1.12105e-06
      245.600   1.10832e-06
      245.700   1.09571e-06
      245.800   1.08324e-06
      245.900   1.07092e-06
      246.000   1.05873e-06
      246.100   1.04667e-06
      246.200   1.03473e-06
      246.300   1.02293e-06
      246.400   1.01126e-06
      246.500   9.99711e-07
      246.600   9.88287e-07
      246.700   9.76991e-07
      246.800   9.65812e-07
      246.900   9.54756e-07
      247.000   9.43826e-07
      247.100   9.33015e-07
      247.200   9.22323e-07
      247.300   9.11749e-07
      247.400   9.01289e-07
      247.500   8.90944e-07
      247.600   8.80712e-07
      247.700   8.70593e-07
      247.800   8.60585e-07
      247.900   8.50686e-07
      248.000   8.40898e-07
      248.100   8.31227e-07
      248.200   8.21662e-07
      248.300   8.12200e-07
      248.400   8.02844e-07
      248.500   7.93590e-07
      248.600   7.84440e-07
      248.700   7.75393e-07
      248.800   7.66448e-07
      248.900   7.57604e-07
      249.000   7.48859e-07
      249.100   7.40213e-07
      249.200   7.31670e-07
      249.300   7.23220e-07
      249.400   7.14867e-07
      249.500   7.06609e-07
      249.600   6.98443e-07
      249.700   6.90370e-07
      249.800   6.82389e-07
      249.900   6.74499e-07
      250.000   6.66700e-07
      250.100   6.58995e-07
      250.200   6.51373e-07
      250.300   6.43845e-07
      250.400   6.36403e-07
      250.500   6.29046e-07
      250.600   6.21776e-07
      250.700   6.14588e-07
      250.800   6.07483e-07
      250.900   6.00460e-07
      251.000   5.93518e-07
      251.100   5.86657e-07
      251.200   5.79878e-07
      251.300   5.73180e-07
      251.400   5.66560e-07
      251.500   5.60015e-07
      251.600   5.53546e-07
      251.700   5.47156e-07
      251.800   5.40839e-07
      251.900   5.34595e-07
      252.000   5.28422e-07
      252.100   5.22325e-07
      252.200   5.16294e-07
      252.300   5.10340e-07
      252.400   5.04450e-07
      252.500   4.98634e-07
      252.600   4.92883e-07
      252.700   4.87200e-07
      252.800   4.81583e-07
      252.900   4.76030e-07
      253.000   4.70542e-07
      253.100   4.65119e-07
      253.200   4.59758e-07
      253.300   4.54654e-07
      253.400   4.49700e-07
      253.500   4.44802e-07
      253.600   4.39959e-07
      253.700   4.35167e-07
      253.800   4.30430e-07
      253.900   4.25744e-07
      254.000   4.21108e-07
      254.100   4.16522e-07
      254.200   4.11986e-07
      254.300   4.07499e-07
      254.400   4.03061e-07
      254.500   3.98671e-07
      254.600   3.94327e-07
      254.700   3.90031e-07
      254.800   3.85783e-07
      254.900   3.81580e-07
      255.000   3.77422e-07
      255.100   3.73306e-07
      255.200   3.69235e-07
      255.300   3.65208e-07
      255.400   3.61223e-07
      255.500   3.57282e-07
      255.600   3.53382e-07
      255.700   3.49524e-07
      255.800   3.45706e-07
      255.900   3.41928e-07
      256.000   3.38190e-07
      256.100   3.34492e-07
      256.200   3.30833e-07
      256.300   3.27213e-07
      256.400   3.23633e-07
      256.500   3.20088e-07
      256.600   3.16582e-07
      256.700   3.13113e-07
      256.800   3.09679e-07
      256.900   3.06282e-07
      257.000   3.02920e-07
      257.100   2.99594e-07
      257.200   2.96303e-07
      257.300   2.93047e-07
      257.400   2.89906e-07
      257.500   2.86827e-07
      257.600   2.83783e-07
      257.700   2.80768e-07
      257.800   2.77784e-07
      257.900   2.74831e-07
      258.000   2.71907e-07
      258.100   2.69013e-07
      258.200   2.66149e-07
      258.300   2.63314e-07
      258.400   2.60507e-07
      258.500   2.57728e-07
      258.600   2.54978e-07
      258.700   2.52257e-07
      258.800   2.49561e-07
      258.900   2.46896e-07
      259.000   2.44255e-07
      259.100   2.41643e-07
      259.200   2.39056e-07
      259.300   2.36497e-07
      259.400   2.33964e-07
      259.500   2.31455e-07
      259.600   2.28974e-07
      259.700   2.26518e-07
      259.800   2.24086e-07
      259.900   2.21678e-07
      260.000   2.19296e-07
      260.100   2.16938e-07
      260.200   2.14604e-07
      260.300   2.12294e-07
      260.400   2.10008e-07
      260.500   2.07746e-07
      260.600   2.05506e-07
      260.700   2.03289e-07
      260.800   2.01096e-07
      260.900   1.98924e-07
      261.000   1.96775e-07
      261.100   1.94649e-07
      261.200   1.92543e-07
      261.300   1.90459e-07
      261.400   1.88398e-07
      261.500   1.86367e-07
      261.600   1.84385e-07
      261.700   1.82428e-07
      261.800   1.80491e-07
      261.900   1.78573e-07
      262.000   1.76675e-07
      262.100   1.74795e-07
      262.200   1.72935e-07
      262.300   1.71094e-07
      262.400   1.69271e-07
      262.500   1.67466e-07
      262.600   1.65679e-07
      262.700   1.63910e-07
      262.800   1.62159e-07
      262.900   1.60425e-07
      263.000   1.58711e-07
      263.100   1.57012e-07
      263.200   1.55331e-07
      263.300   1.53667e-07
      263.400   1.52019e-07
      263.500   1.50389e-07
      263.600   1.48775e-07
      263.700   1.47178e-07
      263.800   1.45596e-07
      263.900   1.44031e-07
      264.000   1.42482e-07
      264.100   1.40948e-07
      264.200   1.39429e-07
      264.300   1.37927e-07
      264.400   1.36440e-07
      264.500   1.34968e-07
      264.600   1.33510e-07
      264.700   1.32068e-07
      264.800   1.30640e-07
      264.900   1.29228e-07
      265.000   1.27830e-07
      265.100   1.26445e-07
      265.200   1.25075e-07
      265.300   1.23720e-07
      265.400   1.22378e-07
      265.500   1.21050e-07
      265.600   1.19736e-07
      265.700   1.18435e-07
      265.800   1.17151e-07
      265.900   1.15880e-07
      266.000   1.14622e-07
      266.100   1.13377e-07
      266.200   1.12146e-07
      266.300   1.10927e-07
      266.400   1.09721e-07
      266.500   1.08527e-07
      266.600   1.07346e-07
      266.700   1.06177e-07
      266.800   1.05021e-07
      266.900   1.03877e-07
      267.000   1.02745e-07
      267.100   1.01624e-07
      267.200   1.00517e-07
      267.300   9.94202e-08
      267.400   9.83350e-08
      267.500   9.72616e-08
      267.600   9.61996e-08
      267.700   9.51488e-08
      267.800   9.41090e-08
      267.900   9.30804e-08
      268.000   9.20631e-08
      268.100   9.10564e-08
      268.200   9.00608e-08
      268.300   8.90761e-08
      268.400   8.81014e-08
      268.500   8.71372e-08
      268.600   8.61833e-08
      268.700   8.52401e-08
      268.800   8.43067e-08
      268.900   8.33837e-08
      269.000   8.24708e-08
      269.100   8.15674e-08
      269.200   8.06742e-08
      269.300   7.97907e-08
      269.400   7.89161e-08
      269.500   7.80512e-08
      269.600   7.71960e-08
      269.700   7.63502e-08
      269.800   7.55135e-08
      269.900   7.46857e-08
      270.000   7.38673e-08
      270.100   7.30597e-08
      270.200   7.22621e-08
      270.300   7.14730e-08
      270.400   7.06923e-08
      270.500   6.99204e-08
      270.600   6.91565e-08
      270.700   6.84013e-08
      270.800   6.76544e-08
      270.900   6.69151e-08
      271.000   6.61843e-08
      271.100   6.54614e-08
      271.200   6.47461e-08
      271.300   6.40390e-08
      271.400   6.33393e-08
      271.500   6.26475e-08
      271.600   6.19629e-08
      271.700   6.12859e-08
      271.800   6.06165e-08
      271.900   5.99541e-08
      272.000   5.92993e-08
      272.100   5.86513e-08
      272.200   5.80106e-08
      272.300   5.73765e-08
      272.400   5.67495e-08
      272.500   5.61295e-08
      272.600   5.55160e-08
      272.700   5.49092e-08
      272.800   5.43090e-08
      272.900   5.37155e-08
      273.000   5.31286e-08
      273.100   5.25477e-08
      273.200   5.19732e-08
      273.300   5.14052e-08
      273.400   5.08432e-08
      273.500   5.02873e-08
      273.600   4.97374e-08
      273.700   4.91934e-08
      273.800   4.86553e-08
      273.900   4.81234e-08
      274.000   4.75970e-08
      274.100   4.70763e-08
      274.200   4.65612e-08
      274.300   4.60518e-08
      274.400   4.55338e-08
      274.500   4.49843e-08
      274.600   4.44347e-08
      274.700   4.38923e-08
      274.800   4.33562e-08
      274.900   4.28264e-08
      275.000   4.23031e-08
      275.100   4.17860e-08
      275.200   4.12752e-08
      275.300   4.07703e-08
      275.400   4.02716e-08
      275.500   3.97790e-08
      275.600   3.92919e-08
      275.700   3.88109e-08
      275.800   3.83357e-08
      275.900   3.78661e-08
      276.000   3.74021e-08
      276.100   3.69436e-08
      276.200   3.64906e-08
      276.300   3.60429e-08
      276.400   3.56007e-08
      276.500   3.51635e-08
      276.600   3.47319e-08
      276.700   3.43052e-08
      276.800   3.38838e-08
      276.900   3.34673e-08
      277.000   3.30557e-08
      277.100   3.26491e-08
      277.200   3.22473e-08
      277.300   3.18504e-08
      277.400   3.14582e-08
      277.500   3.10706e-08
      277.600   3.06878e-08
      277.700   3.03094e-08
      277.800   2.99355e-08
      277.900   2.95662e-08
      278.000   2.92013e-08
      278.100   2.88408e-08
      278.200   2.84845e-08
      278.300   2.81326e-08
      278.400   2.77849e-08
      278.500   2.74412e-08
      278.600   2.71015e-08
      278.700   2.67661e-08
      278.800   2.64347e-08
      278.900   2.61046e-08
      279.000   2.57778e-08
      279.100   2.54550e-08
      279.200   2.51359e-08
      279.300   2.48209e-08
      279.400   2.45094e-08
      279.500   2.42019e-08
      279.600   2.38981e-08
      279.700   2.35980e-08
      279.800   2.33015e-08
      279.900   2.30085e-08
      280.000   2.27192e-08
      280.100   2.24332e-08
      280.200   2.21509e-08
      280.300   2.18718e-08
      280.400   2.15961e-08
      280.500   2.13240e-08
      280.600   2.10551e-08
      280.700   2.07894e-08
      280.800   2.05270e-08
      280.900   2.02677e-08
      281.000   2.00116e-08
      281.100   1.97585e-08
      281.200   1.95086e-08
      281.300   1.92617e-08
      281.400   1.90178e-08
      281.500   1.87769e-08
      281.600   1.85388e-08
      281.700   1.83037e-08
      281.800   1.80716e-08
      281.900   1.78421e-08
      282.000   1.76155e-08
      282.100   1.73916e-08
      282.200   1.71706e-08
      282.300   1.69522e-08
      282.400   1.67364e-08
      282.500   1.65233e-08
      282.600   1.63128e-08
      282.700   1.61049e-08
      282.800   1.58994e-08
      282.900   1.56966e-08
      283.000   1.54962e-08
      283.100   1.52983e-08
      283.200   1.51028e-08
      283.300   1.49098e-08
      283.400   1.47191e-08
      283.500   1.45307e-08
      283.600   1.43446e-08
      283.700   1.41608e-08
      283.800   1.39792e-08
      283.900   1.38000e-08
      284.000   1.36229e-08
      284.100   1.34480e-08
      284.200   1.32752e-08
      284.300   1.31046e-08
      284.400   1.29361e-08
      284.500   1.27696e-08
      284.600   1.26052e-08
      284.700   1.24429e-08
      284.800   1.22826e-08
      284.900   1.21243e-08
      285.000   1.19678e-08
      285.100   1.18133e-08
      285.200   1.16608e-08
      285.300   1.15101e-08
      285.400   1.13613e-08
      285.500   1.12144e-08
      285.600   1.10693e-08
      285.700   1.09259e-08
      285.800   1.07845e-08
      285.900   1.06447e-08
      286.000   1.05067e-08
      286.100   1.03704e-08
      286.200   1.02358e-08
      286.300   1.01029e-08
      286.400   9.97171e-09
      286.500   9.84209e-09
      286.600   9.71411e-09
      286.700   9.58772e-09
      286.800   9.46292e-09
      286.900   9.33967e-09
      287.000   9.21798e-09
      287.100   9.09781e-09
      287.200   8.97917e-09
      287.300   8.86202e-09
      287.400   8.74630e-09
      287.500   8.63205e-09
      287.600   8.51926e-09
      287.700   8.40785e-09
      287.800   8.29789e-09
      287.900   8.18932e-09
      288.000   8.08215e-09
      288.100   7.97627e-09
      288.200   7.87181e-09
      288.300   7.76868e-09
      288.400   7.66680e-09
      288.500   7.56628e-09
      288.600   7.46695e-09
      288.700   7.36891e-09
      288.800   7.27212e-09
      288.900   7.17659e-09
      289.000   7.08225e-09
      289.100   6.98909e-09
      289.200   6.89715e-09
      289.300   6.80637e-09
      289.400   6.71672e-09
      289.500   6.62824e-09
      289.600   6.54086e-09
      289.700   6.45466e-09
      289.800   6.36950e-09
      289.900   6.28542e-09
      290.000   6.20246e-09
      290.100   6.12052e-09
      290.200   6.03967e-09
      290.300   5.95986e-09
      290.400   5.88106e-09
      290.500   5.80331e-09
      290.600   5.72651e-09
      290.700   5.65071e-09
      290.800   5.57593e-09
      290.900   5.50207e-09
      291.000   5.42913e-09
      291.100   5.35713e-09
      291.200   5.28608e-09
      291.300   5.21594e-09
      291.400   5.14671e-09
      291.500   5.07837e-09
      291.600   5.01089e-09
      291.700   4.94433e-09
      291.800   4.87860e-09
      291.900   4.81375e-09
      292.000   4.74973e-09
      292.100   4.68653e-09
      292.200   4.62418e-09
      292.300   4.56259e-09
      292.400   4.50181e-09
      292.500   4.44181e-09
      292.600   4.38258e-09
      292.700   4.32414e-09
      292.800   4.26645e-09
      292.900   4.20953e-09
      293.000   4.15333e-09
      293.100   4.09785e-09
      293.200   4.04309e-09
      293.300   3.98905e-09
      293.400   3.93573e-09
      293.500   3.88310e-09
      293.600   3.83115e-09
      293.700   3.77987e-09
      293.800   3.72927e-09
      293.900   3.67934e-09
      294.000   3.63004e-09
      294.100   3.58139e-09
      294.200   3.53338e-09
      294.300   3.48601e-09
      294.400   3.43921e-09
      294.500   3.39305e-09
      294.600   3.34748e-09
      294.700   3.30252e-09
      294.800   3.25814e-09
      294.900   3.21435e-09
      295.000   3.17112e-09
      295.100   3.12849e-09
      295.200   3.08640e-09
      295.300   3.04485e-09
      295.400   3.00386e-09
      295.500   2.96342e-09
      295.600   2.92349e-09
      295.700   2.88408e-09
      295.800   2.84520e-09
      295.900   2.80681e-09
      296.000   2.76893e-09
      296.100   2.73154e-09
      296.200   2.69466e-09
      296.300   2.65825e-09
      296.400   2.62236e-09
      296.500   2.58691e-09
      296.600   2.55193e-09
      296.700   2.51741e-09
      296.800   2.48335e-09
      296.900   2.44973e-09
      297.000   2.41656e-09
      297.100   2.38382e-09
      297.200   2.35152e-09
      297.300   2.31963e-09
      297.400   2.28817e-09
      297.500   2.25711e-09
      297.600   2.22648e-09
      297.700   2.19624e-09
      297.800   2.16641e-09
      297.900   2.13698e-09
      298.000   2.10794e-09
      298.100   2.07928e-09
      298.200   2.05100e-09
      298.300   2.02310e-09
      298.400   1.99556e-09
      298.500   1.96837e-09
      298.600   1.94155e-09
      298.700   1.91509e-09
      298.800   1.88896e-09
      298.900   1.86321e-09
      299.000   1.83780e-09
      299.100   1.81273e-09
      299.200   1.78798e-09
      299.300   1.76356e-09
      299.400   1.73946e-09
      299.500   1.71569e-09
      299.600   1.69223e-09
      299.700   1.66908e-09
      299.800   1.64623e-09
      299.900   1.62370e-09
      300.000   1.60146e-09
      300.100   1.57952e-09
      300.192   1.55959e-09
      300.285   1.53969e-09
      300.377   1.52025e-09
      300.470   1.50086e-09
      300.562   1.48190e-09
      300.654   1.46317e-09
      300.747   1.44447e-09
      300.839   1.42621e-09
      300.932   1.40796e-09
      301.025   1.38995e-09
      301.117   1.37236e-09
      301.210   1.35478e-09
      301.303   1.33743e-09
      301.395   1.32050e-09
      301.488   1.30356e-09
      301.581   1.28686e-09
      301.674   1.27035e-09
      301.766   1.25422e-09
      301.859   1.23812e-09
      301.952   1.22223e-09
      302.045   1.20653e-09
      302.138   1.19105e-09
      302.231   1.17582e-09
      302.324   1.16078e-09
      302.417   1.14592e-09
      302.510   1.13124e-09
      302.603   1.11677e-09
      302.696   1.10246e-09
      302.789   1.08832e-09
      302.882   1.07436e-09
      302.976   1.06044e-09
      303.069   1.04683e-09
      303.162   1.03339e-09
      303.255   1.02012e-09
      303.349   1.00687e-09
      303.442   9.93922e-10
      303.535   9.81149e-10
      303.629   9.68396e-10
      303.722   9.55938e-10
      303.816   9.43501e-10
      303.909   9.31350e-10
      304.003   9.19225e-10
      304.096   9.07373e-10
      304.190   8.95546e-10
      304.283   8.83993e-10
      304.377   8.72471e-10
      304.471   8.61084e-10
      304.564   8.49962e-10
      304.658   8.38870e-10
      304.752   8.27903e-10
      304.846   8.17087e-10
      304.939   8.06518e-10
      305.033   7.95967e-10
      305.127   7.85553e-10
      305.221   7.75271e-10
      305.315   7.65120e-10
      305.409   7.55096e-10
      305.503   7.45201e-10
      305.597   7.35432e-10
      305.691   7.25785e-10
      305.785   7.16259e-10
      305.879   7.06854e-10
      305.973   6.97575e-10
      306.067   6.88406e-10
      306.161   6.79361e-10
      306.255   6.70428e-10
      306.350   6.61516e-10
      306.444   6.52810e-10
      306.538   6.44214e-10
      306.633   6.35644e-10
      306.727   6.27267e-10
      306.821   6.18997e-10
      306.916   6.10749e-10
      307.010   6.02696e-10
      307.105   5.94668e-10
      307.199   5.86826e-10
      307.294   5.79001e-10
      307.388   5.71360e-10
      307.483   5.63739e-10
      307.577   5.56293e-10
      307.672   5.48866e-10
      307.767   5.41536e-10
      307.861   5.34377e-10
      307.956   5.27230e-10
      308.051   5.20178e-10
      308.146   5.13221e-10
      308.240   5.06426e-10
      308.335   4.99646e-10
      308.430   4.92951e-10
      308.525   4.86344e-10
      308.620   4.79827e-10
      308.715   4.73392e-10
      308.810   4.67043e-10
      308.905   4.60775e-10
      309.000   4.54590e-10
      309.095   4.48485e-10
      309.190   4.42462e-10
      309.285   4.36515e-10
      309.380   4.30646e-10
      309.476   4.24797e-10
      309.571   4.19081e-10
      309.666   4.13439e-10
      309.761   4.07874e-10
      309.857   4.02324e-10
      309.952   3.96902e-10
      310.047   3.91555e-10
      310.143   3.86221e-10
      310.238   3.81013e-10
      310.334   3.75819e-10
      310.429   3.70745e-10
      310.525   3.65688e-10
      310.620   3.60750e-10
      310.716   3.55824e-10
      310.811   3.51015e-10
      310.907   3.46223e-10
      311.003   3.41493e-10
      311.098   3.36872e-10
      311.194   3.32265e-10
      311.290   3.27721e-10
      311.386   3.23238e-10
      311.481   3.18859e-10
      311.577   3.14496e-10
      311.673   3.10188e-10
      311.769   3.05938e-10
      311.865   3.01747e-10
      311.961   2.97634e-10
      312.057   2.93676e-10
      312.153   2.89809e-10
      312.249   2.85987e-10
      312.345   2.82216e-10
      312.441   2.78491e-10
      312.537   2.74816e-10
      312.633   2.71189e-10
      312.730   2.67570e-10
      312.826   2.64036e-10
      312.922   2.60548e-10
      313.018   2.57106e-10
      313.115   2.53672e-10
      313.211   2.50317e-10
      313.307   2.47006e-10
      313.404   2.43705e-10
      313.500   2.40479e-10
      313.597   2.37265e-10
      313.693   2.34124e-10
      313.790   2.30992e-10
      313.886   2.27933e-10
      313.983   2.24881e-10
      314.079   2.21900e-10
      314.176   2.18928e-10
      314.273   2.15995e-10
      314.369   2.13131e-10
      314.466   2.10275e-10
      314.563   2.07455e-10
      314.660   2.04674e-10
      314.756   2.01957e-10
      314.853   1.99247e-10
      314.950   1.96573e-10
      315.047   1.93934e-10
      315.144   1.91330e-10
      315.241   1.88761e-10
      315.338   1.86225e-10
      315.435   1.83722e-10
      315.532   1.81253e-10
      315.629   1.78817e-10
      315.726   1.76412e-10
      315.823   1.74038e-10
      315.921   1.71673e-10
      316.018   1.69363e-10
      316.115   1.67083e-10
      316.212   1.64832e-10
      316.310   1.62590e-10
      316.407   1.60400e-10
      316.504   1.58237e-10
      316.602   1.56082e-10
      316.699   1.53978e-10
      316.796   1.51902e-10
      316.894   1.49832e-10
      316.991   1.47818e-10
      317.089   1.45863e-10
      317.187   1.43964e-10
      317.284   1.42106e-10
      317.382   1.40253e-10
      317.479   1.38441e-10
      317.577   1.36635e-10
      317.675   1.34852e-10
      317.773   1.33091e-10
      317.870   1.31371e-10
      317.968   1.29655e-10
      318.066   1.27961e-10
      318.164   1.26288e-10
      318.262   1.24637e-10
      318.360   1.23007e-10
      318.458   1.21399e-10
      318.556   1.19811e-10
      318.654   1.18244e-10
      318.752   1.16696e-10
      318.850   1.15168e-10
      318.948   1.13660e-10
      319.046   1.12171e-10
      319.144   1.10701e-10
      319.242   1.09250e-10
      319.341   1.07804e-10
      319.439   1.06390e-10
      319.537   1.04995e-10
      319.635   1.03617e-10
      319.734   1.02243e-10
      319.832   1.00901e-10
      319.930   9.95762e-11
      320.029   9.82552e-11
      320.127   9.69644e-11
      320.226   9.56773e-11
      320.324   9.44190e-11
      320.423   9.31640e-11
      320.522   9.19268e-11
      320.620   9.07176e-11
      320.719   8.95113e-11
      320.818   8.83210e-11
      320.916   8.71579e-11
      321.015   8.59979e-11
      321.114   8.48530e-11
      321.213   8.37230e-11
      321.311   8.26192e-11
      321.410   8.15189e-11
      321.509   8.04322e-11
      321.608   7.93603e-11
      321.707   7.83020e-11
      321.806   7.72572e-11
      321.905   7.62266e-11
      322.004   7.52089e-11
      322.103   7.42051e-11
      322.202   7.32138e-11
      322.301   7.22358e-11
      322.401   7.12611e-11
      322.500   7.03086e-11
      322.599   6.93687e-11
      322.698   6.84410e-11
      322.798   6.75161e-11
      322.897   6.66124e-11
      322.996   6.57208e-11
      323.096   6.48314e-11
      323.195   6.39628e-11
      323.294   6.31056e-11
      323.394   6.22514e-11
      323.493   6.14165e-11
      323.593   6.05844e-11
      323.692   5.97714e-11
      323.792   5.89612e-11
      323.892   5.81616e-11
      323.991   5.73799e-11
      324.091   5.66014e-11
      324.191   5.58329e-11
      324.291   5.50746e-11
      324.390   5.43341e-11
      324.490   5.35955e-11
      324.590   5.28670e-11
      324.690   5.21482e-11
      324.790   5.14388e-11
      324.890   5.07390e-11
      324.990   5.00481e-11
      325.090   4.93663e-11
      325.190   4.86939e-11
      325.290   4.80307e-11
      325.390   4.73754e-11
      325.490   4.67296e-11
      325.590   4.60923e-11
      325.690   4.54630e-11
      325.790   4.48423e-11
      325.891   4.42239e-11
      325.991   4.36198e-11
      326.091   4.30234e-11
      326.192   4.24294e-11
      326.292   4.18490e-11
      326.392   4.12765e-11
      326.493   4.07059e-11
      326.593   4.01485e-11
      326.694   3.95934e-11
      326.794   3.90509e-11
      326.895   3.85102e-11
      326.995   3.79820e-11
      327.096   3.74559e-11
      327.197   3.69368e-11
      327.297   3.64297e-11
      327.398   3.59244e-11
      327.499   3.54260e-11
      327.599   3.49389e-11
      327.700   3.44536e-11
      327.801   3.39749e-11
      327.902   3.35030e-11
      328.003   3.30371e-11
      328.104   3.25776e-11
      328.205   3.21243e-11
      328.306   3.16771e-11
      328.407   3.12361e-11
      328.508   3.08008e-11
      328.609   3.03715e-11
      328.710   2.99481e-11
      328.811   2.95304e-11
      328.912   2.91184e-11
      329.013   2.87119e-11
      329.115   2.83072e-11
      329.216   2.79117e-11
      329.317   2.75216e-11
      329.419   2.71333e-11
      329.520   2.67537e-11
      329.621   2.63791e-11
      329.723   2.60062e-11
      329.824   2.56423e-11
      329.926   2.52796e-11
      330.027   2.49252e-11
      330.129   2.45723e-11
      330.230   2.42279e-11
      330.332   2.38845e-11
      330.434   2.35460e-11
      330.535   2.32153e-11
      330.637   2.28860e-11
      330.739   2.25613e-11
      330.840   2.22441e-11
      330.942   2.19281e-11
      331.044   2.16166e-11
      331.146   2.13094e-11
      331.248   2.10064e-11
      331.350   2.07076e-11
      331.452   2.04135e-11
      331.554   2.01344e-11
      331.656   1.98761e-11
      331.758   1.96212e-11
      331.860   1.93692e-11
      331.962   1.91205e-11
      332.064   1.88748e-11
      332.166   1.86323e-11
      332.268   1.83926e-11
      332.371   1.81538e-11
      332.473   1.79201e-11
      332.575   1.76892e-11
      332.677   1.74613e-11
      332.780   1.72342e-11
      332.882   1.70119e-11
      332.985   1.67904e-11
      333.087   1.65736e-11
      333.190   1.63576e-11
      333.292   1.61414e-11
      333.395   1.59130e-11
      333.497   1.56851e-11
      333.600   1.54580e-11
      333.702   1.52364e-11
      333.805   1.50159e-11
      333.908   1.47982e-11
      334.011   1.45837e-11
      334.113   1.43743e-11
      334.216   1.41658e-11
      334.319   1.39602e-11
      334.422   1.37575e-11
      334.525   1.35578e-11
      334.628   1.33608e-11
      334.731   1.31667e-11
      334.834   1.29753e-11
      334.937   1.27866e-11
      335.040   1.26005e-11
      335.143   1.24172e-11
      335.246   1.22364e-11
      335.349   1.20582e-11
      335.452   1.18825e-11
      335.555   1.17094e-11
      335.659   1.15370e-11
      335.762   1.13688e-11
      335.865   1.12030e-11
      335.969   1.10379e-11
      336.072   1.08767e-11
      336.175   1.07179e-11
      336.279   1.05599e-11
      336.382   1.04056e-11
      336.486   1.02520e-11
      336.589   1.01021e-11
      336.693   9.95300e-12
      336.796   9.80743e-12
      336.900   9.66253e-12
      337.004   9.51964e-12
      337.107   9.38033e-12
      337.211   9.24157e-12
      337.315   9.10497e-12
      337.419   8.97023e-12
      337.523   8.83742e-12
      337.626   8.70785e-12
      337.730   8.57894e-12
      337.834   8.45185e-12
      337.938   8.32667e-12
      338.042   8.20376e-12
      338.146   8.08473e-12
      338.250   7.96754e-12
      338.354   7.85202e-12
      338.458   7.73807e-12
      338.562   7.62577e-12
      338.667   7.51406e-12
      338.771   7.40495e-12
      338.875   7.29741e-12
      338.979   7.19139e-12
      339.084   7.08599e-12
      339.188   6.98302e-12
      339.292   6.88156e-12
      339.397   6.78054e-12
      339.501   6.68201e-12
      339.606   6.58385e-12
      339.710   6.48810e-12
      339.815   6.39279e-12
      339.919   6.29980e-12
      340.024   6.20719e-12
      340.128   6.11690e-12
      340.233   6.02694e-12
      340.338   5.93838e-12
      340.442   5.85186e-12
      340.547   5.76582e-12
      340.652   5.68099e-12
      340.757   5.59742e-12
      340.862   5.51504e-12
      340.966   5.43466e-12
      341.071   5.35467e-12
      341.176   5.27584e-12
      341.281   5.19815e-12
      341.386   5.12163e-12
      341.491   5.04616e-12
      341.596   4.97186e-12
      341.702   4.89792e-12
      341.807   4.82574e-12
      341.912   4.75462e-12
      342.017   4.68454e-12
      342.122   4.61545e-12
      342.228   4.54679e-12
      342.333   4.47974e-12
      342.438   4.41367e-12
      342.544   4.34797e-12
      342.649   4.28382e-12
      342.754   4.22066e-12
      342.860   4.15778e-12
      342.965   4.09638e-12
      343.071   4.03540e-12
      343.176   3.97583e-12
      343.282   3.91657e-12
      343.388   3.85821e-12
      343.493   3.80169e-12
      343.599   3.74943e-12
      343.705   3.69828e-12
      343.810   3.64825e-12
      343.916   3.59847e-12
      344.022   3.54935e-12
      344.128   3.50090e-12
      344.234   3.45308e-12
      344.340   3.40593e-12
      344.446   3.35940e-12
      344.552   3.31350e-12
      344.658   3.26824e-12
      344.764   3.22362e-12
      344.870   3.17955e-12
      344.976   3.13612e-12
      345.082   3.09326e-12
      345.188   3.05100e-12
      345.294   3.00927e-12
      345.401   2.96775e-12
      345.507   2.92718e-12
      345.613   2.88716e-12
      345.719   2.84768e-12
      345.826   2.80837e-12
      345.932   2.76995e-12
      346.039   2.73172e-12
      346.145   2.69434e-12
      346.252   2.65713e-12
      346.358   2.62076e-12
      346.465   2.58458e-12
      346.571   2.54921e-12
      346.678   2.51398e-12
      346.785   2.47923e-12
      346.891   2.44529e-12
      346.998   2.41151e-12
      347.105   2.37818e-12
      347.212   2.34531e-12
      347.319   2.31287e-12
      347.425   2.28117e-12
      347.532   2.24962e-12
      347.639   2.21851e-12
      347.746   2.18782e-12
      347.853   2.15753e-12
      347.960   2.12768e-12
      348.067   2.09824e-12
      348.174   2.06921e-12
      348.281   2.04055e-12
      348.389   2.01204e-12
      348.496   1.98416e-12
      348.603   1.95670e-12
      348.710   1.92960e-12
      348.818   1.90261e-12
      348.925   1.87624e-12
      349.032   1.85024e-12
      349.140   1.82425e-12
      349.247   1.79884e-12
      349.355   1.77356e-12
      349.462   1.74885e-12
      349.570   1.72423e-12
      349.677   1.70020e-12
      349.785   1.67627e-12
      349.892   1.65289e-12
      350.000   1.62963e-12
      350.100   1.60838e-12
      350.193   1.58886e-12
      350.287   1.56935e-12
      350.380   1.55030e-12
      350.473   1.53147e-12
      350.567   1.51266e-12
      350.660   1.49428e-12
      350.754   1.47592e-12
      350.847   1.45799e-12
      350.941   1.44007e-12
      351.034   1.42256e-12
      351.128   1.40507e-12
      351.221   1.38799e-12
      351.315   1.37091e-12
      351.409   1.35404e-12
      351.502   1.33756e-12
      351.596   1.32111e-12
      351.690   1.30483e-12
      351.783   1.28894e-12
      351.877   1.27307e-12
      351.971   1.25739e-12
      352.065   1.24190e-12
      352.159   1.22659e-12
      352.252   1.21163e-12
      352.346   1.19668e-12
      352.440   1.18193e-12
      352.534   1.16736e-12
      352.628   1.15295e-12
      352.722   1.13871e-12
      352.816   1.12465e-12
      352.910   1.11077e-12
      353.004   1.09706e-12
      353.098   1.08350e-12
      353.192   1.07010e-12
      353.287   1.05673e-12
      353.381   1.04366e-12
      353.475   1.03076e-12
      353.569   1.01799e-12
      353.663   1.00540e-12
      353.758   9.92825e-13
      353.852   9.80532e-13
      353.946   9.68383e-13
      354.041   9.56256e-13
      354.135   9.44403e-13
      354.229   9.32690e-13
      354.324   9.20998e-13
      354.418   9.09570e-13
      354.513   8.98159e-13
      354.607   8.87017e-13
      354.702   8.75826e-13
      354.796   8.64670e-13
      354.891   8.53509e-13
      354.985   8.42611e-13
      355.080   8.31733e-13
      355.175   8.20986e-13
      355.269   8.10489e-13
      355.364   8.00011e-13
      355.459   7.89670e-13
      355.553   7.79558e-13
      355.648   7.69473e-13
      355.743   7.59518e-13
      355.838   7.49673e-13
      355.933   7.39967e-13
      356.027   7.30478e-13
      356.122   7.21003e-13
      356.217   7.11651e-13
      356.312   7.02424e-13
      356.407   6.93305e-13
      356.502   6.84303e-13
      356.597   6.75412e-13
      356.692   6.66636e-13
      356.787   6.57970e-13
      356.882   6.49407e-13
      356.977   6.40963e-13
      357.073   6.32535e-13
      357.168   6.24293e-13
      357.263   6.16161e-13
      357.358   6.08129e-13
      357.453   6.00202e-13
      357.549   5.92293e-13
      357.644   5.84564e-13
      357.739   5.76937e-13
      357.835   5.69320e-13
      357.930   5.61881e-13
      358.025   5.54536e-13
      358.121   5.47210e-13
      358.216   5.40051e-13
      358.312   5.32907e-13
      358.407   5.25930e-13
      358.503   5.18969e-13
      358.598   5.12172e-13
      358.694   5.05386e-13
      358.790   4.98686e-13
      358.885   4.92139e-13
      358.981   4.85611e-13
      359.076   4.79235e-13
      359.172   4.72875e-13
      359.268   4.66588e-13
      359.364   4.60385e-13
      359.459   4.54332e-13
      359.555   4.48288e-13
      359.651   4.42321e-13
      359.747   4.36431e-13
      359.843   4.30617e-13
      359.939   4.24877e-13
      360.035   4.19214e-13
      360.131   4.13625e-13
      360.227   4.08101e-13
      360.323   4.02654e-13
      360.419   3.97277e-13
      360.515   3.91969e-13
      360.611   3.86727e-13
      360.707   3.81549e-13
      360.803   3.76447e-13
      360.899   3.71405e-13
      360.995   3.66432e-13
      361.092   3.61471e-13
      361.188   3.56622e-13
      361.284   3.51838e-13
      361.380   3.47117e-13
      361.477   3.42407e-13
      361.573   3.37805e-13
      361.669   3.33266e-13
      361.766   3.28736e-13
      361.862   3.24314e-13
      361.959   3.19905e-13
      362.055   3.15592e-13
      362.152   3.11298e-13
      362.248   3.07101e-13
      362.345   3.02913e-13
      362.441   2.98827e-13
      362.538   2.94753e-13
      362.635   2.90730e-13
      362.731   2.86800e-13
      362.828   2.82881e-13
      362.925   2.79015e-13
      363.021   2.75238e-13
      363.118   2.71474e-13
      363.215   2.67757e-13
      363.312   2.64089e-13
      363.409   2.60472e-13
      363.505   2.56937e-13
      363.602   2.53412e-13
      363.699   2.49935e-13
      363.796   2.46504e-13
      363.893   2.43118e-13
      363.990   2.39777e-13
      364.087   2.36480e-13
      364.184   2.33227e-13
      364.281   2.30016e-13
      364.378   2.26849e-13
      364.475   2.23724e-13
      364.573   2.20608e-13
      364.670   2.17566e-13
      364.767   2.14564e-13
      364.864   2.11602e-13
      364.961   2.08679e-13
      365.059   2.05766e-13
      365.156   2.02923e-13
      365.253   2.00116e-13
      365.351   1.97318e-13
      365.448   1.94586e-13
      365.545   1.91891e-13
      365.643   1.89204e-13
      365.740   1.86580e-13
      365.838   1.83966e-13
      365.935   1.81413e-13
      366.033   1.78869e-13
      366.130   1.76384e-13
      366.228   1.73908e-13
      366.326   1.71466e-13
      366.423   1.69081e-13
      366.521   1.66705e-13
      366.618   1.64383e-13
      366.716   1.62070e-13
      366.814   1.59789e-13
      366.912   1.57540e-13
      367.010   1.55319e-13
      367.107   1.53152e-13
      367.205   1.50991e-13
      367.303   1.48861e-13
      367.401   1.46760e-13
      367.499   1.44687e-13
      367.597   1.42643e-13
      367.695   1.40627e-13
      367.793   1.38639e-13
      367.891   1.36678e-13
      367.989   1.34742e-13
      368.087   1.32834e-13
      368.185   1.30953e-13
      368.283   1.29096e-13
      368.381   1.27265e-13
      368.480   1.25442e-13
      368.578   1.23661e-13
      368.676   1.21906e-13
      368.774   1.20175e-13
      368.873   1.18450e-13
      368.971   1.16766e-13
      369.069   1.15106e-13
      369.168   1.13451e-13
      369.266   1.11836e-13
      369.364   1.10243e-13
      369.463   1.08657e-13
      369.561   1.07108e-13
      369.660   1.05566e-13
      369.758   1.04060e-13
      369.857   1.02561e-13
      369.955   1.01097e-13
      370.054   9.96381e-14
      370.153   9.82001e-14
      370.251   9.67969e-14
      370.350   9.53993e-14
      370.449   9.40217e-14
      370.547   9.26765e-14
      370.646   9.13359e-14
      370.745   9.00154e-14
      370.844   8.87132e-14
      370.943   8.74293e-14
      371.041   8.61764e-14
      371.140   8.49278e-14
      371.239   8.36970e-14
      371.338   8.24843e-14
      371.437   8.12886e-14
      371.536   8.01099e-14
      371.635   7.89471e-14
      371.734   7.78014e-14
      371.833   7.66722e-14
      371.932   7.55587e-14
      372.032   7.44500e-14
      372.131   7.33677e-14
      372.230   7.23015e-14
      372.329   7.12505e-14
      372.428   7.02140e-14
      372.528   6.91824e-14
      372.627   6.81761e-14
      372.726   6.71837e-14
      372.826   6.61958e-14
      372.925   6.52316e-14
      373.024   6.42810e-14
      373.124   6.33344e-14
      373.223   6.24115e-14
      373.323   6.14927e-14
      373.422   6.05956e-14
      373.522   5.97025e-14
      373.621   5.88317e-14
      373.721   5.79644e-14
      373.820   5.71182e-14
      373.920   5.62757e-14
      374.020   5.54448e-14
      374.119   5.46350e-14
      374.219   5.38282e-14
      374.319   5.30337e-14
      374.419   5.22510e-14
      374.518   5.14866e-14
      374.618   5.07259e-14
      374.718   4.99756e-14
      374.818   4.92373e-14
      374.918   4.85098e-14
      375.018   4.77922e-14
      375.118   4.70856e-14
      375.218   4.63886e-14
      375.318   4.57024e-14
      375.418   4.50256e-14
      375.518   4.43594e-14
      375.618   4.37029e-14
      375.718   4.30556e-14
      375.818   4.24178e-14
      375.918   4.17894e-14
      376.019   4.11644e-14
      376.119   4.05543e-14
      376.219   3.99533e-14
      376.319   3.93609e-14
      376.420   3.87717e-14
      376.520   3.81968e-14
      376.620   3.76305e-14
      376.721   3.70667e-14
      376.821   3.65169e-14
      376.922   3.59697e-14
      377.022   3.54359e-14
      377.122   3.49101e-14
      377.223   3.43869e-14
      377.323   3.38767e-14
      377.424   3.33686e-14
      377.525   3.28683e-14
      377.625   3.23803e-14
      377.726   3.18947e-14
      377.827   3.14164e-14
      377.927   3.09496e-14
      378.028   3.04855e-14
      378.129   3.00280e-14
      378.230   2.95777e-14
      378.330   2.91392e-14
      378.431   2.87029e-14
      378.532   2.82735e-14
      378.633   2.78501e-14
      378.734   2.74330e-14
      378.835   2.70222e-14
      378.936   2.66175e-14
      379.037   2.62190e-14
      379.138   2.58261e-14
      379.239   2.54392e-14
      379.340   2.50583e-14
      379.441   2.46829e-14
      379.542   2.43130e-14
      379.643   2.39487e-14
      379.745   2.35864e-14
      379.846   2.32329e-14
      379.947   2.28846e-14
      380.048   2.25417e-14
      380.150   2.22005e-14
      380.251   2.18676e-14
      380.352   2.15399e-14
      380.454   2.12139e-14
      380.555   2.08958e-14
      380.656   2.05824e-14
      380.758   2.02708e-14
      380.859   1.99668e-14
      380.961   1.96646e-14
      381.062   1.93698e-14
      381.164   1.90764e-14
      381.266   1.87875e-14
      381.367   1.85057e-14
      381.469   1.82254e-14
      381.570   1.79522e-14
      381.672   1.76803e-14
      381.774   1.74124e-14
      381.876   1.71486e-14
      381.977   1.68914e-14
      382.079   1.66356e-14
      382.181   1.63836e-14
      382.283   1.61355e-14
      382.385   1.58911e-14
      382.487   1.56502e-14
      382.589   1.54132e-14
      382.691   1.51797e-14
      382.793   1.49497e-14
      382.895   1.47232e-14
      382.997   1.45001e-14
      383.099   1.42804e-14
      383.201   1.40641e-14
      383.303   1.38509e-14
      383.405   1.36410e-14
      383.507   1.34342e-14
      383.610   1.32287e-14
      383.712   1.30282e-14
      383.814   1.28308e-14
      383.916   1.26364e-14
      384.019   1.24430e-14
      384.121   1.22544e-14
      384.223   1.20687e-14
      384.326   1.18840e-14
      384.428   1.17038e-14
      384.531   1.15245e-14
      384.633   1.13496e-14
      384.736   1.11757e-14
      384.838   1.10061e-14
      384.941   1.08375e-14
      385.043   1.06730e-14
      385.146   1.05095e-14
      385.249   1.03484e-14
      385.351   1.01914e-14
      385.454   1.00352e-14
      385.557   9.88140e-15
      385.660   9.72994e-15
      385.762   9.58229e-15
      385.865   9.43542e-15
      385.968   9.29075e-15
      386.071   9.14826e-15
      386.174   9.00801e-15
      386.277   8.86994e-15
      386.380   8.73394e-15
      386.483   8.59998e-15
      386.586   8.46817e-15
      386.689   8.33831e-15
      386.792   8.21041e-15
      386.895   8.08449e-15
      386.998   7.96048e-15
      387.101   7.83840e-15
      387.204   7.71806e-15
      387.308   7.59850e-15
      387.411   7.48188e-15
      387.514   7.36705e-15
      387.617   7.25400e-15
      387.721   7.14162e-15
      387.824   7.03200e-15
      387.927   6.92396e-15
      388.031   6.81662e-15
      388.134   6.71196e-15
      388.238   6.60795e-15
      388.341   6.50642e-15
      388.445   6.40551e-15
      388.548   6.30704e-15
      388.652   6.20923e-15
      388.755   6.11384e-15
      388.859   6.01895e-15
      388.962   5.92645e-15
      389.066   5.83442e-15
      389.170   5.74391e-15
      389.274   5.65473e-15
      389.377   5.56775e-15
      389.481   5.48122e-15
      389.585   5.39611e-15
      389.689   5.31227e-15
      389.793   5.22969e-15
      389.897   5.14845e-15
      390.000   5.06916e-15
      390.104   4.99038e-15
      390.208   4.91275e-15
      390.312   4.83636e-15
      390.416   4.76110e-15
      390.520   4.68693e-15
      390.625   4.61318e-15
      390.729   4.54134e-15
      390.833   4.47056e-15
      390.937   4.40087e-15
      391.041   4.33227e-15
      391.145   4.26473e-15
      391.250   4.19756e-15
      391.354   4.13209e-15
      391.458   4.06762e-15
      391.563   4.00352e-15
      391.667   3.94103e-15
      391.771   3.87950e-15
      391.876   3.81831e-15
      391.980   3.75865e-15
      392.085   3.69934e-15
      392.189   3.64152e-15
      392.294   3.58403e-15
      392.398   3.52799e-15
      392.503   3.47227e-15
      392.607   3.41793e-15
      392.712   3.36393e-15
      392.817   3.31074e-15
      392.921   3.25891e-15
      393.026   3.20735e-15
      393.131   3.15663e-15
      393.236   3.10664e-15
      393.340   3.05793e-15
      393.445   3.00952e-15
      393.550   2.96185e-15
      393.655   2.91491e-15
      393.760   2.86871e-15
      393.865   2.82322e-15
      393.970   2.77847e-15
      394.075   2.73436e-15
      394.180   2.69098e-15
      394.285   2.64825e-15
      394.390   2.60620e-15
      394.495   2.56478e-15
      394.600   2.52402e-15
      394.706   2.48352e-15
      394.811   2.44403e-15
      394.916   2.40512e-15
      395.021   2.36683e-15
      395.126   2.32917e-15
      395.232   2.29170e-15
      395.337   2.25517e-15
      395.443   2.21889e-15
      395.548   2.18350e-15
      395.653   2.14868e-15
      395.759   2.11404e-15
      395.864   2.08030e-15
      395.970   2.04676e-15
      396.075   2.01406e-15
      396.181   1.98155e-15
      396.286   1.94984e-15
      396.392   1.91837e-15
      396.498   1.88738e-15
      396.603   1.85714e-15
      396.709   1.82711e-15
      396.815   1.79754e-15
      396.921   1.76843e-15
      397.026   1.74008e-15
      397.132   1.71188e-15
      397.238   1.68415e-15
      397.344   1.65683e-15
      397.450   1.62998e-15
      397.556   1.60352e-15
      397.662   1.57748e-15
      397.768   1.55187e-15
      397.874   1.52665e-15
      397.980   1.50182e-15
      398.086   1.47739e-15
      398.192   1.45335e-15
      398.298   1.42969e-15
      398.404   1.40640e-15
      398.510   1.38347e-15
      398.617   1.36072e-15
      398.723   1.33852e-15
      398.829   1.31666e-15
      398.935   1.29516e-15
      399.042   1.27381e-15
      399.148   1.25297e-15
      399.255   1.23230e-15
      399.361   1.21214e-15
      399.467   1.19228e-15
      399.574   1.17258e-15
      399.680   1.15335e-15
      399.787   1.13426e-15
      399.893       0.00000
      400.000       0.00000
