Filter Al-poly
observation_date 22-Sept-2013 22:40:45
wavelength effective area 
      1.00000   2.78457e-10
      1.10000   7.94914e-10
      1.20000   2.06648e-09
      1.30000   4.94133e-09
      1.40000   1.12122e-08
      1.50000   2.39198e-08
      1.60000   4.84229e-08
      1.70000   9.40062e-08
      1.80000   1.75014e-07
      1.90000   3.14554e-07
      2.00000   5.46851e-07
      2.10000   9.23663e-07
      2.20000   1.52304e-06
      2.30000   2.44832e-06
      2.40000   3.84378e-06
      2.50000   5.87440e-06
      2.60000   8.96504e-06
      2.70000   1.33663e-05
      2.80000   1.95474e-05
      2.90000   2.82932e-05
      3.00000   4.03134e-05
      3.10000   5.67024e-05
      3.20000   7.88844e-05
      3.30000   0.000108629
      3.40000   0.000148032
      3.50000   0.000199778
      3.60000   0.000268376
      3.70000   0.000356704
      3.80000   0.000472147
      3.90000   0.000621493
      4.00000   0.000813003
      4.10000    0.00105862
      4.20000    0.00137353
      4.30000    0.00177709
      4.40000    0.00229315
      4.50000    0.00295099
      4.60000    0.00378489
      4.70000    0.00485438
      4.80000    0.00621988
      4.90000    0.00786715
      5.00000     0.0102130
      5.10000     0.0130718
      5.20000     0.0167809
      5.30000     0.0213607
      5.40000     0.0271477
      5.50000     0.0345640
      5.60000     0.0426575
      5.70000     0.0554655
      5.80000     0.0650462
      5.90000     0.0993494
      6.00000      0.133599
      6.10000      0.170818
      6.20000      0.209865
      6.30000      0.247153
      6.40000      0.279203
      6.50000      0.302868
      6.60000      0.313681
      6.70000      0.323661
      6.80000      0.324291
      6.90000      0.425718
      7.00000      0.463277
      7.10000      0.490310
      7.20000      0.511918
      7.30000      0.529698
      7.40000      0.543423
      7.50000      0.554483
      7.60000      0.562985
      7.70000      0.567433
      7.80000      0.566710
      7.90000      0.566682
      8.00000      0.956561
      8.10000       1.05264
      8.20000       1.07556
      8.30000       1.09385
      8.40000       1.10810
      8.50000       1.12080
      8.60000       1.13158
      8.70000       1.14117
      8.80000       1.14917
      8.90000       1.15615
      9.00000       1.16199
      9.10000       1.16675
      9.20000       1.17062
      9.30000       1.17351
      9.40000       1.17555
      9.50000       1.17682
      9.60000       1.17724
      9.70000       1.17692
      9.80000       1.17600
      9.90000       1.17451
      10.0000       1.17250
      10.1000       1.16998
      10.2000       1.16699
      10.3000       1.16346
      10.4000       1.15941
      10.5000       1.15488
      10.6000       1.14991
      10.7000       1.14450
      10.8000       1.13867
      10.9000       1.13245
      11.0000       1.12584
      11.1000       1.11888
      11.2000       1.11157
      11.3000       1.10396
      11.4000       1.09601
      11.5000       1.08772
      11.6000       1.07911
      11.7000       1.07007
      11.8000       1.06073
      11.9000       1.05089
      12.0000       1.03944
      12.1000       1.03164
      12.2000       1.04186
      12.3000       1.04117
      12.4000       1.03275
      12.5000       1.02352
      12.6000       1.01389
      12.7000       1.00400
      12.8000      0.993920
      12.9000      0.983651
      13.0000      0.973254
      13.1000      0.962764
      13.2000      0.952207
      13.3000      0.941600
      13.4000      0.930972
      13.5000      0.920481
      13.6000      0.910097
      13.7000      0.899711
      13.8000      0.889314
      13.9000      0.878942
      14.0000      0.868592
      14.1000      0.858235
      14.2000      0.847872
      14.3000      0.837494
      14.4000      0.827072
      14.5000      0.816617
      14.6000      0.806113
      14.7000      0.795572
      14.8000      0.785006
      14.9000      0.774417
      15.0000      0.763821
      15.1000      0.753241
      15.2000      0.742678
      15.3000      0.732138
      15.4000      0.721624
      15.5000      0.711148
      15.6000      0.700752
      15.7000      0.690395
      15.8000      0.680133
      15.9000      0.669962
      16.0000      0.659874
      16.1000      0.649883
      16.2000      0.640009
      16.3000      0.630200
      16.4000      0.620461
      16.5000      0.610786
      16.6000      0.601167
      16.7000      0.591603
      16.8000      0.582094
      16.9000      0.572643
      17.0000      0.563252
      17.1000      0.553917
      17.2000      0.544632
      17.3000      0.535410
      17.4000      0.526390
      17.5000      0.517598
      17.6000      0.508974
      17.7000      0.500586
      17.8000      0.492559
      17.9000      0.484613
      18.0000      0.476677
      18.1000      0.468783
      18.2000      0.460876
      18.3000      0.452926
      18.4000      0.444887
      18.5000      0.436789
      18.6000      0.428621
      18.7000      0.420318
      18.8000      0.412073
      18.9000      0.403892
      19.0000      0.395772
      19.1000      0.387753
      19.2000      0.379827
      19.3000      0.372017
      19.4000      0.364327
      19.5000      0.356746
      19.6000      0.349332
      19.7000      0.342019
      19.8000      0.334801
      19.9000      0.327722
      20.0000      0.320720
      20.1000      0.313800
      20.2000      0.306947
      20.3000      0.300157
      20.4000      0.293456
      20.5000      0.286805
      20.6000      0.280205
      20.7000      0.273681
      20.8000      0.267210
      20.9000      0.260778
      21.0000      0.254411
      21.1000      0.248116
      21.2000      0.241818
      21.3000      0.235569
      21.4000      0.229390
      21.5000      0.223210
      21.6000      0.217022
      21.7000      0.210839
      21.8000      0.204686
      21.9000      0.198303
      22.0000      0.191901
      22.1000      0.185374
      22.2000      0.178446
      22.3000      0.171184
      22.4000      0.161164
      22.5000      0.150357
      22.6000      0.128143
      22.7000      0.116991
      22.8000      0.159420
      22.9000      0.212516
      23.0000      0.271414
      23.1000      0.309458
      23.2000      0.327129
      23.3000      0.331154
      23.4000      0.328091
      23.5000      0.324582
      23.6000      0.320981
      23.7000      0.316496
      23.8000      0.311965
      23.9000      0.307310
      24.0000      0.302649
      24.1000      0.297773
      24.2000      0.292919
      24.3000      0.288057
      24.4000      0.283205
      24.5000      0.278319
      24.6000      0.273469
      24.7000      0.268656
      24.8000      0.263874
      24.9000      0.259120
      25.0000      0.254410
      25.1000      0.249751
      25.2000      0.245133
      25.3000      0.240559
      25.4000      0.236035
      25.5000      0.231574
      25.6000      0.227171
      25.7000      0.222838
      25.8000      0.218552
      25.9000      0.214333
      26.0000      0.210153
      26.1000      0.206033
      26.2000      0.201953
      26.3000      0.197946
      26.4000      0.193974
      26.5000      0.190067
      26.6000      0.186192
      26.7000      0.182393
      26.8000      0.178640
      26.9000      0.174936
      27.0000      0.171269
      27.1000      0.167622
      27.2000      0.163999
      27.3000      0.160785
      27.4000      0.158065
      27.5000      0.155238
      27.6000      0.152072
      27.7000      0.148929
      27.8000      0.145758
      27.9000      0.142615
      28.0000      0.139544
      28.1000      0.136509
      28.2000      0.133541
      28.3000      0.130625
      28.4000      0.127757
      28.5000      0.124953
      28.6000      0.122182
      28.7000      0.119525
      28.8000      0.116893
      28.9000      0.114323
      29.0000      0.111788
      29.1000      0.109299
      29.2000      0.106857
      29.3000      0.104446
      29.4000      0.102098
      29.5000     0.0997739
      29.6000     0.0975082
      29.7000     0.0952741
      29.8000     0.0930816
      29.9000     0.0909374
      30.0000     0.0888160
      30.1000     0.0867581
      30.2000     0.0847207
      30.3000     0.0860786
      30.4000     0.0893393
      30.5000     0.0914361
      30.6000     0.0893655
      30.7000     0.0873156
      30.8000     0.0853194
      30.9000     0.0833534
      31.0000     0.0814201
      31.1000     0.0795355
      31.2000     0.0776703
      31.3000     0.0758583
      31.4000     0.0740724
      31.5000     0.0723180
      31.6000     0.0706090
      31.7000     0.0689179
      31.8000     0.0672764
      31.9000     0.0656603
      32.0000     0.0640713
      32.1000     0.0625280
      32.2000     0.0610012
      32.3000     0.0595179
      32.4000     0.0580624
      32.5000     0.0566298
      32.6000     0.0552702
      32.7000     0.0539291
      32.8000     0.0526208
      32.9000     0.0513419
      33.0000     0.0500768
      33.1000     0.0488909
      33.2000     0.0477309
      33.3000     0.0465926
      33.4000     0.0454860
      33.5000     0.0443917
      33.6000     0.0433269
      33.7000     0.0422860
      33.8000     0.0412559
      33.9000     0.0402624
      34.0000     0.0392828
      34.1000     0.0383231
      34.2000     0.0373904
      34.3000     0.0364674
      34.4000     0.0355658
      34.5000     0.0346889
      34.6000     0.0338212
      34.7000     0.0329637
      34.8000     0.0321158
      34.9000     0.0312769
      35.0000     0.0304715
      35.1000     0.0296773
      35.2000     0.0288944
      35.3000     0.0281431
      35.4000     0.0273998
      35.5000     0.0266719
      35.6000     0.0259698
      35.7000     0.0252753
      35.8000     0.0245991
      35.9000     0.0239436
      36.0000     0.0232953
      36.1000     0.0226675
      36.2000     0.0220562
      36.3000     0.0214518
      36.4000     0.0208692
      36.5000     0.0202998
      36.6000     0.0197368
      36.7000     0.0191965
      36.8000     0.0186669
      36.9000     0.0181432
      37.0000     0.0176423
      37.1000     0.0171502
      37.2000     0.0166638
      37.3000     0.0161997
      37.4000     0.0157432
      37.5000     0.0152920
      37.6000     0.0148621
      37.7000     0.0144390
      37.8000     0.0140208
      37.9000     0.0136228
      38.0000     0.0132313
      38.1000     0.0128443
      38.2000     0.0124759
      38.3000     0.0121140
      38.4000     0.0117564
      38.5000     0.0114154
      38.6000     0.0110814
      38.7000     0.0107513
      38.8000     0.0104356
      38.9000     0.0101277
      39.0000    0.00982343
      39.1000    0.00953138
      39.2000    0.00924797
      39.3000    0.00896796
      39.4000    0.00869768
      39.5000    0.00843710
      39.6000    0.00817969
      39.7000    0.00792956
      39.8000    0.00769048
      39.9000    0.00745432
      40.0000    0.00722289
      40.1000    0.00700376
      40.2000    0.00678732
      40.3000    0.00657357
      40.4000    0.00637253
      40.5000    0.00617447
      40.6000    0.00597885
      40.7000    0.00579280
      40.8000    0.00561175
      40.9000    0.00543298
      41.0000    0.00526072
      41.1000    0.00509546
      41.2000    0.00493231
      41.3000    0.00477291
      41.4000    0.00462257
      41.5000    0.00447413
      41.6000    0.00432759
      41.7000    0.00418980
      41.8000    0.00405474
      41.9000    0.00392142
      42.0000    0.00379391
      42.1000    0.00367137
      42.2000    0.00355041
      42.3000    0.00343222
      42.4000    0.00332109
      42.5000    0.00321141
      42.6000    0.00310315
      42.7000    0.00300119
      42.8000    0.00290187
      42.9000    0.00280384
      43.0000    0.00270925
      43.1000    0.00261950
      43.2000    0.00253093
      43.3000    0.00244353
      43.4000    0.00773003
      43.5000     0.0174214
      43.6000     0.0356866
      43.7000     0.0595155
      43.8000     0.0760229
      43.9000     0.0789509
      44.0000     0.0767481
      44.1000     0.0697712
      44.2000     0.0681206
      44.3000     0.0669315
      44.4000     0.0657661
      44.5000     0.0646306
      44.6000     0.0634988
      44.7000     0.0623705
      44.8000     0.0612850
      44.9000     0.0602085
      45.0000     0.0591355
      45.1000     0.0580787
      45.2000     0.0570561
      45.3000     0.0560369
      45.4000     0.0550208
      45.5000     0.0540367
      45.6000     0.0530692
      45.7000     0.0521049
      45.8000     0.0511452
      45.9000     0.0502283
      46.0000     0.0493143
      46.1000     0.0484033
      46.2000     0.0475501
      46.3000     0.0467942
      46.4000     0.0460408
      46.5000     0.0452898
      46.6000     0.0445754
      46.7000     0.0438804
      46.8000     0.0431876
      46.9000     0.0424969
      47.0000     0.0418550
      47.1000     0.0412183
      47.2000     0.0405835
      47.3000     0.0399559
      47.4000     0.0393542
      47.5000     0.0387543
      47.6000     0.0381564
      47.7000     0.0375692
      47.8000     0.0369979
      47.9000     0.0364283
      48.0000     0.0358606
      48.1000     0.0353073
      48.2000     0.0347656
      48.3000     0.0342256
      48.4000     0.0336873
      48.5000     0.0331658
      48.6000     0.0326519
      48.7000     0.0321396
      48.8000     0.0316289
      48.9000     0.0311374
      49.0000     0.0306508
      49.1000     0.0301658
      49.2000     0.0296824
      49.3000     0.0292191
      49.4000     0.0287587
      49.5000     0.0282998
      49.6000     0.0278424
      49.7000     0.0274052
      49.8000     0.0269699
      49.9000     0.0265360
      50.0000     0.0261038
      50.1000     0.0256873
      50.2000     0.0252823
      50.3000     0.0248823
      50.4000     0.0244881
      50.5000     0.0240999
      50.6000     0.0237173
      50.7000     0.0233401
      50.8000     0.0229676
      50.9000     0.0226010
      51.0000     0.0222404
      51.1000     0.0218855
      51.2000     0.0215355
      51.3000     0.0211904
      51.4000     0.0208510
      51.5000     0.0205162
      51.6000     0.0201858
      51.7000     0.0198598
      51.8000     0.0195365
      51.9000     0.0192177
      52.0000     0.0189037
      52.1000     0.0185946
      52.2000     0.0182895
      52.3000     0.0179884
      52.4000     0.0176925
      52.5000     0.0174010
      52.6000     0.0171131
      52.7000     0.0168290
      52.8000     0.0165487
      52.9000     0.0162730
      53.0000     0.0160016
      53.1000     0.0157341
      53.2000     0.0154708
      53.3000     0.0152113
      53.4000     0.0149557
      53.5000     0.0147040
      53.6000     0.0144556
      53.7000     0.0142109
      53.8000     0.0139701
      53.9000     0.0137329
      54.0000     0.0134997
      54.1000     0.0132705
      54.2000     0.0130442
      54.3000     0.0128210
      54.4000     0.0126014
      54.5000     0.0123853
      54.6000     0.0121725
      54.7000     0.0119631
      54.8000     0.0117570
      54.9000     0.0115539
      55.0000     0.0113542
      55.1000     0.0111573
      55.2000     0.0109539
      55.3000     0.0107449
      55.4000     0.0105392
      55.5000     0.0103368
      55.6000     0.0101380
      55.7000    0.00994276
      55.8000    0.00975069
      55.9000    0.00956202
      56.0000    0.00937785
      56.1000    0.00919330
      56.2000    0.00900894
      56.3000    0.00882821
      56.4000    0.00865058
      56.5000    0.00847586
      56.6000    0.00830417
      56.7000    0.00813578
      56.8000    0.00797036
      56.9000    0.00780818
      57.0000    0.00764927
      57.1000    0.00749324
      57.2000    0.00733973
      57.3000    0.00718874
      57.4000    0.00704076
      57.5000    0.00689563
      57.6000    0.00675311
      57.7000    0.00661309
      57.8000    0.00647590
      57.9000    0.00634125
      58.0000    0.00620906
      58.1000    0.00607924
      58.2000    0.00595212
      58.3000    0.00582739
      58.4000    0.00570485
      58.5000    0.00558448
      58.6000    0.00546654
      58.7000    0.00535098
      58.8000    0.00523763
      58.9000    0.00512632
      59.0000    0.00501705
      59.1000    0.00490993
      59.2000    0.00480481
      59.3000    0.00470175
      59.4000    0.00460079
      59.5000    0.00450197
      59.6000    0.00440503
      59.7000    0.00430978
      59.8000    0.00421628
      59.9000    0.00412461
      60.0000    0.00403496
      60.1000    0.00394708
      60.2000    0.00386092
      60.3000    0.00377642
      60.4000    0.00369354
      60.5000    0.00361245
      60.6000    0.00353290
      60.7000    0.00345486
      60.8000    0.00337836
      60.9000    0.00330335
      61.0000    0.00322987
      61.1000    0.00315788
      61.2000    0.00308734
      61.3000    0.00301828
      61.4000    0.00295062
      61.5000    0.00288432
      61.6000    0.00281938
      61.7000    0.00275576
      61.8000    0.00269376
      61.9000    0.00263318
      62.0000    0.00257385
      62.1000    0.00251579
      62.2000    0.00245903
      62.3000    0.00240342
      62.4000    0.00234889
      62.5000    0.00229546
      62.6000    0.00224309
      62.7000    0.00219180
      62.8000    0.00214178
      62.9000    0.00209285
      63.0000    0.00204495
      63.1000    0.00199805
      63.2000    0.00195212
      63.3000    0.00190712
      63.4000    0.00186303
      63.5000    0.00181994
      63.6000    0.00177776
      63.7000    0.00173650
      63.8000    0.00169613
      63.9000    0.00165664
      64.0000    0.00161798
      64.1000    0.00158014
      64.2000    0.00154314
      64.3000    0.00150696
      64.4000    0.00147155
      64.5000    0.00143690
      64.6000    0.00140300
      64.7000    0.00136981
      64.8000    0.00133732
      64.9000    0.00130552
      65.0000    0.00127442
      65.1000    0.00124407
      65.2000    0.00121441
      65.3000    0.00118540
      65.4000    0.00115701
      65.5000    0.00112922
      65.6000    0.00110201
      65.7000    0.00107542
      65.8000    0.00104943
      65.9000    0.00102404
      66.0000   0.000999245
      66.1000   0.000975052
      66.2000   0.000951400
      66.3000   0.000928263
      66.4000   0.000905618
      66.5000   0.000883466
      66.6000   0.000861810
      66.7000   0.000840658
      66.8000   0.000820008
      66.9000   0.000799954
      67.0000   0.000780470
      67.1000   0.000761434
      67.2000   0.000742823
      67.3000   0.000724646
      67.4000   0.000706877
      67.5000   0.000689519
      67.6000   0.000672563
      67.7000   0.000655996
      67.8000   0.000639786
      67.9000   0.000623907
      68.0000   0.000608451
      68.1000   0.000593426
      68.2000   0.000578741
      68.3000   0.000564405
      68.4000   0.000550412
      68.5000   0.000536752
      68.6000   0.000523404
      68.7000   0.000510358
      68.8000   0.000497604
      68.9000   0.000485274
      69.0000   0.000473976
      69.1000   0.000464387
      69.2000   0.000455805
      69.3000   0.000447467
      69.4000   0.000439447
      69.5000   0.000431366
      69.6000   0.000423152
      69.7000   0.000415245
      69.8000   0.000407686
      69.9000   0.000400264
      70.0000   0.000392965
      70.1000   0.000385689
      70.2000   0.000379024
      70.3000   0.000372954
      70.4000   0.000366956
      70.5000   0.000361111
      70.6000   0.000355403
      70.7000   0.000349784
      70.8000   0.000344242
      70.9000   0.000338629
      71.0000   0.000332962
      71.1000   0.000327546
      71.2000   0.000322374
      71.3000   0.000316978
      71.4000   0.000311299
      71.5000   0.000306017
      71.6000   0.000301299
      71.7000   0.000296576
      71.8000   0.000291754
      71.9000   0.000287099
      72.0000   0.000282758
      72.1000   0.000278368
      72.2000   0.000273481
      72.3000   0.000268692
      72.4000   0.000264418
      72.5000   0.000260214
      72.6000   0.000256071
      72.7000   0.000251991
      72.8000   0.000247974
      72.9000   0.000244024
      73.0000   0.000240215
      73.1000   0.000236505
      73.2000   0.000232854
      73.3000   0.000229259
      73.4000   0.000225747
      73.5000   0.000222335
      73.6000   0.000218971
      73.7000   0.000215656
      73.8000   0.000212389
      73.9000   0.000209168
      74.0000   0.000206014
      74.1000   0.000203111
      74.2000   0.000200311
      74.3000   0.000197350
      74.4000   0.000194279
      74.5000   0.000191295
      74.6000   0.000188443
      74.7000   0.000185630
      74.8000   0.000182857
      74.9000   0.000180120
      75.0000   0.000177402
      75.1000   0.000174719
      75.2000   0.000172075
      75.3000   0.000169471
      75.4000   0.000166926
      75.5000   0.000164461
      75.6000   0.000162031
      75.7000   0.000159635
      75.8000   0.000157274
      75.9000   0.000154967
      76.0000   0.000152704
      76.1000   0.000150476
      76.2000   0.000148280
      76.3000   0.000146121
      76.4000   0.000144024
      76.5000   0.000141959
      76.6000   0.000139919
      76.7000   0.000137906
      76.8000   0.000135917
      76.9000   0.000133955
      77.0000   0.000132020
      77.1000   0.000130114
      77.2000   0.000128236
      77.3000   0.000126387
      77.4000   0.000124566
      77.5000   0.000122770
      77.6000   0.000120971
      77.7000   0.000119195
      77.8000   0.000117442
      77.9000   0.000115710
      78.0000   0.000113984
      78.1000   0.000112233
      78.2000   0.000110509
      78.3000   0.000108919
      78.4000   0.000107392
      78.5000   0.000105877
      78.6000   0.000104351
      78.7000   0.000102847
      78.8000   0.000101323
      78.9000   9.98086e-05
      79.0000   9.83140e-05
      79.1000   9.68390e-05
      79.2000   9.53871e-05
      79.3000   9.39886e-05
      79.4000   9.26223e-05
      79.5000   9.12664e-05
      79.6000   8.98976e-05
      79.7000   8.85480e-05
      79.8000   8.72019e-05
      79.9000   8.58671e-05
      80.0000   8.45479e-05
      80.1000   8.32094e-05
      80.2000   8.18872e-05
      80.3000   8.05439e-05
      80.4000   7.91835e-05
      80.5000   7.78434e-05
      80.6000   7.65262e-05
      80.7000   7.52308e-05
      80.8000   7.39622e-05
      80.9000   7.27281e-05
      81.0000   7.15136e-05
      81.1000   7.03201e-05
      81.2000   6.91463e-05
      81.3000   6.79924e-05
      81.4000   6.69241e-05
      81.5000   6.58756e-05
      81.6000   6.48623e-05
      81.7000   6.39049e-05
      81.8000   6.29643e-05
      81.9000   6.20651e-05
      82.0000   6.11929e-05
      82.1000   6.03345e-05
      82.2000   5.94663e-05
      82.3000   5.86121e-05
      82.4000   5.78036e-05
      82.5000   5.70749e-05
      82.6000   5.63537e-05
      82.7000   5.56241e-05
      82.8000   5.48833e-05
      82.9000   5.41506e-05
      83.0000   5.34338e-05
      83.1000   5.27293e-05
      83.2000   5.20344e-05
      83.3000   5.13489e-05
      83.4000   5.06731e-05
      83.5000   5.00079e-05
      83.6000   4.93640e-05
      83.7000   4.87277e-05
      83.8000   4.80956e-05
      83.9000   4.74627e-05
      84.0000   4.68376e-05
      84.1000   4.62281e-05
      84.2000   4.56381e-05
      84.3000   4.50551e-05
      84.4000   4.44738e-05
      84.5000   4.38956e-05
      84.6000   4.33248e-05
      84.7000   4.27697e-05
      84.8000   4.22263e-05
      84.9000   4.16900e-05
      85.0000   4.11483e-05
      85.1000   4.06100e-05
      85.2000   4.00788e-05
      85.3000   3.95724e-05
      85.4000   3.90754e-05
      85.5000   3.85851e-05
      85.6000   3.80921e-05
      85.7000   3.76045e-05
      85.8000   3.71228e-05
      85.9000   3.66466e-05
      86.0000   3.61762e-05
      86.1000   3.57118e-05
      86.2000   3.52644e-05
      86.3000   3.48224e-05
      86.4000   3.43855e-05
      86.5000   3.39533e-05
      86.6000   3.35263e-05
      86.7000   3.31044e-05
      86.8000   3.26625e-05
      86.9000   3.22255e-05
      87.0000   3.17946e-05
      87.1000   3.13748e-05
      87.2000   3.09610e-05
      87.3000   3.05527e-05
      87.4000   3.01413e-05
      87.5000   2.97335e-05
      87.6000   2.93305e-05
      87.7000   2.89377e-05
      87.8000   2.85508e-05
      87.9000   2.81683e-05
      88.0000   2.77904e-05
      88.1000   2.74169e-05
      88.2000   2.70484e-05
      88.3000   2.66911e-05
      88.4000   2.63445e-05
      88.5000   2.60035e-05
      88.6000   2.56646e-05
      88.7000   2.53267e-05
      88.8000   2.49935e-05
      88.9000   2.46641e-05
      89.0000   2.43382e-05
      89.1000   2.40166e-05
      89.2000   2.36986e-05
      89.3000   2.33837e-05
      89.4000   2.30716e-05
      89.5000   2.27632e-05
      89.6000   2.24588e-05
      89.7000   2.21579e-05
      89.8000   2.18605e-05
      89.9000   2.15666e-05
      90.0000   2.12766e-05
      90.1000   2.09909e-05
      90.2000   2.07038e-05
      90.3000   2.04091e-05
      90.4000   2.01183e-05
      90.5000   1.98319e-05
      90.6000   1.95537e-05
      90.7000   1.92742e-05
      90.8000   1.89926e-05
      90.9000   1.87083e-05
      91.0000   1.84267e-05
      91.1000   1.81490e-05
      91.2000   1.78722e-05
      91.3000   1.75946e-05
      91.4000   1.73206e-05
      91.5000   1.70511e-05
      91.6000   1.67859e-05
      91.7000   1.65423e-05
      91.8000   1.63292e-05
      91.9000   1.61509e-05
      92.0000   1.59551e-05
      92.1000   1.57573e-05
      92.2000   1.55511e-05
      92.3000   1.53377e-05
      92.4000   1.51216e-05
      92.5000   1.49087e-05
      92.6000   1.46985e-05
      92.7000   1.44910e-05
      92.8000   1.42862e-05
      92.9000   1.40862e-05
      93.0000   1.38934e-05
      93.1000   1.37031e-05
      93.2000   1.35156e-05
      93.3000   1.33362e-05
      93.4000   1.31613e-05
      93.5000   1.29886e-05
      93.6000   1.28176e-05
      93.7000   1.26481e-05
      93.8000   1.24799e-05
      93.9000   1.23137e-05
      94.0000   1.21491e-05
      94.1000   1.19864e-05
      94.2000   1.18259e-05
      94.3000   1.16685e-05
      94.4000   1.15164e-05
      94.5000   1.13665e-05
      94.6000   1.12187e-05
      94.7000   1.10732e-05
      94.8000   1.09297e-05
      94.9000   1.07880e-05
      95.0000   1.06482e-05
      95.1000   1.05107e-05
      95.2000   1.03745e-05
      95.3000   1.02398e-05
      95.4000   1.01069e-05
      95.5000   9.97724e-06
      95.6000   9.84890e-06
      95.7000   9.72192e-06
      95.8000   9.59508e-06
      95.9000   9.46933e-06
      96.0000   9.34500e-06
      96.1000   9.22203e-06
      96.2000   9.10045e-06
      96.3000   8.98087e-06
      96.4000   8.86284e-06
      96.5000   8.74637e-06
      96.6000   8.63180e-06
      96.7000   8.51921e-06
      96.8000   8.40782e-06
      96.9000   8.29768e-06
      97.0000   8.18889e-06
      97.1000   8.08181e-06
      97.2000   7.97581e-06
      97.3000   7.86978e-06
      97.4000   7.76395e-06
      97.5000   7.65967e-06
      97.6000   7.55666e-06
      97.7000   7.45541e-06
      97.8000   7.35579e-06
      97.9000   7.25771e-06
      98.0000   7.16081e-06
      98.1000   7.06507e-06
      98.2000   6.97071e-06
      98.3000   6.88800e-06
      98.4000   6.81132e-06
      98.5000   6.73890e-06
      98.6000   6.66734e-06
      98.7000   6.59651e-06
      98.8000   6.52629e-06
      98.9000   6.45669e-06
      99.0000   6.38794e-06
      99.1000   6.31977e-06
      99.2000   6.25180e-06
      99.3000   6.18254e-06
      99.4000   6.11404e-06
      99.5000   6.04626e-06
      99.6000   5.97962e-06
      99.7000   5.91657e-06
      99.8000   5.85669e-06
      99.9000   5.81923e-06
      100.000   5.81586e-06
      100.100   5.81051e-06
      100.200   5.80511e-06
      100.300   5.79966e-06
      100.400   5.79419e-06
      100.500   5.78945e-06
      100.600   5.78452e-06
      100.700   5.77949e-06
      100.800   5.77431e-06
      100.900   5.76897e-06
      101.000   5.76350e-06
      101.100   5.75790e-06
      101.200   5.75224e-06
      101.300   5.74652e-06
      101.400   5.74079e-06
      101.500   5.73508e-06
      101.600   5.72940e-06
      101.700   5.72432e-06
      101.800   5.71947e-06
      101.900   5.71463e-06
      102.000   5.70990e-06
      102.100   5.70604e-06
      102.200   5.70258e-06
      102.300   5.69904e-06
      102.400   5.69543e-06
      102.500   5.69172e-06
      102.600   5.68787e-06
      102.700   5.68389e-06
      102.800   5.67976e-06
      102.900   5.67552e-06
      103.000   5.67113e-06
      103.100   5.66664e-06
      103.200   5.66206e-06
      103.300   5.65741e-06
      103.400   5.65268e-06
      103.500   5.64791e-06
      103.600   5.64312e-06
      103.700   5.63823e-06
      103.800   5.63199e-06
      103.900   5.62415e-06
      104.000   5.61622e-06
      104.100   5.60832e-06
      104.200   5.60107e-06
      104.300   5.59789e-06
      104.400   5.59479e-06
      104.500   5.59167e-06
      104.600   5.58841e-06
      104.700   5.58376e-06
      104.800   5.57848e-06
      104.900   5.57310e-06
      105.000   5.56767e-06
      105.100   5.56306e-06
      105.200   5.56071e-06
      105.300   5.55833e-06
      105.400   5.55585e-06
      105.500   5.55329e-06
      105.600   5.55121e-06
      105.700   5.54919e-06
      105.800   5.54710e-06
      105.900   5.54500e-06
      106.000   5.54369e-06
      106.100   5.54406e-06
      106.200   5.54453e-06
      106.300   5.54494e-06
      106.400   5.54528e-06
      106.500   5.54555e-06
      106.600   5.54575e-06
      106.700   5.54588e-06
      106.800   5.54596e-06
      106.900   5.54600e-06
      107.000   5.54598e-06
      107.100   5.54590e-06
      107.200   5.54579e-06
      107.300   5.54560e-06
      107.400   5.54526e-06
      107.500   5.54478e-06
      107.600   5.54424e-06
      107.700   5.54365e-06
      107.800   5.54303e-06
      107.900   5.54200e-06
      108.000   5.54092e-06
      108.100   5.53978e-06
      108.200   5.53855e-06
      108.300   5.53721e-06
      108.400   5.53533e-06
      108.500   5.53338e-06
      108.600   5.53135e-06
      108.700   5.52919e-06
      108.800   5.52558e-06
      108.900   5.51989e-06
      109.000   5.51409e-06
      109.100   5.50818e-06
      109.200   5.50220e-06
      109.300   5.49618e-06
      109.400   5.49010e-06
      109.500   5.48398e-06
      109.600   5.47781e-06
      109.700   5.47159e-06
      109.800   5.46534e-06
      109.900   5.45906e-06
      110.000   5.45278e-06
      110.100   5.44647e-06
      110.200   5.44012e-06
      110.300   5.43462e-06
      110.400   5.42917e-06
      110.500   5.42371e-06
      110.600   5.41820e-06
      110.700   5.41264e-06
      110.800   5.40702e-06
      110.900   5.40133e-06
      111.000   5.39557e-06
      111.100   5.38972e-06
      111.200   5.38387e-06
      111.300   5.37979e-06
      111.400   5.37564e-06
      111.500   5.37135e-06
      111.600   5.36696e-06
      111.700   5.36256e-06
      111.800   5.35926e-06
      111.900   5.35593e-06
      112.000   5.35253e-06
      112.100   5.34906e-06
      112.200   5.34554e-06
      112.300   5.34077e-06
      112.400   5.33593e-06
      112.500   5.33108e-06
      112.600   5.32624e-06
      112.700   5.32159e-06
      112.800   5.31814e-06
      112.900   5.31177e-06
      113.000   5.30640e-06
      113.100   5.30145e-06
      113.200   5.29589e-06
      113.300   5.29093e-06
      113.400   5.27917e-06
      113.500   5.26564e-06
      113.600   5.25791e-06
      113.700   5.24827e-06
      113.800   5.23452e-06
      113.900   5.22649e-06
      114.000   5.21833e-06
      114.100   5.20588e-06
      114.200   5.19545e-06
      114.300   5.18832e-06
      114.400   5.18023e-06
      114.500   5.17114e-06
      114.600   5.16642e-06
      114.700   5.15832e-06
      114.800   5.15243e-06
      114.900   5.15174e-06
      115.000   5.14724e-06
      115.100   5.14045e-06
      115.200   5.13339e-06
      115.300   5.13108e-06
      115.400   5.12416e-06
      115.500   5.11946e-06
      115.600   5.11278e-06
      115.700   5.10314e-06
      115.800   5.09734e-06
      115.900   5.08940e-06
      116.000   5.08479e-06
      116.100   5.08536e-06
      116.200   5.08541e-06
      116.300   5.08440e-06
      116.400   5.08157e-06
      116.500   5.08245e-06
      116.600   5.08203e-06
      116.700   5.08249e-06
      116.800   5.08176e-06
      116.900   5.07625e-06
      117.000   5.07599e-06
      117.100   5.09103e-06
      117.200   5.11693e-06
      117.300   5.13225e-06
      117.400   5.14688e-06
      117.500   5.16171e-06
      117.600   5.17027e-06
      117.700   5.17635e-06
      117.800   5.17908e-06
      117.900   5.18009e-06
      118.000   5.17785e-06
      118.100   5.17247e-06
      118.200   5.16946e-06
      118.300   5.16744e-06
      118.400   5.15308e-06
      118.500   5.13961e-06
      118.600   5.13169e-06
      118.700   5.12167e-06
      118.800   5.10880e-06
      118.900   5.09771e-06
      119.000   5.07977e-06
      119.100   5.05431e-06
      119.200   5.03651e-06
      119.300   5.02515e-06
      119.400   5.01689e-06
      119.500   5.00998e-06
      119.600   4.99849e-06
      119.700   4.98165e-06
      119.800   4.95420e-06
      119.900   4.91264e-06
      120.000   4.87547e-06
      120.100   4.84182e-06
      120.200   4.82556e-06
      120.300   4.81931e-06
      120.400   4.81287e-06
      120.500   4.79199e-06
      120.600   4.76004e-06
      120.700   4.72440e-06
      120.800   4.69092e-06
      120.900   4.67627e-06
      121.000   4.69122e-06
      121.100   4.70130e-06
      121.200   4.69680e-06
      121.300   4.68149e-06
      121.400   4.65783e-06
      121.500   4.62780e-06
      121.600   4.57342e-06
      121.700   4.52849e-06
      121.800   4.47478e-06
      121.900   4.41977e-06
      122.000   4.35873e-06
      122.100   4.30195e-06
      122.200   4.24581e-06
      122.300   4.21043e-06
      122.400   4.19769e-06
      122.500   4.18978e-06
      122.600   4.17889e-06
      122.700   4.16774e-06
      122.800   4.15130e-06
      122.900   4.13781e-06
      123.000   4.15136e-06
      123.100   4.21228e-06
      123.200   4.27678e-06
      123.300   4.36623e-06
      123.400   4.47669e-06
      123.500   4.61722e-06
      123.600   4.74193e-06
      123.700   4.81758e-06
      123.800   4.87944e-06
      123.900   4.95606e-06
      124.000   5.05659e-06
      124.100   5.23440e-06
      124.200   5.57747e-06
      124.300   6.08364e-06
      124.400   6.57695e-06
      124.500   6.74197e-06
      124.600   6.75367e-06
      124.700   6.74755e-06
      124.800   6.74319e-06
      124.900   6.73867e-06
      125.000   6.73391e-06
      125.100   6.72784e-06
      125.200   6.72160e-06
      125.300   6.71531e-06
      125.400   6.70901e-06
      125.500   6.70269e-06
      125.600   6.69632e-06
      125.700   6.68994e-06
      125.800   6.68347e-06
      125.900   6.67699e-06
      126.000   6.67046e-06
      126.100   6.66387e-06
      126.200   6.65719e-06
      126.300   6.65043e-06
      126.400   6.64358e-06
      126.500   6.63660e-06
      126.600   6.62954e-06
      126.700   6.62238e-06
      126.800   6.61511e-06
      126.900   6.60774e-06
      127.000   6.60009e-06
      127.100   6.59179e-06
      127.200   6.58319e-06
      127.300   6.57442e-06
      127.400   6.56558e-06
      127.500   6.55668e-06
      127.600   6.54774e-06
      127.700   6.53876e-06
      127.800   6.52971e-06
      127.900   6.52063e-06
      128.000   6.51154e-06
      128.100   6.50240e-06
      128.200   6.49324e-06
      128.300   6.48404e-06
      128.400   6.47482e-06
      128.500   6.46553e-06
      128.600   6.45616e-06
      128.700   6.44678e-06
      128.800   6.43733e-06
      128.900   6.42779e-06
      129.000   6.41820e-06
      129.100   6.40839e-06
      129.200   6.39809e-06
      129.300   6.38769e-06
      129.400   6.37723e-06
      129.500   6.36669e-06
      129.600   6.35608e-06
      129.700   6.34538e-06
      129.800   6.33462e-06
      129.900   6.32379e-06
      130.000   6.31293e-06
      130.100   6.30204e-06
      130.200   6.29110e-06
      130.300   6.28015e-06
      130.400   6.26919e-06
      130.500   6.25820e-06
      130.600   6.24720e-06
      130.700   6.23620e-06
      130.800   6.22523e-06
      130.900   6.21425e-06
      131.000   6.20325e-06
      131.100   6.19227e-06
      131.200   6.18122e-06
      131.300   6.17003e-06
      131.400   6.15883e-06
      131.500   6.14760e-06
      131.600   6.13634e-06
      131.700   6.12504e-06
      131.800   6.11369e-06
      131.900   6.10227e-06
      132.000   6.09079e-06
      132.100   6.07922e-06
      132.200   6.06759e-06
      132.300   6.05588e-06
      132.400   6.04408e-06
      132.500   6.03220e-06
      132.600   6.02023e-06
      132.700   6.00816e-06
      132.800   5.99602e-06
      132.900   5.98383e-06
      133.000   5.97157e-06
      133.100   5.95925e-06
      133.200   5.94688e-06
      133.300   5.93443e-06
      133.400   5.92191e-06
      133.500   5.90934e-06
      133.600   5.89675e-06
      133.700   5.88416e-06
      133.800   5.87157e-06
      133.900   5.85899e-06
      134.000   5.84641e-06
      134.100   5.83385e-06
      134.200   5.82128e-06
      134.300   5.80873e-06
      134.400   5.79620e-06
      134.500   5.78369e-06
      134.600   5.77118e-06
      134.700   5.75866e-06
      134.800   5.74615e-06
      134.900   5.73361e-06
      135.000   5.72107e-06
      135.100   5.70850e-06
      135.200   5.69592e-06
      135.300   5.68330e-06
      135.400   5.67063e-06
      135.500   5.65776e-06
      135.600   5.64472e-06
      135.700   5.63161e-06
      135.800   5.61845e-06
      135.900   5.60526e-06
      136.000   5.59202e-06
      136.100   5.57872e-06
      136.200   5.56539e-06
      136.300   5.55198e-06
      136.400   5.53853e-06
      136.500   5.52505e-06
      136.600   5.51153e-06
      136.700   5.49797e-06
      136.800   5.48440e-06
      136.900   5.47080e-06
      137.000   5.45717e-06
      137.100   5.44352e-06
      137.200   5.42984e-06
      137.300   5.41613e-06
      137.400   5.40244e-06
      137.500   5.38873e-06
      137.600   5.37500e-06
      137.700   5.36117e-06
      137.800   5.34728e-06
      137.900   5.33338e-06
      138.000   5.31947e-06
      138.100   5.30557e-06
      138.200   5.29169e-06
      138.300   5.27778e-06
      138.400   5.26389e-06
      138.500   5.24999e-06
      138.600   5.23609e-06
      138.700   5.22219e-06
      138.800   5.20828e-06
      138.900   5.19438e-06
      139.000   5.18049e-06
      139.100   5.16658e-06
      139.200   5.15267e-06
      139.300   5.13876e-06
      139.400   5.12484e-06
      139.500   5.11092e-06
      139.600   5.09700e-06
      139.700   5.08307e-06
      139.800   5.06913e-06
      139.900   5.05517e-06
      140.000   5.04115e-06
      140.100   5.02712e-06
      140.200   5.01307e-06
      140.300   4.99902e-06
      140.400   4.98496e-06
      140.500   4.97089e-06
      140.600   4.95681e-06
      140.700   4.94271e-06
      140.800   4.92861e-06
      140.900   4.91448e-06
      141.000   4.90032e-06
      141.100   4.88615e-06
      141.200   4.87199e-06
      141.300   4.85781e-06
      141.400   4.84361e-06
      141.500   4.82941e-06
      141.600   4.81520e-06
      141.700   4.80095e-06
      141.800   4.78672e-06
      141.900   4.77248e-06
      142.000   4.75824e-06
      142.100   4.74772e-06
      142.200   4.74781e-06
      142.300   4.75707e-06
      142.400   4.76627e-06
      142.500   4.77537e-06
      142.600   4.78442e-06
      142.700   4.79340e-06
      142.800   4.80232e-06
      142.900   4.81117e-06
      143.000   4.81997e-06
      143.100   4.82868e-06
      143.200   4.83734e-06
      143.300   4.84591e-06
      143.400   4.85443e-06
      143.500   4.86289e-06
      143.600   4.87128e-06
      143.700   4.87960e-06
      143.800   4.88786e-06
      143.900   4.89605e-06
      144.000   4.90416e-06
      144.100   4.91218e-06
      144.200   4.92013e-06
      144.300   4.92802e-06
      144.400   4.93690e-06
      144.500   4.96010e-06
      144.600   4.98792e-06
      144.700   5.01624e-06
      144.800   5.04455e-06
      144.900   5.07283e-06
      145.000   5.10113e-06
      145.100   5.12941e-06
      145.200   5.15770e-06
      145.300   5.18598e-06
      145.400   5.21424e-06
      145.500   5.24248e-06
      145.600   5.27067e-06
      145.700   5.29882e-06
      145.800   5.32698e-06
      145.900   5.35514e-06
      146.000   5.38327e-06
      146.100   5.41136e-06
      146.200   5.43943e-06
      146.300   5.46746e-06
      146.400   5.49545e-06
      146.500   5.52338e-06
      146.600   5.55131e-06
      146.700   5.57922e-06
      146.800   5.60673e-06
      146.900   5.63370e-06
      147.000   5.66060e-06
      147.100   5.68745e-06
      147.200   5.71428e-06
      147.300   5.74105e-06
      147.400   5.76777e-06
      147.500   5.79444e-06
      147.600   5.82105e-06
      147.700   5.84762e-06
      147.800   5.87413e-06
      147.900   5.90059e-06
      148.000   5.92696e-06
      148.100   5.95329e-06
      148.200   5.97957e-06
      148.300   6.00582e-06
      148.400   6.03203e-06
      148.500   6.05817e-06
      148.600   6.08426e-06
      148.700   6.11029e-06
      148.800   6.13624e-06
      148.900   6.16217e-06
      149.000   6.18807e-06
      149.100   6.21391e-06
      149.200   6.23966e-06
      149.300   6.26533e-06
      149.400   6.29095e-06
      149.500   6.31654e-06
      149.600   6.34205e-06
      149.700   6.36747e-06
      149.800   6.39284e-06
      149.900   6.41815e-06
      150.000   6.44342e-06
      150.100   6.46862e-06
      150.200   6.49370e-06
      150.300   6.51871e-06
      150.400   6.54365e-06
      150.500   6.56850e-06
      150.600   6.59324e-06
      150.700   6.61792e-06
      150.800   6.64246e-06
      150.900   6.66688e-06
      151.000   6.69118e-06
      151.100   6.71540e-06
      151.200   6.73948e-06
      151.300   6.76341e-06
      151.400   6.78725e-06
      151.500   6.81094e-06
      151.600   6.83465e-06
      151.700   6.85843e-06
      151.800   6.88208e-06
      151.900   6.90557e-06
      152.000   6.92890e-06
      152.100   6.95210e-06
      152.200   6.97522e-06
      152.300   6.99813e-06
      152.400   7.02091e-06
      152.500   7.04359e-06
      152.600   7.06612e-06
      152.700   7.08851e-06
      152.800   7.11076e-06
      152.900   7.13292e-06
      153.000   7.15499e-06
      153.100   7.17693e-06
      153.200   7.19876e-06
      153.300   7.22051e-06
      153.400   7.24214e-06
      153.500   7.26366e-06
      153.600   7.28510e-06
      153.700   7.30651e-06
      153.800   7.32776e-06
      153.900   7.34893e-06
      154.000   7.37171e-06
      154.100   7.39821e-06
      154.200   7.42589e-06
      154.300   7.45353e-06
      154.400   7.48113e-06
      154.500   7.50859e-06
      154.600   7.53598e-06
      154.700   7.56328e-06
      154.800   7.59049e-06
      154.900   7.61754e-06
      155.000   7.64448e-06
      155.100   7.67136e-06
      155.200   7.69804e-06
      155.300   7.72460e-06
      155.400   7.75102e-06
      155.500   7.77732e-06
      155.600   7.80341e-06
      155.700   7.82933e-06
      155.800   7.85513e-06
      155.900   7.88072e-06
      156.000   7.90614e-06
      156.100   7.93136e-06
      156.200   7.95641e-06
      156.300   7.98131e-06
      156.400   8.00599e-06
      156.500   8.03017e-06
      156.600   8.05235e-06
      156.700   8.07428e-06
      156.800   8.09601e-06
      156.900   8.11755e-06
      157.000   8.13898e-06
      157.100   8.16014e-06
      157.200   8.18114e-06
      157.300   8.20199e-06
      157.400   8.22267e-06
      157.500   8.24316e-06
      157.600   8.26347e-06
      157.700   8.28368e-06
      157.800   8.30370e-06
      157.900   8.32352e-06
      158.000   8.34323e-06
      158.100   8.36281e-06
      158.200   8.38220e-06
      158.300   8.40144e-06
      158.400   8.42056e-06
      158.500   8.43952e-06
      158.600   8.45829e-06
      158.700   8.47689e-06
      158.800   8.49541e-06
      158.900   8.51370e-06
      159.000   8.53183e-06
      159.100   8.54972e-06
      159.200   8.56748e-06
      159.300   8.58500e-06
      159.400   8.60234e-06
      159.500   8.61949e-06
      159.600   8.63648e-06
      159.700   8.65325e-06
      159.800   8.66980e-06
      159.900   8.68618e-06
      160.000   8.70230e-06
      160.100   8.71822e-06
      160.200   8.73390e-06
      160.300   8.74936e-06
      160.400   8.76465e-06
      160.500   8.77966e-06
      160.600   8.79446e-06
      160.700   8.80904e-06
      160.800   8.82338e-06
      160.900   8.83748e-06
      161.000   8.85134e-06
      161.100   8.86505e-06
      161.200   8.87848e-06
      161.300   8.89168e-06
      161.400   8.90467e-06
      161.500   8.91749e-06
      161.600   8.93001e-06
      161.700   8.94224e-06
      161.800   8.95428e-06
      161.900   8.96612e-06
      162.000   8.97770e-06
      162.100   8.98910e-06
      162.200   9.00035e-06
      162.300   9.01136e-06
      162.400   9.02217e-06
      162.500   9.03278e-06
      162.600   9.04323e-06
      162.700   9.05351e-06
      162.800   9.06354e-06
      162.900   9.07338e-06
      163.000   9.08305e-06
      163.100   9.09253e-06
      163.200   9.10177e-06
      163.300   9.11081e-06
      163.400   9.11966e-06
      163.500   9.12830e-06
      163.600   9.13671e-06
      163.700   9.14489e-06
      163.800   9.15292e-06
      163.900   9.16067e-06
      164.000   9.16818e-06
      164.100   9.17551e-06
      164.200   9.18257e-06
      164.300   9.18995e-06
      164.400   9.19710e-06
      164.500   9.20404e-06
      164.600   9.21077e-06
      164.700   9.21723e-06
      164.800   9.22344e-06
      164.900   9.22946e-06
      165.000   9.23526e-06
      165.100   9.24083e-06
      165.200   9.24615e-06
      165.300   9.25127e-06
      165.400   9.25623e-06
      165.500   9.26093e-06
      165.600   9.26543e-06
      165.700   9.26977e-06
      165.800   9.27389e-06
      165.900   9.27780e-06
      166.000   9.28155e-06
      166.100   9.28513e-06
      166.200   9.28856e-06
      166.300   9.29181e-06
      166.400   9.29484e-06
      166.500   9.29775e-06
      166.600   9.30053e-06
      166.700   9.30310e-06
      166.800   9.30544e-06
      166.900   9.30763e-06
      167.000   9.30977e-06
      167.100   9.31160e-06
      167.200   9.31327e-06
      167.300   9.31481e-06
      167.400   9.31618e-06
      167.500   9.31736e-06
      167.600   9.31839e-06
      167.700   9.31928e-06
      167.800   9.31996e-06
      167.900   9.32046e-06
      168.000   9.32076e-06
      168.100   9.32091e-06
      168.200   9.32083e-06
      168.300   9.32054e-06
      168.400   9.32005e-06
      168.500   9.31941e-06
      168.600   9.31848e-06
      168.700   9.31732e-06
      168.800   9.31595e-06
      168.900   9.31437e-06
      169.000   9.31257e-06
      169.100   9.31050e-06
      169.200   9.30822e-06
      169.300   9.30569e-06
      169.400   9.30291e-06
      169.500   9.29936e-06
      169.600   9.29320e-06
      169.700   9.28406e-06
      169.800   9.27390e-06
      169.900   9.26338e-06
      170.000   9.25253e-06
      170.100   9.24138e-06
      170.200   9.22991e-06
      170.300   1.68528e-05
      170.400   8.43626e-05
      170.500   0.000276290
      170.600   0.000581689
      170.700   0.000919751
      170.800    0.00111882
      170.900    0.00115563
      171.000    0.00114772
      171.100    0.00113974
      171.200    0.00113168
      171.300    0.00112354
      171.400    0.00111534
      171.500    0.00110706
      171.600    0.00109873
      171.700    0.00109036
      171.800    0.00108197
      171.900    0.00107357
      172.000    0.00106518
      172.100    0.00105683
      172.200    0.00104853
      172.300    0.00104027
      172.400    0.00103195
      172.500    0.00102369
      172.600    0.00101550
      172.700    0.00100740
      172.800   0.000999378
      172.900   0.000991441
      173.000   0.000983595
      173.100   0.000975837
      173.200   0.000968164
      173.300   0.000960580
      173.400   0.000953078
      173.500   0.000945662
      173.600   0.000938332
      173.700   0.000931080
      173.800   0.000923905
      173.900   0.000916808
      174.000   0.000909783
      174.100   0.000902825
      174.200   0.000895936
      174.300   0.000889110
      174.400   0.000882346
      174.500   0.000875640
      174.600   0.000868984
      174.700   0.000862385
      174.800   0.000855838
      174.900   0.000849338
      175.000   0.000842879
      175.100   0.000836460
      175.200   0.000830108
      175.300   0.000823789
      175.400   0.000817511
      175.500   0.000811278
      175.600   0.000805086
      175.700   0.000798936
      175.800   0.000792828
      175.900   0.000786762
      176.000   0.000780737
      176.100   0.000774757
      176.200   0.000768817
      176.300   0.000762916
      176.400   0.000757059
      176.500   0.000751241
      176.600   0.000745461
      176.700   0.000739721
      176.800   0.000734018
      176.900   0.000728354
      177.000   0.000722724
      177.100   0.000717127
      177.200   0.000711567
      177.300   0.000706039
      177.400   0.000700540
      177.500   0.000695070
      177.600   0.000689631
      177.700   0.000684220
      177.800   0.000678837
      177.900   0.000673472
      178.000   0.000668177
      178.100   0.000662911
      178.200   0.000657669
      178.300   0.000652452
      178.400   0.000647263
      178.500   0.000642099
      178.600   0.000636960
      178.700   0.000631845
      178.800   0.000626758
      178.900   0.000621700
      179.000   0.000616667
      179.100   0.000611661
      179.200   0.000606686
      179.300   0.000601741
      179.400   0.000596826
      179.500   0.000591944
      179.600   0.000587093
      179.700   0.000582278
      179.800   0.000577495
      179.900   0.000572747
      180.000   0.000568034
      180.100   0.000563358
      180.200   0.000558719
      180.300   0.000554118
      180.400   0.000549554
      180.500   0.000545029
      180.600   0.000540542
      180.700   0.000536093
      180.800   0.000531686
      180.900   0.000527317
      181.000   0.000522986
      181.100   0.000518695
      181.200   0.000514442
      181.300   0.000510225
      181.400   0.000506048
      181.500   0.000501907
      181.600   0.000497804
      181.700   0.000493736
      181.800   0.000489706
      181.900   0.000485712
      182.000   0.000481755
      182.100   0.000477832
      182.200   0.000473946
      182.300   0.000470094
      182.400   0.000466279
      182.500   0.000462497
      182.600   0.000458748
      182.700   0.000455034
      182.800   0.000451354
      182.900   0.000447707
      183.000   0.000444093
      183.100   0.000440512
      183.200   0.000436964
      183.300   0.000433446
      183.400   0.000429960
      183.500   0.000426507
      183.600   0.000423083
      183.700   0.000419692
      183.800   0.000416340
      183.900   0.000413023
      184.000   0.000409734
      184.100   0.000406474
      184.200   0.000403240
      184.300   0.000400033
      184.400   0.000396853
      184.500   0.000393700
      184.600   0.000390571
      184.700   0.000387466
      184.800   0.000384386
      184.900   0.000381329
      185.000   0.000378295
      185.100   0.000375282
      185.200   0.000372291
      185.300   0.000369323
      185.400   0.000366374
      185.500   0.000363446
      185.600   0.000360538
      185.700   0.000357647
      185.800   0.000354777
      185.900   0.000351926
      186.000   0.000349091
      186.100   0.000346274
      186.200   0.000343475
      186.300   0.000340693
      186.400   0.000337928
      186.500   0.000335180
      186.600   0.000332448
      186.700   0.000329731
      186.800   0.000327029
      186.900   0.000324343
      187.000   0.000321673
      187.100   0.000319018
      187.200   0.000316380
      187.300   0.000313758
      187.400   0.000311151
      187.500   0.000308560
      187.600   0.000305985
      187.700   0.000303425
      187.800   0.000300882
      187.900   0.000298353
      188.000   0.000295842
      188.100   0.000293346
      188.200   0.000290865
      188.300   0.000288401
      188.400   0.000285951
      188.500   0.000283520
      188.600   0.000281104
      188.700   0.000278704
      188.800   0.000276321
      188.900   0.000273955
      189.000   0.000271606
      189.100   0.000269272
      189.200   0.000266956
      189.300   0.000264656
      189.400   0.000262375
      189.500   0.000260110
      189.600   0.000257861
      189.700   0.000255630
      189.800   0.000253439
      189.900   0.000251267
      190.000   0.000249111
      190.100   0.000246974
      190.200   0.000244854
      190.300   0.000242751
      190.400   0.000240664
      190.500   0.000238596
      190.600   0.000236545
      190.700   0.000234511
      190.800   0.000232494
      190.900   0.000230495
      191.000   0.000228513
      191.100   0.000226549
      191.200   0.000224601
      191.300   0.000222670
      191.400   0.000220757
      191.500   0.000218859
      191.600   0.000216979
      191.700   0.000215115
      191.800   0.000213267
      191.900   0.000211436
      192.000   0.000209621
      192.100   0.000207822
      192.200   0.000206040
      192.300   0.000204274
      192.400   0.000202522
      192.500   0.000200787
      192.600   0.000199066
      192.700   0.000197362
      192.800   0.000195670
      192.900   0.000193990
      193.000   0.000192326
      193.100   0.000190676
      193.200   0.000189041
      193.300   0.000187421
      193.400   0.000185817
      193.500   0.000184227
      193.600   0.000182652
      193.700   0.000181090
      193.800   0.000179544
      193.900   0.000178012
      194.000   0.000176494
      194.100   0.000174991
      194.200   0.000173502
      194.300   0.000172028
      194.400   0.000170567
      194.500   0.000169119
      194.600   0.000167685
      194.700   0.000166265
      194.800   0.000164859
      194.900   0.000163465
      195.000   0.000162083
      195.100   0.000160715
      195.200   0.000159359
      195.300   0.000158016
      195.400   0.000156685
      195.500   0.000155365
      195.600   0.000154057
      195.700   0.000152760
      195.800   0.000151473
      195.900   0.000150196
      196.000   0.000148871
      196.100   0.000147557
      196.200   0.000146254
      196.300   0.000144962
      196.400   0.000143679
      196.500   0.000142407
      196.600   0.000141144
      196.700   0.000139892
      196.800   0.000138648
      196.900   0.000137414
      197.000   0.000136188
      197.100   0.000134972
      197.200   0.000133764
      197.300   0.000132564
      197.400   0.000131372
      197.500   0.000130188
      197.600   0.000129013
      197.700   0.000127846
      197.800   0.000126687
      197.900   0.000125535
      198.000   0.000124391
      198.100   0.000123256
      198.200   0.000122127
      198.300   0.000121007
      198.400   0.000119894
      198.500   0.000118790
      198.600   0.000117694
      198.700   0.000116605
      198.800   0.000115524
      198.900   0.000114451
      199.000   0.000113387
      199.100   0.000112330
      199.200   0.000111281
      199.300   0.000110241
      199.400   0.000109209
      199.500   0.000108186
      199.600   0.000107170
      199.700   0.000106163
      199.800   0.000105164
      199.900   0.000104173
      200.000   0.000103191
      200.100   0.000102222
      200.200   0.000101256
      200.300   0.000100299
      200.400   9.93498e-05
      200.500   9.84088e-05
      200.600   9.74760e-05
      200.700   9.65513e-05
      200.800   9.56341e-05
      200.900   9.47253e-05
      201.000   9.38247e-05
      201.100   9.29316e-05
      201.200   9.20462e-05
      201.300   9.11688e-05
      201.400   9.02994e-05
      201.500   8.94370e-05
      201.600   8.85824e-05
      201.700   8.77356e-05
      201.800   8.68958e-05
      201.900   8.60633e-05
      202.000   8.52390e-05
      202.100   8.44214e-05
      202.200   8.36114e-05
      202.300   8.28274e-05
      202.400   8.20894e-05
      202.500   8.13684e-05
      202.600   8.06523e-05
      202.700   7.99425e-05
      202.800   7.92389e-05
      202.900   7.85411e-05
      203.000   7.78497e-05
      203.100   7.71647e-05
      203.200   7.64854e-05
      203.300   7.58120e-05
      203.400   7.51447e-05
      203.500   7.44836e-05
      203.600   7.38286e-05
      203.700   7.31798e-05
      203.800   7.25372e-05
      203.900   7.19009e-05
      204.000   7.12705e-05
      204.100   7.06464e-05
      204.200   7.00285e-05
      204.300   6.94164e-05
      204.400   6.88105e-05
      204.500   6.82106e-05
      204.600   6.76165e-05
      204.700   6.70284e-05
      204.800   6.64467e-05
      204.900   6.58707e-05
      205.000   6.53004e-05
      205.100   6.47361e-05
      205.200   6.41771e-05
      205.300   6.36240e-05
      205.400   6.30764e-05
      205.500   6.25340e-05
      205.600   6.20055e-05
      205.700   6.14906e-05
      205.800   6.09814e-05
      205.900   6.04771e-05
      206.000   5.99778e-05
      206.100   5.94829e-05
      206.200   5.89924e-05
      206.300   5.85065e-05
      206.400   5.80252e-05
      206.500   5.75477e-05
      206.600   5.70747e-05
      206.700   5.66058e-05
      206.800   5.61407e-05
      206.900   5.56796e-05
      207.000   5.52225e-05
      207.100   5.47690e-05
      207.200   5.43194e-05
      207.300   5.38735e-05
      207.400   5.34309e-05
      207.500   5.29918e-05
      207.600   5.25563e-05
      207.700   5.21240e-05
      207.800   5.16950e-05
      207.900   5.12694e-05
      208.000   5.08469e-05
      208.100   5.04277e-05
      208.200   5.00117e-05
      208.300   4.95987e-05
      208.400   4.91888e-05
      208.500   4.87821e-05
      208.600   4.83782e-05
      208.700   4.79772e-05
      208.800   4.75793e-05
      208.900   4.71826e-05
      209.000   4.67831e-05
      209.100   4.63862e-05
      209.200   4.59922e-05
      209.300   4.56012e-05
      209.400   4.52132e-05
      209.500   4.48281e-05
      209.600   4.44460e-05
      209.700   4.40667e-05
      209.800   4.36905e-05
      209.900   4.33170e-05
      210.000   4.29464e-05
      210.100   4.25785e-05
      210.200   4.22135e-05
      210.300   4.18512e-05
      210.400   4.14917e-05
      210.500   4.11348e-05
      210.600   4.07806e-05
      210.700   4.04291e-05
      210.800   4.00801e-05
      210.900   3.97338e-05
      211.000   3.93899e-05
      211.100   3.90487e-05
      211.200   3.87099e-05
      211.300   3.83737e-05
      211.400   3.80401e-05
      211.500   3.77087e-05
      211.600   3.73797e-05
      211.700   3.70533e-05
      211.800   3.67290e-05
      211.900   3.64070e-05
      212.000   3.60876e-05
      212.100   3.57703e-05
      212.200   3.54552e-05
      212.300   3.51426e-05
      212.400   3.48323e-05
      212.500   3.45243e-05
      212.600   3.42185e-05
      212.700   3.39149e-05
      212.800   3.36136e-05
      212.900   3.33145e-05
      213.000   3.30175e-05
      213.100   3.27228e-05
      213.200   3.24303e-05
      213.300   3.21399e-05
      213.400   3.18518e-05
      213.500   3.15659e-05
      213.600   3.12821e-05
      213.700   3.10006e-05
      213.800   3.07212e-05
      213.900   3.04442e-05
      214.000   3.01693e-05
      214.100   2.98966e-05
      214.200   2.96263e-05
      214.300   2.93581e-05
      214.400   2.90921e-05
      214.500   2.88285e-05
      214.600   2.85671e-05
      214.700   2.83079e-05
      214.800   2.80510e-05
      214.900   2.77964e-05
      215.000   2.75439e-05
      215.100   2.72938e-05
      215.200   2.70458e-05
      215.300   2.68004e-05
      215.400   2.65570e-05
      215.500   2.63159e-05
      215.600   2.60772e-05
      215.700   2.58405e-05
      215.800   2.56060e-05
      215.900   2.53738e-05
      216.000   2.51438e-05
      216.100   2.49159e-05
      216.200   2.46902e-05
      216.300   2.44667e-05
      216.400   2.42454e-05
      216.500   2.40261e-05
      216.600   2.38091e-05
      216.700   2.35941e-05
      216.800   2.33812e-05
      216.900   2.31704e-05
      217.000   2.29616e-05
      217.100   2.27547e-05
      217.200   2.25500e-05
      217.300   2.23472e-05
      217.400   2.21463e-05
      217.500   2.19475e-05
      217.600   2.17505e-05
      217.700   2.15553e-05
      217.800   2.13621e-05
      217.900   2.11708e-05
      218.000   2.09813e-05
      218.100   2.07935e-05
      218.200   2.06076e-05
      218.300   2.04235e-05
      218.400   2.02412e-05
      218.500   2.00604e-05
      218.600   1.98815e-05
      218.700   1.97042e-05
      218.800   1.95286e-05
      218.900   1.93547e-05
      219.000   1.91823e-05
      219.100   1.90115e-05
      219.200   1.88424e-05
      219.300   1.86748e-05
      219.400   1.85087e-05
      219.500   1.83442e-05
      219.600   1.81811e-05
      219.700   1.80196e-05
      219.800   1.78596e-05
      219.900   1.77010e-05
      220.000   1.75439e-05
      220.100   1.73882e-05
      220.200   1.72339e-05
      220.300   1.70811e-05
      220.400   1.69296e-05
      220.500   1.67795e-05
      220.600   1.66308e-05
      220.700   1.64834e-05
      220.800   1.63372e-05
      220.900   1.61925e-05
      221.000   1.60490e-05
      221.100   1.59068e-05
      221.200   1.57659e-05
      221.300   1.56262e-05
      221.400   1.54878e-05
      221.500   1.53506e-05
      221.600   1.52146e-05
      221.700   1.50798e-05
      221.800   1.49461e-05
      221.900   1.48137e-05
      222.000   1.46824e-05
      222.100   1.45522e-05
      222.200   1.44232e-05
      222.300   1.42953e-05
      222.400   1.41685e-05
      222.500   1.40427e-05
      222.600   1.39180e-05
      222.700   1.37944e-05
      222.800   1.36717e-05
      222.900   1.35501e-05
      223.000   1.34295e-05
      223.100   1.33099e-05
      223.200   1.31913e-05
      223.300   1.30736e-05
      223.400   1.29570e-05
      223.500   1.28413e-05
      223.600   1.27266e-05
      223.700   1.26127e-05
      223.800   1.24998e-05
      223.900   1.23879e-05
      224.000   1.22769e-05
      224.100   1.21667e-05
      224.200   1.20574e-05
      224.300   1.19491e-05
      224.400   1.18415e-05
      224.500   1.17349e-05
      224.600   1.16290e-05
      224.700   1.15241e-05
      224.800   1.14200e-05
      224.900   1.13167e-05
      225.000   1.12142e-05
      225.100   1.11125e-05
      225.200   1.10116e-05
      225.300   1.09115e-05
      225.400   1.08122e-05
      225.500   1.07137e-05
      225.600   1.06159e-05
      225.700   1.05189e-05
      225.800   1.04227e-05
      225.900   1.03272e-05
      226.000   1.02325e-05
      226.100   1.01385e-05
      226.200   1.00454e-05
      226.300   9.95355e-06
      226.400   9.86308e-06
      226.500   9.77316e-06
      226.600   9.68374e-06
      226.700   9.59491e-06
      226.800   9.50665e-06
      226.900   9.41902e-06
      227.000   9.33209e-06
      227.100   9.24581e-06
      227.200   9.16023e-06
      227.300   9.07536e-06
      227.400   8.99117e-06
      227.500   8.90766e-06
      227.600   8.82482e-06
      227.700   8.74267e-06
      227.800   8.66120e-06
      227.900   8.58041e-06
      228.000   8.50029e-06
      228.100   8.42082e-06
      228.200   8.34201e-06
      228.300   8.26387e-06
      228.400   8.18643e-06
      228.500   8.10961e-06
      228.600   8.03347e-06
      228.700   7.95798e-06
      228.800   7.88312e-06
      228.900   7.80897e-06
      229.000   7.73545e-06
      229.100   7.66257e-06
      229.200   7.59033e-06
      229.300   7.51875e-06
      229.400   7.44782e-06
      229.500   7.37752e-06
      229.600   7.30786e-06
      229.700   7.23884e-06
      229.800   7.17044e-06
      229.900   7.10268e-06
      230.000   7.03550e-06
      230.100   6.96821e-06
      230.200   6.90159e-06
      230.300   6.83563e-06
      230.400   6.77027e-06
      230.500   6.70555e-06
      230.600   6.64143e-06
      230.700   6.57792e-06
      230.800   6.51503e-06
      230.900   6.45276e-06
      231.000   6.39107e-06
      231.100   6.32998e-06
      231.200   6.26947e-06
      231.300   6.20957e-06
      231.400   6.15026e-06
      231.500   6.09150e-06
      231.600   6.03330e-06
      231.700   5.97569e-06
      231.800   5.91865e-06
      231.900   5.86215e-06
      232.000   5.80620e-06
      232.100   5.75079e-06
      232.200   5.69593e-06
      232.300   5.64162e-06
      232.400   5.58782e-06
      232.500   5.53454e-06
      232.600   5.48178e-06
      232.700   5.42955e-06
      232.800   5.37782e-06
      232.900   5.32659e-06
      233.000   5.27586e-06
      233.100   5.22564e-06
      233.200   5.17588e-06
      233.300   5.12662e-06
      233.400   5.07784e-06
      233.500   5.02952e-06
      233.600   4.98169e-06
      233.700   4.93430e-06
      233.800   4.88272e-06
      233.900   4.83095e-06
      234.000   4.77977e-06
      234.100   4.72915e-06
      234.200   4.67907e-06
      234.300   4.62952e-06
      234.400   4.58050e-06
      234.500   4.53200e-06
      234.600   4.48401e-06
      234.700   4.43654e-06
      234.800   4.38958e-06
      234.900   4.34311e-06
      235.000   4.29713e-06
      235.100   4.25164e-06
      235.200   4.20664e-06
      235.300   4.16212e-06
      235.400   4.11807e-06
      235.500   4.07449e-06
      235.600   4.03139e-06
      235.700   3.98872e-06
      235.800   3.94654e-06
      235.900   3.90480e-06
      236.000   3.86351e-06
      236.100   3.82265e-06
      236.200   3.78222e-06
      236.300   3.74223e-06
      236.400   3.70267e-06
      236.500   3.66353e-06
      236.600   3.62480e-06
      236.700   3.58648e-06
      236.800   3.54857e-06
      236.900   3.51106e-06
      237.000   3.47395e-06
      237.100   3.43723e-06
      237.200   3.40090e-06
      237.300   3.36496e-06
      237.400   3.32939e-06
      237.500   3.29419e-06
      237.600   3.25932e-06
      237.700   3.22483e-06
      237.800   3.19070e-06
      237.900   3.15692e-06
      238.000   3.12351e-06
      238.100   3.09044e-06
      238.200   3.05770e-06
      238.300   3.02531e-06
      238.400   2.99325e-06
      238.500   2.96151e-06
      238.600   2.93011e-06
      238.700   2.89903e-06
      238.800   2.86827e-06
      238.900   2.83782e-06
      239.000   2.80766e-06
      239.100   2.77783e-06
      239.200   2.74830e-06
      239.300   2.71905e-06
      239.400   2.69012e-06
      239.500   2.66148e-06
      239.600   2.63311e-06
      239.700   2.60504e-06
      239.800   2.57724e-06
      239.900   2.54972e-06
      240.000   2.52248e-06
      240.100   2.49549e-06
      240.200   2.46877e-06
      240.300   2.44232e-06
      240.400   2.41612e-06
      240.500   2.39020e-06
      240.600   2.36452e-06
      240.700   2.33910e-06
      240.800   2.31392e-06
      240.900   2.28900e-06
      241.000   2.26431e-06
      241.100   2.23988e-06
      241.200   2.21568e-06
      241.300   2.19172e-06
      241.400   2.16799e-06
      241.500   2.14449e-06
      241.600   2.12122e-06
      241.700   2.09818e-06
      241.800   2.07537e-06
      241.900   2.05278e-06
      242.000   2.03041e-06
      242.100   2.00827e-06
      242.200   1.98635e-06
      242.300   1.96466e-06
      242.400   1.94317e-06
      242.500   1.92190e-06
      242.600   1.90084e-06
      242.700   1.87999e-06
      242.800   1.85935e-06
      242.900   1.83892e-06
      243.000   1.81870e-06
      243.100   1.79868e-06
      243.200   1.77885e-06
      243.300   1.75923e-06
      243.400   1.73982e-06
      243.500   1.72060e-06
      243.600   1.70159e-06
      243.700   1.68276e-06
      243.800   1.66413e-06
      243.900   1.64569e-06
      244.000   1.62744e-06
      244.100   1.60938e-06
      244.200   1.59151e-06
      244.300   1.57382e-06
      244.400   1.55632e-06
      244.500   1.53900e-06
      244.600   1.52185e-06
      244.700   1.50490e-06
      244.800   1.48812e-06
      244.900   1.47152e-06
      245.000   1.45508e-06
      245.100   1.43883e-06
      245.200   1.42275e-06
      245.300   1.40683e-06
      245.400   1.39108e-06
      245.500   1.37550e-06
      245.600   1.36009e-06
      245.700   1.34484e-06
      245.800   1.32974e-06
      245.900   1.31482e-06
      246.000   1.30005e-06
      246.100   1.28545e-06
      246.200   1.27099e-06
      246.300   1.25670e-06
      246.400   1.24255e-06
      246.500   1.22856e-06
      246.600   1.21472e-06
      246.700   1.20103e-06
      246.800   1.18747e-06
      246.900   1.17407e-06
      247.000   1.16082e-06
      247.100   1.14771e-06
      247.200   1.13474e-06
      247.300   1.12191e-06
      247.400   1.10922e-06
      247.500   1.09667e-06
      247.600   1.08426e-06
      247.700   1.07198e-06
      247.800   1.05983e-06
      247.900   1.04781e-06
      248.000   1.03593e-06
      248.100   1.02419e-06
      248.200   1.01257e-06
      248.300   1.00108e-06
      248.400   9.89712e-07
      248.500   9.78469e-07
      248.600   9.67351e-07
      248.700   9.56357e-07
      248.800   9.45485e-07
      248.900   9.34734e-07
      249.000   9.24103e-07
      249.100   9.13590e-07
      249.200   9.03201e-07
      249.300   8.92925e-07
      249.400   8.82764e-07
      249.500   8.72718e-07
      249.600   8.62782e-07
      249.700   8.52957e-07
      249.800   8.43244e-07
      249.900   8.33639e-07
      250.000   8.24146e-07
      250.100   8.14764e-07
      250.200   8.05483e-07
      250.300   7.96314e-07
      250.400   7.87249e-07
      250.500   7.78287e-07
      250.600   7.69428e-07
      250.700   7.60669e-07
      250.800   7.52010e-07
      250.900   7.43450e-07
      251.000   7.34987e-07
      251.100   7.26621e-07
      251.200   7.18354e-07
      251.300   7.10185e-07
      251.400   7.02110e-07
      251.500   6.94125e-07
      251.600   6.86233e-07
      251.700   6.78435e-07
      251.800   6.70724e-07
      251.900   6.63102e-07
      252.000   6.55566e-07
      252.100   6.48121e-07
      252.200   6.40756e-07
      252.300   6.33484e-07
      252.400   6.26289e-07
      252.500   6.19183e-07
      252.600   6.12156e-07
      252.700   6.05210e-07
      252.800   5.98344e-07
      252.900   5.91556e-07
      253.000   5.84846e-07
      253.100   5.78214e-07
      253.200   5.71657e-07
      253.300   5.65415e-07
      253.400   5.59355e-07
      253.500   5.53363e-07
      253.600   5.47437e-07
      253.700   5.41573e-07
      253.800   5.35776e-07
      253.900   5.30040e-07
      254.000   5.24365e-07
      254.100   5.18749e-07
      254.200   5.13194e-07
      254.300   5.07699e-07
      254.400   5.02262e-07
      254.500   4.96882e-07
      254.600   4.91560e-07
      254.700   4.86295e-07
      254.800   4.81088e-07
      254.900   4.75934e-07
      255.000   4.70836e-07
      255.100   4.65788e-07
      255.200   4.60795e-07
      255.300   4.55855e-07
      255.400   4.50965e-07
      255.500   4.46128e-07
      255.600   4.41342e-07
      255.700   4.36605e-07
      255.800   4.31918e-07
      255.900   4.27278e-07
      256.000   4.22687e-07
      256.100   4.18145e-07
      256.200   4.13649e-07
      256.300   4.09200e-07
      256.400   4.04801e-07
      256.500   4.00442e-07
      256.600   3.96132e-07
      256.700   3.91866e-07
      256.800   3.87643e-07
      256.900   3.83463e-07
      257.000   3.79327e-07
      257.100   3.75234e-07
      257.200   3.71184e-07
      257.300   3.67175e-07
      257.400   3.63308e-07
      257.500   3.59518e-07
      257.600   3.55769e-07
      257.700   3.52056e-07
      257.800   3.48380e-07
      257.900   3.44742e-07
      258.000   3.41140e-07
      258.100   3.37573e-07
      258.200   3.34042e-07
      258.300   3.30548e-07
      258.400   3.27086e-07
      258.500   3.23659e-07
      258.600   3.20267e-07
      258.700   3.16908e-07
      258.800   3.13583e-07
      258.900   3.10292e-07
      259.000   3.07033e-07
      259.100   3.03807e-07
      259.200   3.00612e-07
      259.300   2.97452e-07
      259.400   2.94322e-07
      259.500   2.91222e-07
      259.600   2.88156e-07
      259.700   2.85120e-07
      259.800   2.82113e-07
      259.900   2.79135e-07
      260.000   2.76189e-07
      260.100   2.73272e-07
      260.200   2.70384e-07
      260.300   2.67526e-07
      260.400   2.64696e-07
      260.500   2.61895e-07
      260.600   2.59122e-07
      260.700   2.56376e-07
      260.800   2.53659e-07
      260.900   2.50968e-07
      261.000   2.48305e-07
      261.100   2.45669e-07
      261.200   2.43059e-07
      261.300   2.40475e-07
      261.400   2.37919e-07
      261.500   2.35399e-07
      261.600   2.32941e-07
      261.700   2.30513e-07
      261.800   2.28111e-07
      261.900   2.25730e-07
      262.000   2.23374e-07
      262.100   2.21040e-07
      262.200   2.18731e-07
      262.300   2.16443e-07
      262.400   2.14179e-07
      262.500   2.11936e-07
      262.600   2.09715e-07
      262.700   2.07517e-07
      262.800   2.05340e-07
      262.900   2.03184e-07
      263.000   2.01052e-07
      263.100   1.98939e-07
      263.200   1.96847e-07
      263.300   1.94776e-07
      263.400   1.92725e-07
      263.500   1.90695e-07
      263.600   1.88686e-07
      263.700   1.86696e-07
      263.800   1.84725e-07
      263.900   1.82775e-07
      264.000   1.80844e-07
      264.100   1.78932e-07
      264.200   1.77038e-07
      264.300   1.75165e-07
      264.400   1.73310e-07
      264.500   1.71473e-07
      264.600   1.69654e-07
      264.700   1.67855e-07
      264.800   1.66072e-07
      264.900   1.64308e-07
      265.000   1.62562e-07
      265.100   1.60833e-07
      265.200   1.59121e-07
      265.300   1.57426e-07
      265.400   1.55750e-07
      265.500   1.54089e-07
      265.600   1.52446e-07
      265.700   1.50819e-07
      265.800   1.49213e-07
      265.900   1.47622e-07
      266.000   1.46048e-07
      266.100   1.44490e-07
      266.200   1.42948e-07
      266.300   1.41421e-07
      266.400   1.39911e-07
      266.500   1.38415e-07
      266.600   1.36935e-07
      266.700   1.35470e-07
      266.800   1.34021e-07
      266.900   1.32587e-07
      267.000   1.31166e-07
      267.100   1.29761e-07
      267.200   1.28371e-07
      267.300   1.26995e-07
      267.400   1.25633e-07
      267.500   1.24285e-07
      267.600   1.22952e-07
      267.700   1.21632e-07
      267.800   1.20326e-07
      267.900   1.19034e-07
      268.000   1.17755e-07
      268.100   1.16490e-07
      268.200   1.15238e-07
      268.300   1.14000e-07
      268.400   1.12774e-07
      268.500   1.11561e-07
      268.600   1.10360e-07
      268.700   1.09173e-07
      268.800   1.07998e-07
      268.900   1.06836e-07
      269.000   1.05687e-07
      269.100   1.04549e-07
      269.200   1.03424e-07
      269.300   1.02310e-07
      269.400   1.01208e-07
      269.500   1.00118e-07
      269.600   9.90393e-08
      269.700   9.79726e-08
      269.800   9.69173e-08
      269.900   9.58729e-08
      270.000   9.48402e-08
      270.100   9.38210e-08
      270.200   9.28140e-08
      270.300   9.18178e-08
      270.400   9.08319e-08
      270.500   8.98568e-08
      270.600   8.88919e-08
      270.700   8.79375e-08
      270.800   8.69936e-08
      270.900   8.60590e-08
      271.000   8.51351e-08
      271.100   8.42209e-08
      271.200   8.33161e-08
      271.300   8.24215e-08
      271.400   8.15362e-08
      271.500   8.06606e-08
      271.600   7.97939e-08
      271.700   7.89367e-08
      271.800   7.80890e-08
      271.900   7.72501e-08
      272.000   7.64205e-08
      272.100   7.55994e-08
      272.200   7.47873e-08
      272.300   7.39835e-08
      272.400   7.31885e-08
      272.500   7.24022e-08
      272.600   7.16240e-08
      272.700   7.08542e-08
      272.800   7.00927e-08
      272.900   6.93394e-08
      273.000   6.85943e-08
      273.100   6.78568e-08
      273.200   6.71272e-08
      273.300   6.64057e-08
      273.400   6.56917e-08
      273.500   6.49853e-08
      273.600   6.42864e-08
      273.700   6.35949e-08
      273.800   6.29107e-08
      273.900   6.22343e-08
      274.000   6.15647e-08
      274.100   6.09023e-08
      274.200   6.02469e-08
      274.300   5.95985e-08
      274.400   5.89391e-08
      274.500   5.82395e-08
      274.600   5.75398e-08
      274.700   5.68490e-08
      274.800   5.61661e-08
      274.900   5.54910e-08
      275.000   5.48241e-08
      275.100   5.41649e-08
      275.200   5.35136e-08
      275.300   5.28698e-08
      275.400   5.22337e-08
      275.500   5.16052e-08
      275.600   5.09835e-08
      275.700   5.03696e-08
      275.800   4.97630e-08
      275.900   4.91633e-08
      276.000   4.85707e-08
      276.100   4.79850e-08
      276.200   4.74061e-08
      276.300   4.68339e-08
      276.400   4.62686e-08
      276.500   4.57097e-08
      276.600   4.51577e-08
      276.700   4.46119e-08
      276.800   4.40727e-08
      276.900   4.35397e-08
      277.000   4.30130e-08
      277.100   4.24924e-08
      277.200   4.19778e-08
      277.300   4.14695e-08
      277.400   4.09671e-08
      277.500   4.04704e-08
      277.600   3.99798e-08
      277.700   3.94947e-08
      277.800   3.90153e-08
      277.900   3.85417e-08
      278.000   3.80736e-08
      278.100   3.76111e-08
      278.200   3.71539e-08
      278.300   3.67022e-08
      278.400   3.62558e-08
      278.500   3.58144e-08
      278.600   3.53782e-08
      278.700   3.49473e-08
      278.800   3.45214e-08
      278.900   3.40973e-08
      279.000   3.36771e-08
      279.100   3.32621e-08
      279.200   3.28518e-08
      279.300   3.24465e-08
      279.400   3.20459e-08
      279.500   3.16502e-08
      279.600   3.12591e-08
      279.700   3.08728e-08
      279.800   3.04910e-08
      279.900   3.01137e-08
      280.000   2.97409e-08
      280.100   2.93725e-08
      280.200   2.90086e-08
      280.300   2.86489e-08
      280.400   2.82935e-08
      280.500   2.79425e-08
      280.600   2.75957e-08
      280.700   2.72529e-08
      280.800   2.69143e-08
      280.900   2.65796e-08
      281.000   2.62490e-08
      281.100   2.59223e-08
      281.200   2.55995e-08
      281.300   2.52805e-08
      281.400   2.49655e-08
      281.500   2.46541e-08
      281.600   2.43464e-08
      281.700   2.40424e-08
      281.800   2.37423e-08
      281.900   2.34455e-08
      282.000   2.31523e-08
      282.100   2.28626e-08
      282.200   2.25766e-08
      282.300   2.22939e-08
      282.400   2.20146e-08
      282.500   2.17385e-08
      282.600   2.14659e-08
      282.700   2.11965e-08
      282.800   2.09302e-08
      282.900   2.06675e-08
      283.000   2.04077e-08
      283.100   2.01511e-08
      283.200   1.98975e-08
      283.300   1.96471e-08
      283.400   1.93997e-08
      283.500   1.91553e-08
      283.600   1.89137e-08
      283.700   1.86751e-08
      283.800   1.84393e-08
      283.900   1.82066e-08
      284.000   1.79765e-08
      284.100   1.77492e-08
      284.200   1.75247e-08
      284.300   1.73029e-08
      284.400   1.70838e-08
      284.500   1.68674e-08
      284.600   1.66536e-08
      284.700   1.64424e-08
      284.800   1.62338e-08
      284.900   1.60277e-08
      285.000   1.58241e-08
      285.100   1.56230e-08
      285.200   1.54244e-08
      285.300   1.52281e-08
      285.400   1.50342e-08
      285.500   1.48427e-08
      285.600   1.46536e-08
      285.700   1.44668e-08
      285.800   1.42823e-08
      285.900   1.41000e-08
      286.000   1.39200e-08
      286.100   1.37423e-08
      286.200   1.35666e-08
      286.300   1.33931e-08
      286.400   1.32219e-08
      286.500   1.30526e-08
      286.600   1.28855e-08
      286.700   1.27204e-08
      286.800   1.25573e-08
      286.900   1.23963e-08
      287.000   1.22372e-08
      287.100   1.20801e-08
      287.200   1.19250e-08
      287.300   1.17718e-08
      287.400   1.16204e-08
      287.500   1.14709e-08
      287.600   1.13233e-08
      287.700   1.11775e-08
      287.800   1.10336e-08
      287.900   1.08914e-08
      288.000   1.07510e-08
      288.100   1.06123e-08
      288.200   1.04755e-08
      288.300   1.03403e-08
      288.400   1.02068e-08
      288.500   1.00750e-08
      288.600   9.94475e-09
      288.700   9.81618e-09
      288.800   9.68921e-09
      288.900   9.56387e-09
      289.000   9.44006e-09
      289.100   9.31778e-09
      289.200   9.19708e-09
      289.300   9.07787e-09
      289.400   8.96013e-09
      289.500   8.84390e-09
      289.600   8.72909e-09
      289.700   8.61581e-09
      289.800   8.50387e-09
      289.900   8.39333e-09
      290.000   8.28423e-09
      290.100   8.17646e-09
      290.200   8.07011e-09
      290.300   7.96510e-09
      290.400   7.86140e-09
      290.500   7.75906e-09
      290.600   7.65794e-09
      290.700   7.55813e-09
      290.800   7.45963e-09
      290.900   7.36234e-09
      291.000   7.26623e-09
      291.100   7.17134e-09
      291.200   7.07769e-09
      291.300   6.98521e-09
      291.400   6.89392e-09
      291.500   6.80379e-09
      291.600   6.71477e-09
      291.700   6.62694e-09
      291.800   6.54019e-09
      291.900   6.45459e-09
      292.000   6.37007e-09
      292.100   6.28661e-09
      292.200   6.20425e-09
      292.300   6.12290e-09
      292.400   6.04259e-09
      292.500   5.96328e-09
      292.600   5.88499e-09
      292.700   5.80773e-09
      292.800   5.73144e-09
      292.900   5.65615e-09
      293.000   5.58181e-09
      293.100   5.50839e-09
      293.200   5.43592e-09
      293.300   5.36438e-09
      293.400   5.29379e-09
      293.500   5.22409e-09
      293.600   5.15528e-09
      293.700   5.08734e-09
      293.800   5.02029e-09
      293.900   4.95411e-09
      294.000   4.88876e-09
      294.100   4.82425e-09
      294.200   4.76059e-09
      294.300   4.69775e-09
      294.400   4.63566e-09
      294.500   4.57442e-09
      294.600   4.51393e-09
      294.700   4.45424e-09
      294.800   4.39532e-09
      294.900   4.33715e-09
      295.000   4.27974e-09
      295.100   4.22309e-09
      295.200   4.16716e-09
      295.300   4.11194e-09
      295.400   4.05745e-09
      295.500   4.00367e-09
      295.600   3.95056e-09
      295.700   3.89815e-09
      295.800   3.84642e-09
      295.900   3.79532e-09
      296.000   3.74490e-09
      296.100   3.69512e-09
      296.200   3.64601e-09
      296.300   3.59752e-09
      296.400   3.54970e-09
      296.500   3.50247e-09
      296.600   3.45585e-09
      296.700   3.40984e-09
      296.800   3.36443e-09
      296.900   3.31960e-09
      297.000   3.27535e-09
      297.100   3.23167e-09
      297.200   3.18857e-09
      297.300   3.14601e-09
      297.400   3.10401e-09
      297.500   3.06255e-09
      297.600   3.02163e-09
      297.700   2.98125e-09
      297.800   2.94139e-09
      297.900   2.90206e-09
      298.000   2.86325e-09
      298.100   2.82493e-09
      298.200   2.78711e-09
      298.300   2.74980e-09
      298.400   2.71295e-09
      298.500   2.67658e-09
      298.600   2.64068e-09
      298.700   2.60526e-09
      298.800   2.57029e-09
      298.900   2.53580e-09
      299.000   2.50177e-09
      299.100   2.46818e-09
      299.200   2.43501e-09
      299.300   2.40228e-09
      299.400   2.36998e-09
      299.500   2.33810e-09
      299.600   2.30664e-09
      299.700   2.27559e-09
      299.800   2.24493e-09
      299.900   2.21469e-09
      300.000   2.18484e-09
      300.100   2.15538e-09
      300.192   2.12863e-09
      300.285   2.10190e-09
      300.377   2.07579e-09
      300.470   2.04973e-09
      300.562   2.02425e-09
      300.654   1.99907e-09
      300.747   1.97393e-09
      300.839   1.94938e-09
      300.932   1.92483e-09
      301.025   1.90061e-09
      301.117   1.87693e-09
      301.210   1.85328e-09
      301.303   1.82993e-09
      301.395   1.80713e-09
      301.488   1.78432e-09
      301.581   1.76182e-09
      301.674   1.73958e-09
      301.766   1.71786e-09
      301.859   1.69616e-09
      301.952   1.67474e-09
      302.045   1.65356e-09
      302.138   1.63269e-09
      302.231   1.61215e-09
      302.324   1.59186e-09
      302.417   1.57182e-09
      302.510   1.55201e-09
      302.603   1.53246e-09
      302.696   1.51315e-09
      302.789   1.49406e-09
      302.882   1.47520e-09
      302.976   1.45640e-09
      303.069   1.43801e-09
      303.162   1.41985e-09
      303.255   1.40190e-09
      303.349   1.38400e-09
      303.442   1.36648e-09
      303.535   1.34921e-09
      303.629   1.33196e-09
      303.722   1.31510e-09
      303.816   1.29827e-09
      303.909   1.28182e-09
      304.003   1.26540e-09
      304.096   1.24935e-09
      304.190   1.23333e-09
      304.283   1.21768e-09
      304.377   1.20206e-09
      304.471   1.18663e-09
      304.564   1.17155e-09
      304.658   1.15651e-09
      304.752   1.14164e-09
      304.846   1.12697e-09
      304.939   1.11262e-09
      305.033   1.09831e-09
      305.127   1.08417e-09
      305.221   1.07021e-09
      305.315   1.05643e-09
      305.409   1.04281e-09
      305.503   1.02937e-09
      305.597   1.01609e-09
      305.691   1.00298e-09
      305.785   9.90032e-10
      305.879   9.77245e-10
      305.973   9.64625e-10
      306.067   9.52152e-10
      306.161   9.39847e-10
      306.255   9.27690e-10
      306.350   9.15559e-10
      306.444   9.03706e-10
      306.538   8.92001e-10
      306.633   8.80327e-10
      306.727   8.68916e-10
      306.821   8.57647e-10
      306.916   8.46405e-10
      307.010   8.35428e-10
      307.105   8.24481e-10
      307.199   8.13787e-10
      307.294   8.03113e-10
      307.388   7.92688e-10
      307.483   7.82288e-10
      307.577   7.72125e-10
      307.672   7.61984e-10
      307.767   7.51975e-10
      307.861   7.42196e-10
      307.956   7.32433e-10
      308.051   7.22797e-10
      308.146   7.13288e-10
      308.240   7.03999e-10
      308.335   6.94728e-10
      308.430   6.85572e-10
      308.525   6.76534e-10
      308.620   6.67617e-10
      308.715   6.58811e-10
      308.810   6.50119e-10
      308.905   6.41538e-10
      309.000   6.33067e-10
      309.095   6.24705e-10
      309.190   6.16454e-10
      309.285   6.08304e-10
      309.380   6.00260e-10
      309.476   5.92240e-10
      309.571   5.84403e-10
      309.666   5.76664e-10
      309.761   5.69029e-10
      309.857   5.61413e-10
      309.952   5.53972e-10
      310.047   5.46631e-10
      310.143   5.39307e-10
      310.238   5.32154e-10
      310.334   5.25019e-10
      310.429   5.18047e-10
      310.525   5.11098e-10
      310.620   5.04309e-10
      310.716   4.97536e-10
      310.811   4.90924e-10
      310.907   4.84331e-10
      311.003   4.77823e-10
      311.098   4.71464e-10
      311.194   4.65122e-10
      311.290   4.58867e-10
      311.386   4.52693e-10
      311.481   4.46661e-10
      311.577   4.40649e-10
      311.673   4.34713e-10
      311.769   4.28855e-10
      311.865   4.23077e-10
      311.961   4.17405e-10
      312.057   4.11945e-10
      312.153   4.06610e-10
      312.249   4.01337e-10
      312.345   3.96131e-10
      312.441   3.90989e-10
      312.537   3.85914e-10
      312.633   3.80905e-10
      312.730   3.75905e-10
      312.826   3.71022e-10
      312.922   3.66202e-10
      313.018   3.61443e-10
      313.115   3.56695e-10
      313.211   3.52055e-10
      313.307   3.47476e-10
      313.404   3.42909e-10
      313.500   3.38444e-10
      313.597   3.33995e-10
      313.693   3.29647e-10
      313.790   3.25310e-10
      313.886   3.21072e-10
      313.983   3.16844e-10
      314.079   3.12713e-10
      314.176   3.08594e-10
      314.273   3.04528e-10
      314.369   3.00557e-10
      314.466   2.96595e-10
      314.563   2.92684e-10
      314.660   2.88825e-10
      314.756   2.85053e-10
      314.853   2.81291e-10
      314.950   2.77579e-10
      315.047   2.73915e-10
      315.144   2.70297e-10
      315.241   2.66727e-10
      315.338   2.63202e-10
      315.435   2.59724e-10
      315.532   2.56291e-10
      315.629   2.52903e-10
      315.726   2.49558e-10
      315.823   2.46255e-10
      315.921   2.42964e-10
      316.018   2.39748e-10
      316.115   2.36574e-10
      316.212   2.33440e-10
      316.310   2.30317e-10
      316.407   2.27265e-10
      316.504   2.24252e-10
      316.602   2.21248e-10
      316.699   2.18315e-10
      316.796   2.15420e-10
      316.894   2.12533e-10
      316.991   2.09724e-10
      317.089   2.06995e-10
      317.187   2.04345e-10
      317.284   2.01751e-10
      317.382   1.99163e-10
      317.479   1.96632e-10
      317.577   1.94109e-10
      317.675   1.91618e-10
      317.773   1.89158e-10
      317.870   1.86754e-10
      317.968   1.84353e-10
      318.066   1.81984e-10
      318.164   1.79645e-10
      318.262   1.77335e-10
      318.360   1.75054e-10
      318.458   1.72802e-10
      318.556   1.70580e-10
      318.654   1.68385e-10
      318.752   1.66217e-10
      318.850   1.64077e-10
      318.948   1.61964e-10
      319.046   1.59877e-10
      319.144   1.57816e-10
      319.242   1.55782e-10
      319.341   1.53753e-10
      319.439   1.51769e-10
      319.537   1.49812e-10
      319.635   1.47879e-10
      319.734   1.45950e-10
      319.832   1.44066e-10
      319.930   1.42205e-10
      320.029   1.40350e-10
      320.127   1.38536e-10
      320.226   1.36727e-10
      320.324   1.34959e-10
      320.423   1.33195e-10
      320.522   1.31455e-10
      320.620   1.29754e-10
      320.719   1.28057e-10
      320.818   1.26382e-10
      320.916   1.24745e-10
      321.015   1.23112e-10
      321.114   1.21500e-10
      321.213   1.19908e-10
      321.311   1.18353e-10
      321.410   1.16803e-10
      321.509   1.15272e-10
      321.608   1.13761e-10
      321.707   1.12268e-10
      321.806   1.10795e-10
      321.905   1.09341e-10
      322.004   1.07905e-10
      322.103   1.06489e-10
      322.202   1.05089e-10
      322.301   1.03709e-10
      322.401   1.02332e-10
      322.500   1.00987e-10
      322.599   9.96589e-11
      322.698   9.83480e-11
      322.798   9.70407e-11
      322.897   9.57631e-11
      322.996   9.45022e-11
      323.096   9.32443e-11
      323.195   9.20154e-11
      323.294   9.08025e-11
      323.394   8.95935e-11
      323.493   8.84116e-11
      323.593   8.72333e-11
      323.692   8.60818e-11
      323.792   8.49341e-11
      323.892   8.38010e-11
      323.991   8.26931e-11
      324.091   8.15895e-11
      324.191   8.04998e-11
      324.291   7.94243e-11
      324.390   7.83739e-11
      324.490   7.73258e-11
      324.590   7.62920e-11
      324.690   7.52717e-11
      324.790   7.42643e-11
      324.890   7.32705e-11
      324.990   7.22891e-11
      325.090   7.13203e-11
      325.190   7.03647e-11
      325.290   6.94220e-11
      325.390   6.84903e-11
      325.490   6.75718e-11
      325.590   6.66654e-11
      325.690   6.57701e-11
      325.790   6.48867e-11
      325.891   6.40065e-11
      325.991   6.31463e-11
      326.091   6.22970e-11
      326.192   6.14509e-11
      326.292   6.06240e-11
      326.392   5.98082e-11
      326.493   5.89949e-11
      326.593   5.82001e-11
      326.694   5.74086e-11
      326.794   5.66346e-11
      326.895   5.58633e-11
      326.995   5.51095e-11
      327.096   5.43586e-11
      327.197   5.36175e-11
      327.297   5.28932e-11
      327.398   5.21715e-11
      327.499   5.14595e-11
      327.599   5.07635e-11
      327.700   5.00698e-11
      327.801   4.93855e-11
      327.902   4.87106e-11
      328.003   4.80442e-11
      328.104   4.73868e-11
      328.205   4.67381e-11
      328.306   4.60981e-11
      328.407   4.54667e-11
      328.508   4.48433e-11
      328.609   4.42284e-11
      328.710   4.36218e-11
      328.811   4.30233e-11
      328.912   4.24328e-11
      329.013   4.18500e-11
      329.115   4.12696e-11
      329.216   4.07024e-11
      329.317   4.01427e-11
      329.419   3.95855e-11
      329.520   3.90406e-11
      329.621   3.85029e-11
      329.723   3.79673e-11
      329.824   3.74447e-11
      329.926   3.69236e-11
      330.027   3.64144e-11
      330.129   3.59072e-11
      330.230   3.54120e-11
      330.332   3.49182e-11
      330.434   3.44314e-11
      330.535   3.39556e-11
      330.637   3.34816e-11
      330.739   3.30143e-11
      330.840   3.25577e-11
      330.942   3.21027e-11
      331.044   3.16540e-11
      331.146   3.12113e-11
      331.248   3.07747e-11
      331.350   3.03441e-11
      331.452   2.99201e-11
      331.554   2.95179e-11
      331.656   2.91460e-11
      331.758   2.87789e-11
      331.860   2.84159e-11
      331.962   2.80575e-11
      332.064   2.77035e-11
      332.166   2.73539e-11
      332.268   2.70083e-11
      332.371   2.66640e-11
      332.473   2.63268e-11
      332.575   2.59937e-11
      332.677   2.56649e-11
      332.780   2.53370e-11
      332.882   2.50161e-11
      332.985   2.46962e-11
      333.087   2.43830e-11
      333.190   2.40709e-11
      333.292   2.37583e-11
      333.395   2.34277e-11
      333.497   2.30975e-11
      333.600   2.27686e-11
      333.702   2.24474e-11
      333.805   2.21278e-11
      333.908   2.18121e-11
      334.011   2.15011e-11
      334.113   2.11974e-11
      334.216   2.08947e-11
      334.319   2.05965e-11
      334.422   2.03023e-11
      334.525   2.00122e-11
      334.628   1.97261e-11
      334.731   1.94442e-11
      334.834   1.91661e-11
      334.937   1.88919e-11
      335.040   1.86213e-11
      335.143   1.83548e-11
      335.246   1.80919e-11
      335.349   1.78326e-11
      335.452   1.75770e-11
      335.555   1.73251e-11
      335.659   1.70742e-11
      335.762   1.68291e-11
      335.865   1.65877e-11
      335.969   1.63472e-11
      336.072   1.61123e-11
      336.175   1.58809e-11
      336.279   1.56505e-11
      336.382   1.54256e-11
      336.486   1.52016e-11
      336.589   1.49828e-11
      336.693   1.47653e-11
      336.796   1.45528e-11
      336.900   1.43412e-11
      337.004   1.41326e-11
      337.107   1.39291e-11
      337.211   1.37264e-11
      337.315   1.35268e-11
      337.419   1.33298e-11
      337.523   1.31357e-11
      337.626   1.29462e-11
      337.730   1.27576e-11
      337.834   1.25717e-11
      337.938   1.23885e-11
      338.042   1.22086e-11
      338.146   1.20343e-11
      338.250   1.18627e-11
      338.354   1.16935e-11
      338.458   1.15266e-11
      338.562   1.13620e-11
      338.667   1.11983e-11
      338.771   1.10384e-11
      338.875   1.08807e-11
      338.979   1.07252e-11
      339.084   1.05705e-11
      339.188   1.04194e-11
      339.292   1.02705e-11
      339.397   1.01222e-11
      339.501   9.97750e-12
      339.606   9.83333e-12
      339.710   9.69264e-12
      339.815   9.55259e-12
      339.919   9.41590e-12
      340.024   9.27975e-12
      340.128   9.14697e-12
      340.233   9.01465e-12
      340.338   8.88436e-12
      340.442   8.75704e-12
      340.547   8.63039e-12
      340.652   8.50549e-12
      340.757   8.38242e-12
      340.862   8.26108e-12
      340.966   8.14265e-12
      341.071   8.02476e-12
      341.176   7.90857e-12
      341.281   7.79402e-12
      341.386   7.68117e-12
      341.491   7.56984e-12
      341.596   7.46021e-12
      341.702   7.35109e-12
      341.807   7.24454e-12
      341.912   7.13953e-12
      342.017   7.03603e-12
      342.122   6.93397e-12
      342.228   6.83252e-12
      342.333   6.73342e-12
      342.438   6.63575e-12
      342.544   6.53861e-12
      342.649   6.44373e-12
      342.754   6.35029e-12
      342.860   6.25725e-12
      342.965   6.16637e-12
      343.071   6.07609e-12
      343.176   5.98789e-12
      343.282   5.90011e-12
      343.388   5.81365e-12
      343.493   5.72990e-12
      343.599   5.65248e-12
      343.705   5.57667e-12
      343.810   5.50251e-12
      343.916   5.42870e-12
      344.022   5.35586e-12
      344.128   5.28399e-12
      344.234   5.21304e-12
      344.340   5.14308e-12
      344.446   5.07401e-12
      344.552   5.00587e-12
      344.658   4.93866e-12
      344.764   4.87239e-12
      344.870   4.80692e-12
      344.976   4.74238e-12
      345.082   4.67867e-12
      345.188   4.61585e-12
      345.294   4.55380e-12
      345.401   4.49205e-12
      345.507   4.43169e-12
      345.613   4.37214e-12
      345.719   4.31338e-12
      345.826   4.25487e-12
      345.932   4.19766e-12
      346.039   4.14071e-12
      346.145   4.08502e-12
      346.252   4.02959e-12
      346.358   3.97539e-12
      346.465   3.92145e-12
      346.571   3.86870e-12
      346.678   3.81616e-12
      346.785   3.76433e-12
      346.891   3.71369e-12
      346.998   3.66327e-12
      347.105   3.61351e-12
      347.212   3.56443e-12
      347.319   3.51599e-12
      347.425   3.46863e-12
      347.532   3.42149e-12
      347.639   3.37499e-12
      347.746   3.32911e-12
      347.853   3.28383e-12
      347.960   3.23918e-12
      348.067   3.19514e-12
      348.174   3.15170e-12
      348.281   3.10882e-12
      348.389   3.06614e-12
      348.496   3.02439e-12
      348.603   2.98327e-12
      348.710   2.94266e-12
      348.818   2.90223e-12
      348.925   2.86270e-12
      349.032   2.82373e-12
      349.140   2.78475e-12
      349.247   2.74664e-12
      349.355   2.70872e-12
      349.462   2.67165e-12
      349.570   2.63470e-12
      349.677   2.59863e-12
      349.785   2.56269e-12
      349.892   2.52758e-12
      350.000   2.49263e-12
      350.100   2.46070e-12
      350.193   2.43136e-12
      350.287   2.40203e-12
      350.380   2.37339e-12
      350.473   2.34507e-12
      350.567   2.31677e-12
      350.660   2.28911e-12
      350.754   2.26149e-12
      350.847   2.23450e-12
      350.941   2.20753e-12
      351.034   2.18116e-12
      351.128   2.15482e-12
      351.221   2.12908e-12
      351.315   2.10336e-12
      351.409   2.07793e-12
      351.502   2.05309e-12
      351.596   2.02828e-12
      351.690   2.00373e-12
      351.783   1.97977e-12
      351.877   1.95583e-12
      351.971   1.93216e-12
      352.065   1.90878e-12
      352.159   1.88567e-12
      352.252   1.86308e-12
      352.346   1.84051e-12
      352.440   1.81821e-12
      352.534   1.79620e-12
      352.628   1.77442e-12
      352.722   1.75290e-12
      352.816   1.73165e-12
      352.910   1.71065e-12
      353.004   1.68991e-12
      353.098   1.66940e-12
      353.192   1.64913e-12
      353.287   1.62889e-12
      353.381   1.60910e-12
      353.475   1.58956e-12
      353.569   1.57023e-12
      353.663   1.55115e-12
      353.758   1.53210e-12
      353.852   1.51347e-12
      353.946   1.49506e-12
      354.041   1.47667e-12
      354.135   1.45869e-12
      354.229   1.44093e-12
      354.324   1.42319e-12
      354.418   1.40585e-12
      354.513   1.38853e-12
      354.607   1.37161e-12
      354.702   1.35462e-12
      354.796   1.33767e-12
      354.891   1.32072e-12
      354.985   1.30416e-12
      355.080   1.28762e-12
      355.175   1.27129e-12
      355.269   1.25532e-12
      355.364   1.23939e-12
      355.459   1.22366e-12
      355.553   1.20827e-12
      355.648   1.19292e-12
      355.743   1.17776e-12
      355.838   1.16277e-12
      355.933   1.14799e-12
      356.027   1.13354e-12
      356.122   1.11910e-12
      356.217   1.10485e-12
      356.312   1.09078e-12
      356.407   1.07687e-12
      356.502   1.06315e-12
      356.597   1.04958e-12
      356.692   1.03619e-12
      356.787   1.02296e-12
      356.882   1.00989e-12
      356.977   9.96999e-13
      357.073   9.84127e-13
      357.168   9.71536e-13
      357.263   9.59110e-13
      357.358   9.46835e-13
      357.453   9.34716e-13
      357.549   9.22622e-13
      357.644   9.10802e-13
      357.739   8.99134e-13
      357.835   8.87478e-13
      357.930   8.76093e-13
      358.025   8.64849e-13
      358.121   8.53631e-13
      358.216   8.42665e-13
      358.312   8.31721e-13
      358.407   8.21031e-13
      358.503   8.10361e-13
      358.598   7.99940e-13
      358.694   7.89534e-13
      358.790   7.79257e-13
      358.885   7.69214e-13
      358.981   7.59196e-13
      359.076   7.49409e-13
      359.172   7.39645e-13
      359.268   7.29991e-13
      359.364   7.20463e-13
      359.459   7.11163e-13
      359.555   7.01875e-13
      359.651   6.92702e-13
      359.747   6.83647e-13
      359.843   6.74706e-13
      359.939   6.65876e-13
      360.035   6.57163e-13
      360.131   6.48561e-13
      360.227   6.40057e-13
      360.323   6.31670e-13
      360.419   6.23389e-13
      360.515   6.15213e-13
      360.611   6.07136e-13
      360.707   5.99155e-13
      360.803   5.91290e-13
      360.899   5.83514e-13
      360.995   5.75844e-13
      361.092   5.68190e-13
      361.188   5.60708e-13
      361.284   5.53324e-13
      361.380   5.46034e-13
      361.477   5.38761e-13
      361.573   5.31653e-13
      361.669   5.24640e-13
      361.766   5.17639e-13
      361.862   5.10804e-13
      361.959   5.03986e-13
      362.055   4.97316e-13
      362.152   4.90673e-13
      362.248   4.84179e-13
      362.345   4.77698e-13
      362.441   4.71372e-13
      362.538   4.65062e-13
      362.635   4.58832e-13
      362.731   4.52743e-13
      362.828   4.46670e-13
      362.925   4.40677e-13
      363.021   4.34821e-13
      363.118   4.28984e-13
      363.215   4.23218e-13
      363.312   4.17527e-13
      363.409   4.11912e-13
      363.505   4.06426e-13
      363.602   4.00951e-13
      363.699   3.95552e-13
      363.796   3.90221e-13
      363.893   3.84958e-13
      363.990   3.79765e-13
      364.087   3.74640e-13
      364.184   3.69581e-13
      364.281   3.64586e-13
      364.378   3.59659e-13
      364.475   3.54795e-13
      364.573   3.49944e-13
      364.670   3.45207e-13
      364.767   3.40531e-13
      364.864   3.35916e-13
      364.961   3.31362e-13
      365.059   3.26821e-13
      365.156   3.22388e-13
      365.253   3.18010e-13
      365.351   3.13646e-13
      365.448   3.09382e-13
      365.545   3.05177e-13
      365.643   3.00983e-13
      365.740   2.96885e-13
      365.838   2.92801e-13
      365.935   2.88813e-13
      366.033   2.84838e-13
      366.130   2.80952e-13
      366.228   2.77081e-13
      366.326   2.73262e-13
      366.423   2.69531e-13
      366.521   2.65813e-13
      366.618   2.62178e-13
      366.716   2.58557e-13
      366.814   2.54986e-13
      366.912   2.51462e-13
      367.010   2.47983e-13
      367.107   2.44586e-13
      367.205   2.41199e-13
      367.303   2.37859e-13
      367.401   2.34563e-13
      367.499   2.31311e-13
      367.597   2.28103e-13
      367.695   2.24938e-13
      367.793   2.21817e-13
      367.891   2.18737e-13
      367.989   2.15696e-13
      368.087   2.12698e-13
      368.185   2.09741e-13
      368.283   2.06823e-13
      368.381   2.03943e-13
      368.480   2.01075e-13
      368.578   1.98273e-13
      368.676   1.95511e-13
      368.774   1.92786e-13
      368.873   1.90070e-13
      368.971   1.87417e-13
      369.069   1.84801e-13
      369.168   1.82193e-13
      369.266   1.79647e-13
      369.364   1.77136e-13
      369.463   1.74634e-13
      369.561   1.72191e-13
      369.660   1.69757e-13
      369.758   1.67380e-13
      369.857   1.65013e-13
      369.955   1.62701e-13
      370.054   1.60397e-13
      370.153   1.58124e-13
      370.251   1.55906e-13
      370.350   1.53697e-13
      370.449   1.51518e-13
      370.547   1.49390e-13
      370.646   1.47269e-13
      370.745   1.45179e-13
      370.844   1.43118e-13
      370.943   1.41085e-13
      371.041   1.39100e-13
      371.140   1.37122e-13
      371.239   1.35171e-13
      371.338   1.33249e-13
      371.437   1.31353e-13
      371.536   1.29483e-13
      371.635   1.27639e-13
      371.734   1.25820e-13
      371.833   1.24028e-13
      371.932   1.22260e-13
      372.032   1.20499e-13
      372.131   1.18780e-13
      372.230   1.17085e-13
      372.329   1.15415e-13
      372.428   1.13767e-13
      372.528   1.12126e-13
      372.627   1.10525e-13
      372.726   1.08946e-13
      372.826   1.07374e-13
      372.925   1.05838e-13
      373.024   1.04325e-13
      373.124   1.02817e-13
      373.223   1.01346e-13
      373.323   9.98816e-14
      373.422   9.84514e-14
      373.522   9.70271e-14
      373.621   9.56380e-14
      373.721   9.42541e-14
      373.820   9.29036e-14
      373.920   9.15586e-14
      374.020   9.02317e-14
      374.119   8.89382e-14
      374.219   8.76491e-14
      374.319   8.63793e-14
      374.419   8.51281e-14
      374.518   8.39057e-14
      374.618   8.26889e-14
      374.718   8.14885e-14
      374.818   8.03068e-14
      374.918   7.91422e-14
      375.018   7.79931e-14
      375.118   7.68613e-14
      375.218   7.57447e-14
      375.318   7.46449e-14
      375.418   7.35599e-14
      375.518   7.24917e-14
      375.618   7.14387e-14
      375.718   7.04001e-14
      375.818   6.93766e-14
      375.918   6.83678e-14
      376.019   6.73642e-14
      376.119   6.63843e-14
      376.219   6.54187e-14
      376.319   6.44667e-14
      376.420   6.35196e-14
      376.520   6.25951e-14
      376.620   6.16843e-14
      376.721   6.07772e-14
      376.821   5.98924e-14
      376.922   5.90117e-14
      377.022   5.81520e-14
      377.122   5.73053e-14
      377.223   5.64623e-14
      377.323   5.56401e-14
      377.424   5.48211e-14
      377.525   5.40144e-14
      377.625   5.32273e-14
      377.726   5.24439e-14
      377.827   5.16720e-14
      377.927   5.09185e-14
      378.028   5.01691e-14
      378.129   4.94302e-14
      378.230   4.87027e-14
      378.330   4.79940e-14
      378.431   4.72889e-14
      378.532   4.65946e-14
      378.633   4.59097e-14
      378.734   4.52350e-14
      378.835   4.45702e-14
      378.936   4.39152e-14
      379.037   4.32699e-14
      379.138   4.26336e-14
      379.239   4.20067e-14
      379.340   4.13895e-14
      379.441   4.07810e-14
      379.542   4.01812e-14
      379.643   3.95905e-14
      379.745   3.90027e-14
      379.846   3.84289e-14
      379.947   3.78635e-14
      380.048   3.73068e-14
      380.150   3.67526e-14
      380.251   3.62118e-14
      380.352   3.56793e-14
      380.454   3.51494e-14
      380.555   3.46322e-14
      380.656   3.41225e-14
      380.758   3.36154e-14
      380.859   3.31208e-14
      380.961   3.26288e-14
      381.062   3.21487e-14
      381.164   3.16709e-14
      381.266   3.12002e-14
      381.367   3.07410e-14
      381.469   3.02841e-14
      381.570   2.98385e-14
      381.672   2.93951e-14
      381.774   2.89581e-14
      381.876   2.85276e-14
      381.977   2.81077e-14
      382.079   2.76899e-14
      382.181   2.72783e-14
      382.283   2.68730e-14
      382.385   2.64735e-14
      382.487   2.60797e-14
      382.589   2.56921e-14
      382.691   2.53101e-14
      382.793   2.49339e-14
      382.895   2.45632e-14
      382.997   2.41979e-14
      383.099   2.38381e-14
      383.201   2.34838e-14
      383.303   2.31345e-14
      383.405   2.27904e-14
      383.507   2.24514e-14
      383.610   2.21144e-14
      383.712   2.17854e-14
      383.814   2.14616e-14
      383.916   2.11425e-14
      384.019   2.08250e-14
      384.121   2.05152e-14
      384.223   2.02101e-14
      384.326   1.99067e-14
      384.428   1.96103e-14
      384.531   1.93155e-14
      384.633   1.90280e-14
      384.736   1.87419e-14
      384.838   1.84628e-14
      384.941   1.81852e-14
      385.043   1.79143e-14
      385.146   1.76450e-14
      385.249   1.73797e-14
      385.351   1.71208e-14
      385.454   1.68633e-14
      385.557   1.66098e-14
      385.660   1.63599e-14
      385.762   1.61163e-14
      385.865   1.58739e-14
      385.968   1.56351e-14
      386.071   1.53998e-14
      386.174   1.51681e-14
      386.277   1.49399e-14
      386.380   1.47151e-14
      386.483   1.44937e-14
      386.586   1.42757e-14
      386.689   1.40608e-14
      386.792   1.38492e-14
      386.895   1.36408e-14
      386.998   1.34354e-14
      387.101   1.32332e-14
      387.204   1.30339e-14
      387.308   1.28357e-14
      387.411   1.26424e-14
      387.514   1.24520e-14
      387.617   1.22645e-14
      387.721   1.20780e-14
      387.824   1.18961e-14
      387.927   1.17167e-14
      388.031   1.15385e-14
      388.134   1.13646e-14
      388.238   1.11918e-14
      388.341   1.10231e-14
      388.445   1.08553e-14
      388.548   1.06915e-14
      388.652   1.05288e-14
      388.755   1.03701e-14
      388.859   1.02121e-14
      388.962   1.00581e-14
      389.066   9.90483e-15
      389.170   9.75404e-15
      389.274   9.60541e-15
      389.377   9.46042e-15
      389.481   9.31614e-15
      389.585   9.17416e-15
      389.689   9.03428e-15
      389.793   8.89645e-15
      389.897   8.76083e-15
      390.000   8.62841e-15
      390.104   8.49681e-15
      390.208   8.36709e-15
      390.312   8.23940e-15
      390.416   8.11357e-15
      390.520   7.98951e-15
      390.625   7.86613e-15
      390.729   7.74591e-15
      390.833   7.62741e-15
      390.937   7.51072e-15
      391.041   7.39582e-15
      391.145   7.28265e-15
      391.250   7.17007e-15
      391.354   7.06032e-15
      391.458   6.95220e-15
      391.563   6.84465e-15
      391.667   6.73979e-15
      391.771   6.63652e-15
      391.876   6.53377e-15
      391.980   6.43357e-15
      392.085   6.33393e-15
      392.189   6.23676e-15
      392.294   6.14011e-15
      392.398   6.04587e-15
      392.503   5.95214e-15
      392.607   5.86072e-15
      392.712   5.76984e-15
      392.817   5.68027e-15
      392.921   5.59298e-15
      393.026   5.50613e-15
      393.131   5.42066e-15
      393.236   5.33639e-15
      393.340   5.25426e-15
      393.445   5.17261e-15
      393.550   5.09218e-15
      393.655   5.01296e-15
      393.760   4.93497e-15
      393.865   4.85814e-15
      393.970   4.78254e-15
      394.075   4.70802e-15
      394.180   4.63469e-15
      394.285   4.56246e-15
      394.390   4.49134e-15
      394.495   4.42125e-15
      394.600   4.35227e-15
      394.706   4.28371e-15
      394.811   4.21684e-15
      394.916   4.15093e-15
      395.021   4.08605e-15
      395.126   4.02222e-15
      395.232   3.95869e-15
      395.337   3.89675e-15
      395.443   3.83520e-15
      395.548   3.77515e-15
      395.653   3.71603e-15
      395.759   3.65723e-15
      395.864   3.59991e-15
      395.970   3.54293e-15
      396.075   3.48734e-15
      396.181   3.43208e-15
      396.286   3.37816e-15
      396.392   3.32462e-15
      396.498   3.27189e-15
      396.603   3.22041e-15
      396.709   3.16928e-15
      396.815   3.11892e-15
      396.921   3.06932e-15
      397.026   3.02100e-15
      397.132   2.97293e-15
      397.238   2.92564e-15
      397.344   2.87902e-15
      397.450   2.83322e-15
      397.556   2.78804e-15
      397.662   2.74358e-15
      397.768   2.69984e-15
      397.874   2.65675e-15
      397.980   2.61433e-15
      398.086   2.57255e-15
      398.192   2.53145e-15
      398.298   2.49097e-15
      398.404   2.45112e-15
      398.510   2.41187e-15
      398.617   2.37292e-15
      398.723   2.33489e-15
      398.829   2.29745e-15
      398.935   2.26059e-15
      399.042   2.22399e-15
      399.148   2.18827e-15
      399.255   2.15280e-15
      399.361   2.11821e-15
      399.467   2.08412e-15
      399.574   2.05029e-15
      399.680   2.01728e-15
      399.787   1.98447e-15
      399.893       0.00000
      400.000       0.00000
