Filter Al-poly
observation_date 22-Sept-2010 22:40:45
wavelength effective area 
      1.00000   2.78459e-10
      1.10000   7.94919e-10
      1.20000   2.06649e-09
      1.30000   4.94138e-09
      1.40000   1.12123e-08
      1.50000   2.39202e-08
      1.60000   4.84238e-08
      1.70000   9.40082e-08
      1.80000   1.75018e-07
      1.90000   3.14563e-07
      2.00000   5.46870e-07
      2.10000   9.23701e-07
      2.20000   1.52311e-06
      2.30000   2.44845e-06
      2.40000   3.84402e-06
      2.50000   5.87481e-06
      2.60000   8.96575e-06
      2.70000   1.33675e-05
      2.80000   1.95493e-05
      2.90000   2.82964e-05
      3.00000   4.03184e-05
      3.10000   5.67101e-05
      3.20000   7.88962e-05
      3.30000   0.000108647
      3.40000   0.000148059
      3.50000   0.000199817
      3.60000   0.000268433
      3.70000   0.000356787
      3.80000   0.000472265
      3.90000   0.000621661
      4.00000   0.000813240
      4.10000    0.00105895
      4.20000    0.00137399
      4.30000    0.00177773
      4.40000    0.00229403
      4.50000    0.00295221
      4.60000    0.00378655
      4.70000    0.00485666
      4.80000    0.00622298
      4.90000    0.00787133
      5.00000     0.0102188
      5.10000     0.0130796
      5.20000     0.0167915
      5.30000     0.0213750
      5.40000     0.0271669
      5.50000     0.0345897
      5.60000     0.0426910
      5.70000     0.0555113
      5.80000     0.0651027
      5.90000     0.0994401
      6.00000      0.133727
      6.10000      0.170990
      6.20000      0.210086
      6.30000      0.247426
      6.40000      0.279525
      6.50000      0.303234
      6.60000      0.314077
      6.70000      0.324088
      6.80000      0.324737
      6.90000      0.426329
      7.00000      0.463970
      7.10000      0.491074
      7.20000      0.512749
      7.30000      0.530593
      7.40000      0.544377
      7.50000      0.555494
      7.60000      0.564051
      7.70000      0.568549
      7.80000      0.567866
      7.90000      0.567881
      8.00000      0.958659
      8.10000       1.05503
      8.20000       1.07809
      8.30000       1.09651
      8.40000       1.11090
      8.50000       1.12372
      8.60000       1.13463
      8.70000       1.14434
      8.80000       1.15248
      8.90000       1.15958
      9.00000       1.16555
      9.10000       1.17044
      9.20000       1.17444
      9.30000       1.17745
      9.40000       1.17963
      9.50000       1.18102
      9.60000       1.18157
      9.70000       1.18138
      9.80000       1.18059
      9.90000       1.17922
      10.0000       1.17733
      10.1000       1.17494
      10.2000       1.17208
      10.3000       1.16867
      10.4000       1.16475
      10.5000       1.16034
      10.6000       1.15548
      10.7000       1.15020
      10.8000       1.14449
      10.9000       1.13838
      11.0000       1.13189
      11.1000       1.12505
      11.2000       1.11786
      11.3000       1.11035
      11.4000       1.10252
      11.5000       1.09434
      11.6000       1.08583
      11.7000       1.07690
      11.8000       1.06766
      11.9000       1.05792
      12.0000       1.04656
      12.1000       1.03887
      12.2000       1.04932
      12.3000       1.04879
      12.4000       1.04048
      12.5000       1.03136
      12.6000       1.02182
      12.7000       1.01203
      12.8000       1.00204
      12.9000      0.991860
      13.0000      0.981550
      13.1000      0.971145
      13.2000      0.960670
      13.3000      0.950143
      13.4000      0.939593
      13.5000      0.929177
      13.6000      0.918866
      13.7000      0.908553
      13.8000      0.898225
      13.9000      0.887922
      14.0000      0.877638
      14.1000      0.867345
      14.2000      0.857045
      14.3000      0.846727
      14.4000      0.836362
      14.5000      0.825962
      14.6000      0.815511
      14.7000      0.805020
      14.8000      0.794500
      14.9000      0.783956
      15.0000      0.773401
      15.1000      0.762861
      15.2000      0.752334
      15.3000      0.741829
      15.4000      0.731347
      15.5000      0.720898
      15.6000      0.710529
      15.7000      0.700197
      15.8000      0.689957
      15.9000      0.679805
      16.0000      0.669735
      16.1000      0.659759
      16.2000      0.649898
      16.3000      0.640100
      16.4000      0.630369
      16.5000      0.620700
      16.6000      0.611084
      16.7000      0.601520
      16.8000      0.592010
      16.9000      0.582555
      17.0000      0.573156
      17.1000      0.563811
      17.2000      0.554514
      17.3000      0.545277
      17.4000      0.536240
      17.5000      0.527427
      17.6000      0.518781
      17.7000      0.510368
      17.8000      0.502314
      17.9000      0.494339
      18.0000      0.486372
      18.1000      0.478445
      18.2000      0.470502
      18.3000      0.462515
      18.4000      0.454434
      18.5000      0.446290
      18.6000      0.438074
      18.7000      0.429716
      18.8000      0.421415
      18.9000      0.413175
      19.0000      0.404994
      19.1000      0.396912
      19.2000      0.388920
      19.3000      0.381042
      19.4000      0.373284
      19.5000      0.365632
      19.6000      0.358147
      19.7000      0.350762
      19.8000      0.343471
      19.9000      0.336316
      20.0000      0.329237
      20.1000      0.322240
      20.2000      0.315306
      20.3000      0.308434
      20.4000      0.301649
      20.5000      0.294912
      20.6000      0.288223
      20.7000      0.281609
      20.8000      0.275045
      20.9000      0.268518
      21.0000      0.262054
      21.1000      0.255659
      21.2000      0.249258
      21.3000      0.242904
      21.4000      0.236618
      21.5000      0.230326
      21.6000      0.224023
      21.7000      0.217721
      21.8000      0.211446
      21.9000      0.204928
      22.0000      0.198387
      22.1000      0.191713
      22.2000      0.184619
      22.3000      0.177174
      22.4000      0.166868
      22.5000      0.155739
      22.6000      0.132782
      22.7000      0.121092
      22.8000      0.164230
      22.9000      0.218237
      23.0000      0.278718
      23.1000      0.317835
      23.2000      0.336155
      23.3000      0.340393
      23.4000      0.337345
      23.5000      0.333838
      23.6000      0.330235
      23.7000      0.325720
      23.8000      0.321155
      23.9000      0.316461
      24.0000      0.311759
      24.1000      0.306831
      24.2000      0.301926
      24.3000      0.297008
      24.4000      0.292099
      24.5000      0.287152
      24.6000      0.282239
      24.7000      0.277362
      24.8000      0.272514
      24.9000      0.267693
      25.0000      0.262915
      25.1000      0.258186
      25.2000      0.253497
      25.3000      0.248851
      25.4000      0.244254
      25.5000      0.239719
      25.6000      0.235241
      25.7000      0.230833
      25.8000      0.226470
      25.9000      0.222174
      26.0000      0.217917
      26.1000      0.213719
      26.2000      0.209559
      26.3000      0.205474
      26.4000      0.201422
      26.5000      0.197434
      26.6000      0.193479
      26.7000      0.189599
      26.8000      0.185765
      26.9000      0.181980
      27.0000      0.178230
      27.1000      0.174498
      27.2000      0.170790
      27.3000      0.167505
      27.4000      0.164732
      27.5000      0.161847
      27.6000      0.158606
      27.7000      0.155387
      27.8000      0.152136
      27.9000      0.148912
      28.0000      0.145762
      28.1000      0.142647
      28.2000      0.139600
      28.3000      0.136606
      28.4000      0.133658
      28.5000      0.130777
      28.6000      0.127927
      28.7000      0.125196
      28.8000      0.122488
      28.9000      0.119843
      29.0000      0.117234
      29.1000      0.114670
      29.2000      0.112154
      29.3000      0.109668
      29.4000      0.107248
      29.5000      0.104850
      29.6000      0.102511
      29.7000      0.100205
      29.8000     0.0979402
      29.9000     0.0957246
      30.0000     0.0935315
      30.1000     0.0914036
      30.2000     0.0892955
      30.3000     0.0907660
      30.4000     0.0942452
      30.5000     0.0964993
      30.6000     0.0943554
      30.7000     0.0922318
      30.8000     0.0901633
      30.9000     0.0881249
      31.0000     0.0861196
      31.1000     0.0841641
      31.2000     0.0822275
      31.3000     0.0803457
      31.4000     0.0784899
      31.5000     0.0766660
      31.6000     0.0748888
      31.7000     0.0731290
      31.8000     0.0714205
      31.9000     0.0697374
      32.0000     0.0680816
      32.1000     0.0664731
      32.2000     0.0648807
      32.3000     0.0633331
      32.4000     0.0618138
      32.5000     0.0603174
      32.6000     0.0588968
      32.7000     0.0574943
      32.8000     0.0561255
      32.9000     0.0547872
      33.0000     0.0534624
      33.1000     0.0522200
      33.2000     0.0510035
      33.3000     0.0498090
      33.4000     0.0486477
      33.5000     0.0474987
      33.6000     0.0463802
      33.7000     0.0452864
      33.8000     0.0442033
      33.9000     0.0431585
      34.0000     0.0421277
      34.1000     0.0411175
      34.2000     0.0401352
      34.3000     0.0391625
      34.4000     0.0382121
      34.5000     0.0372873
      34.6000     0.0363716
      34.7000     0.0354660
      34.8000     0.0345699
      34.9000     0.0336828
      35.0000     0.0328310
      35.1000     0.0319905
      35.2000     0.0311615
      35.3000     0.0303657
      35.4000     0.0295780
      35.5000     0.0288061
      35.6000     0.0280614
      35.7000     0.0273242
      35.8000     0.0266061
      35.9000     0.0259097
      36.0000     0.0252205
      36.1000     0.0245529
      36.2000     0.0239027
      36.3000     0.0232591
      36.4000     0.0226387
      36.5000     0.0220320
      36.6000     0.0214317
      36.7000     0.0208555
      36.8000     0.0202903
      36.9000     0.0197311
      37.0000     0.0191961
      37.1000     0.0186702
      37.2000     0.0181499
      37.3000     0.0176535
      37.4000     0.0171648
      37.5000     0.0166814
      37.6000     0.0162209
      37.7000     0.0157672
      37.8000     0.0153186
      37.9000     0.0148915
      38.0000     0.0144711
      38.1000     0.0140553
      38.2000     0.0136594
      38.3000     0.0132702
      38.4000     0.0128853
      38.5000     0.0125182
      38.6000     0.0121584
      38.7000     0.0118025
      38.8000     0.0114622
      38.9000     0.0111299
      39.0000     0.0108014
      39.1000     0.0104860
      39.2000     0.0101797
      39.3000    0.00987689
      39.4000    0.00958447
      39.5000    0.00930244
      39.6000    0.00902361
      39.7000    0.00875251
      39.8000    0.00849333
      39.9000    0.00823710
      40.0000    0.00798582
      40.1000    0.00774787
      40.2000    0.00751265
      40.3000    0.00728016
      40.4000    0.00706149
      40.5000    0.00684589
      40.6000    0.00663277
      40.7000    0.00643004
      40.8000    0.00623264
      40.9000    0.00603755
      41.0000    0.00584950
      41.1000    0.00566902
      41.2000    0.00549068
      41.3000    0.00531632
      41.4000    0.00515187
      41.5000    0.00498935
      41.6000    0.00482876
      41.7000    0.00467776
      41.8000    0.00452964
      41.9000    0.00438330
      42.0000    0.00424327
      42.1000    0.00410867
      42.2000    0.00397567
      42.3000    0.00384561
      42.4000    0.00372334
      42.5000    0.00360254
      42.6000    0.00348319
      42.7000    0.00337079
      42.8000    0.00326122
      42.9000    0.00315296
      43.0000    0.00304846
      43.1000    0.00294927
      43.2000    0.00285130
      43.3000    0.00275453
      43.4000    0.00871924
      43.5000     0.0193019
      43.6000     0.0383427
      43.7000     0.0615451
      43.8000     0.0761890
      43.9000     0.0785728
      44.0000     0.0764905
      44.1000     0.0702319
      44.2000     0.0686301
      44.3000     0.0674355
      44.4000     0.0662646
      44.5000     0.0651239
      44.6000     0.0639867
      44.7000     0.0628530
      44.8000     0.0617623
      44.9000     0.0606806
      45.0000     0.0596023
      45.1000     0.0585402
      45.2000     0.0575126
      45.3000     0.0564882
      45.4000     0.0554669
      45.5000     0.0544777
      45.6000     0.0535052
      45.7000     0.0525358
      45.8000     0.0515709
      45.9000     0.0506492
      46.0000     0.0497302
      46.1000     0.0488141
      46.2000     0.0479563
      46.3000     0.0471966
      46.4000     0.0464393
      46.5000     0.0456843
      46.6000     0.0449662
      46.7000     0.0442676
      46.8000     0.0435711
      46.9000     0.0428768
      47.0000     0.0422315
      47.1000     0.0415915
      47.2000     0.0409534
      47.3000     0.0403224
      47.4000     0.0397174
      47.5000     0.0391144
      47.6000     0.0385132
      47.7000     0.0379227
      47.8000     0.0373482
      47.9000     0.0367754
      48.0000     0.0362045
      48.1000     0.0356481
      48.2000     0.0351032
      48.3000     0.0345600
      48.4000     0.0340185
      48.5000     0.0334939
      48.6000     0.0329769
      48.7000     0.0324616
      48.8000     0.0319477
      48.9000     0.0314532
      49.0000     0.0309636
      49.1000     0.0304756
      49.2000     0.0299891
      49.3000     0.0295228
      49.4000     0.0290595
      49.5000     0.0285977
      49.6000     0.0281372
      49.7000     0.0276973
      49.8000     0.0272591
      49.9000     0.0268222
      50.0000     0.0263872
      50.1000     0.0259678
      50.2000     0.0255599
      50.3000     0.0251569
      50.4000     0.0247598
      50.5000     0.0243687
      50.6000     0.0239832
      50.7000     0.0236032
      50.8000     0.0232278
      50.9000     0.0228583
      51.0000     0.0224949
      51.1000     0.0221372
      51.2000     0.0217844
      51.3000     0.0214365
      51.4000     0.0210943
      51.5000     0.0207568
      51.6000     0.0204238
      51.7000     0.0200951
      51.8000     0.0197691
      51.9000     0.0194477
      52.0000     0.0191311
      52.1000     0.0188195
      52.2000     0.0185119
      52.3000     0.0182082
      52.4000     0.0179099
      52.5000     0.0176159
      52.6000     0.0173256
      52.7000     0.0170389
      52.8000     0.0167563
      52.9000     0.0164781
      53.0000     0.0162044
      53.1000     0.0159345
      53.2000     0.0156689
      53.3000     0.0154070
      53.4000     0.0151491
      53.5000     0.0148951
      53.6000     0.0146444
      53.7000     0.0143974
      53.8000     0.0141544
      53.9000     0.0139149
      54.0000     0.0136795
      54.1000     0.0134482
      54.2000     0.0132198
      54.3000     0.0129944
      54.4000     0.0127727
      54.5000     0.0125545
      54.6000     0.0123396
      54.7000     0.0121282
      54.8000     0.0119200
      54.9000     0.0117150
      55.0000     0.0115132
      55.1000     0.0113144
      55.2000     0.0111089
      55.3000     0.0108977
      55.4000     0.0106898
      55.5000     0.0104852
      55.6000     0.0102844
      55.7000     0.0100870
      55.8000    0.00989285
      55.9000    0.00970212
      56.0000    0.00951592
      56.1000    0.00932932
      56.2000    0.00914290
      56.3000    0.00896014
      56.4000    0.00878049
      56.5000    0.00860377
      56.6000    0.00843011
      56.7000    0.00825977
      56.8000    0.00809241
      56.9000    0.00792833
      57.0000    0.00776755
      57.1000    0.00760968
      57.2000    0.00745435
      57.3000    0.00730155
      57.4000    0.00715179
      57.5000    0.00700491
      57.6000    0.00686065
      57.7000    0.00671892
      57.8000    0.00658005
      57.9000    0.00644373
      58.0000    0.00630990
      58.1000    0.00617846
      58.2000    0.00604974
      58.3000    0.00592343
      58.4000    0.00579933
      58.5000    0.00567743
      58.6000    0.00555797
      58.7000    0.00544092
      58.8000    0.00532608
      58.9000    0.00521332
      59.0000    0.00510260
      59.1000    0.00499406
      59.2000    0.00488753
      59.3000    0.00478308
      59.4000    0.00468076
      59.5000    0.00458059
      59.6000    0.00448231
      59.7000    0.00438575
      59.8000    0.00429095
      59.9000    0.00419800
      60.0000    0.00410709
      60.1000    0.00401796
      60.2000    0.00393057
      60.3000    0.00384486
      60.4000    0.00376079
      60.5000    0.00367852
      60.6000    0.00359781
      60.7000    0.00351863
      60.8000    0.00344101
      60.9000    0.00336488
      61.0000    0.00329031
      61.1000    0.00321724
      61.2000    0.00314565
      61.3000    0.00307554
      61.4000    0.00300686
      61.5000    0.00293955
      61.6000    0.00287362
      61.7000    0.00280901
      61.8000    0.00274606
      61.9000    0.00268454
      62.0000    0.00262429
      62.1000    0.00256531
      62.2000    0.00250766
      62.3000    0.00245116
      62.4000    0.00239577
      62.5000    0.00234148
      62.6000    0.00228827
      62.7000    0.00223615
      62.8000    0.00218531
      62.9000    0.00213557
      63.0000    0.00208689
      63.1000    0.00203922
      63.2000    0.00199252
      63.3000    0.00194676
      63.4000    0.00190193
      63.5000    0.00185810
      63.6000    0.00181521
      63.7000    0.00177324
      63.8000    0.00173217
      63.9000    0.00169199
      64.0000    0.00165266
      64.1000    0.00161416
      64.2000    0.00157651
      64.3000    0.00153968
      64.4000    0.00150364
      64.5000    0.00146838
      64.6000    0.00143387
      64.7000    0.00140007
      64.8000    0.00136699
      64.9000    0.00133461
      65.0000    0.00130295
      65.1000    0.00127204
      65.2000    0.00124183
      65.3000    0.00121228
      65.4000    0.00118337
      65.5000    0.00115506
      65.6000    0.00112734
      65.7000    0.00110024
      65.8000    0.00107375
      65.9000    0.00104788
      66.0000    0.00102261
      66.1000   0.000997954
      66.2000   0.000973844
      66.3000   0.000950256
      66.4000   0.000927168
      66.5000   0.000904581
      66.6000   0.000882497
      66.7000   0.000860925
      66.8000   0.000839863
      66.9000   0.000819402
      67.0000   0.000799519
      67.1000   0.000780090
      67.2000   0.000761093
      67.3000   0.000742537
      67.4000   0.000724396
      67.5000   0.000706673
      67.6000   0.000689358
      67.7000   0.000672440
      67.8000   0.000655883
      67.9000   0.000639663
      68.0000   0.000623872
      68.1000   0.000608517
      68.2000   0.000593508
      68.3000   0.000578856
      68.4000   0.000564553
      68.5000   0.000550588
      68.6000   0.000536942
      68.7000   0.000523603
      68.8000   0.000510562
      68.9000   0.000497952
      69.0000   0.000486401
      69.1000   0.000476601
      69.2000   0.000467832
      69.3000   0.000459312
      69.4000   0.000451117
      69.5000   0.000442859
      69.6000   0.000434462
      69.7000   0.000426380
      69.8000   0.000418653
      69.9000   0.000411067
      70.0000   0.000403605
      70.1000   0.000396166
      70.2000   0.000389353
      70.3000   0.000383151
      70.4000   0.000377022
      70.5000   0.000371048
      70.6000   0.000365216
      70.7000   0.000359472
      70.8000   0.000353808
      70.9000   0.000348070
      71.0000   0.000342275
      71.1000   0.000336738
      71.2000   0.000331449
      71.3000   0.000325930
      71.4000   0.000320119
      71.5000   0.000314716
      71.6000   0.000309890
      71.7000   0.000305060
      71.8000   0.000300126
      71.9000   0.000295364
      72.0000   0.000290924
      72.1000   0.000286433
      72.2000   0.000281429
      72.3000   0.000276526
      72.4000   0.000272150
      72.5000   0.000267847
      72.6000   0.000263605
      72.7000   0.000259428
      72.8000   0.000255315
      72.9000   0.000251270
      73.0000   0.000247370
      73.1000   0.000243571
      73.2000   0.000239831
      73.3000   0.000236150
      73.4000   0.000232553
      73.5000   0.000229057
      73.6000   0.000225612
      73.7000   0.000222216
      73.8000   0.000218868
      73.9000   0.000215569
      74.0000   0.000212336
      74.1000   0.000209363
      74.2000   0.000206496
      74.3000   0.000203461
      74.4000   0.000200313
      74.5000   0.000197254
      74.6000   0.000194331
      74.7000   0.000191448
      74.8000   0.000188604
      74.9000   0.000185798
      75.0000   0.000183012
      75.1000   0.000180260
      75.2000   0.000177549
      75.3000   0.000174878
      75.4000   0.000172268
      75.5000   0.000169740
      75.6000   0.000167247
      75.7000   0.000164790
      75.8000   0.000162368
      75.9000   0.000160002
      76.0000   0.000157680
      76.1000   0.000155394
      76.2000   0.000153141
      76.3000   0.000150926
      76.4000   0.000148774
      76.5000   0.000146655
      76.6000   0.000144563
      76.7000   0.000142496
      76.8000   0.000140455
      76.9000   0.000138441
      77.0000   0.000136454
      77.1000   0.000134497
      77.2000   0.000132569
      77.3000   0.000130670
      77.4000   0.000128800
      77.5000   0.000126955
      77.6000   0.000125107
      77.7000   0.000123283
      77.8000   0.000121482
      77.9000   0.000119702
      78.0000   0.000117928
      78.1000   0.000116127
      78.2000   0.000114355
      78.3000   0.000112721
      78.4000   0.000111151
      78.5000   0.000109593
      78.6000   0.000108024
      78.7000   0.000106478
      78.8000   0.000104910
      78.9000   0.000103352
      79.0000   0.000101814
      79.1000   0.000100297
      79.2000   9.88026e-05
      79.3000   9.73635e-05
      79.4000   9.59575e-05
      79.5000   9.45621e-05
      79.6000   9.31530e-05
      79.7000   9.17635e-05
      79.8000   9.03773e-05
      79.9000   8.90028e-05
      80.0000   8.76440e-05
      80.1000   8.62651e-05
      80.2000   8.49028e-05
      80.3000   8.35182e-05
      80.4000   8.21159e-05
      80.5000   8.07343e-05
      80.6000   7.93761e-05
      80.7000   7.80403e-05
      80.8000   7.67322e-05
      80.9000   7.54595e-05
      81.0000   7.42069e-05
      81.1000   7.29759e-05
      81.2000   7.17653e-05
      81.3000   7.05749e-05
      81.4000   6.94732e-05
      81.5000   6.83920e-05
      81.6000   6.73470e-05
      81.7000   6.63598e-05
      81.8000   6.53900e-05
      81.9000   6.44629e-05
      82.0000   6.35638e-05
      82.1000   6.26788e-05
      82.2000   6.17835e-05
      82.3000   6.09025e-05
      82.4000   6.00688e-05
      82.5000   5.93180e-05
      82.6000   5.85748e-05
      82.7000   5.78227e-05
      82.8000   5.70587e-05
      82.9000   5.63031e-05
      83.0000   5.55638e-05
      83.1000   5.48372e-05
      83.2000   5.41205e-05
      83.3000   5.34133e-05
      83.4000   5.27160e-05
      83.5000   5.20297e-05
      83.6000   5.13653e-05
      83.7000   5.07088e-05
      83.8000   5.00564e-05
      83.9000   4.94032e-05
      84.0000   4.87578e-05
      84.1000   4.81286e-05
      84.2000   4.75194e-05
      84.3000   4.69176e-05
      84.4000   4.63172e-05
      84.5000   4.57200e-05
      84.6000   4.51304e-05
      84.7000   4.45570e-05
      84.8000   4.39957e-05
      84.9000   4.34416e-05
      85.0000   4.28819e-05
      85.1000   4.23254e-05
      85.2000   4.17763e-05
      85.3000   4.12529e-05
      85.4000   4.07392e-05
      85.5000   4.02323e-05
      85.6000   3.97225e-05
      85.7000   3.92184e-05
      85.8000   3.87201e-05
      85.9000   3.82276e-05
      86.0000   3.77409e-05
      86.1000   3.72605e-05
      86.2000   3.67977e-05
      86.3000   3.63404e-05
      86.4000   3.58882e-05
      86.5000   3.54410e-05
      86.6000   3.49990e-05
      86.7000   3.45623e-05
      86.8000   3.41047e-05
      86.9000   3.36521e-05
      87.0000   3.32057e-05
      87.1000   3.27708e-05
      87.2000   3.23421e-05
      87.3000   3.19192e-05
      87.4000   3.14928e-05
      87.5000   3.10701e-05
      87.6000   3.06524e-05
      87.7000   3.02452e-05
      87.8000   2.98442e-05
      87.9000   2.94476e-05
      88.0000   2.90558e-05
      88.1000   2.86685e-05
      88.2000   2.82864e-05
      88.3000   2.79159e-05
      88.4000   2.75565e-05
      88.5000   2.72028e-05
      88.6000   2.68514e-05
      88.7000   2.65009e-05
      88.8000   2.61552e-05
      88.9000   2.58135e-05
      89.0000   2.54753e-05
      89.1000   2.51416e-05
      89.2000   2.48116e-05
      89.3000   2.44847e-05
      89.4000   2.41607e-05
      89.5000   2.38406e-05
      89.6000   2.35245e-05
      89.7000   2.32120e-05
      89.8000   2.29032e-05
      89.9000   2.25980e-05
      90.0000   2.22968e-05
      90.1000   2.19999e-05
      90.2000   2.17016e-05
      90.3000   2.13952e-05
      90.4000   2.10929e-05
      90.5000   2.07951e-05
      90.6000   2.05058e-05
      90.7000   2.02151e-05
      90.8000   1.99222e-05
      90.9000   1.96264e-05
      91.0000   1.93332e-05
      91.1000   1.90441e-05
      91.2000   1.87559e-05
      91.3000   1.84668e-05
      91.4000   1.81814e-05
      91.5000   1.79007e-05
      91.6000   1.76244e-05
      91.7000   1.73706e-05
      91.8000   1.71489e-05
      91.9000   1.69637e-05
      92.0000   1.67600e-05
      92.1000   1.65543e-05
      92.2000   1.63396e-05
      92.3000   1.61173e-05
      92.4000   1.58922e-05
      92.5000   1.56703e-05
      92.6000   1.54512e-05
      92.7000   1.52349e-05
      92.8000   1.50214e-05
      92.9000   1.48129e-05
      93.0000   1.46120e-05
      93.1000   1.44136e-05
      93.2000   1.42181e-05
      93.3000   1.40310e-05
      93.4000   1.38487e-05
      93.5000   1.36686e-05
      93.6000   1.34903e-05
      93.7000   1.33135e-05
      93.8000   1.31379e-05
      93.9000   1.29644e-05
      94.0000   1.27927e-05
      94.1000   1.26228e-05
      94.2000   1.24552e-05
      94.3000   1.22908e-05
      94.4000   1.21320e-05
      94.5000   1.19755e-05
      94.6000   1.18211e-05
      94.7000   1.16692e-05
      94.8000   1.15192e-05
      94.9000   1.13712e-05
      95.0000   1.12252e-05
      95.1000   1.10815e-05
      95.2000   1.09392e-05
      95.3000   1.07984e-05
      95.4000   1.06595e-05
      95.5000   1.05240e-05
      95.6000   1.03899e-05
      95.7000   1.02571e-05
      95.8000   1.01245e-05
      95.9000   9.99300e-06
      96.0000   9.86296e-06
      96.1000   9.73434e-06
      96.2000   9.60716e-06
      96.3000   9.48205e-06
      96.4000   9.35856e-06
      96.5000   9.23670e-06
      96.6000   9.11680e-06
      96.7000   8.99898e-06
      96.8000   8.88241e-06
      96.9000   8.76713e-06
      97.0000   8.65324e-06
      97.1000   8.54115e-06
      97.2000   8.43017e-06
      97.3000   8.31912e-06
      97.4000   8.20827e-06
      97.5000   8.09904e-06
      97.6000   7.99112e-06
      97.7000   7.88504e-06
      97.8000   7.78067e-06
      97.9000   7.67789e-06
      98.0000   7.57634e-06
      98.1000   7.47600e-06
      98.2000   7.37709e-06
      98.3000   7.29049e-06
      98.4000   7.21025e-06
      98.5000   7.13451e-06
      98.6000   7.05966e-06
      98.7000   6.98556e-06
      98.8000   6.91210e-06
      98.9000   6.83928e-06
      99.0000   6.76733e-06
      99.1000   6.69599e-06
      99.2000   6.62484e-06
      99.3000   6.55230e-06
      99.4000   6.48056e-06
      99.5000   6.40955e-06
      99.6000   6.33974e-06
      99.7000   6.27373e-06
      99.8000   6.21105e-06
      99.9000   6.17214e-06
      100.000   6.16937e-06
      100.100   6.16451e-06
      100.200   6.15960e-06
      100.300   6.15464e-06
      100.400   6.14964e-06
      100.500   6.14543e-06
      100.600   6.14101e-06
      100.700   6.13649e-06
      100.800   6.13179e-06
      100.900   6.12694e-06
      101.000   6.12194e-06
      101.100   6.11681e-06
      101.200   6.11160e-06
      101.300   6.10634e-06
      101.400   6.10106e-06
      101.500   6.09579e-06
      101.600   6.09056e-06
      101.700   6.08597e-06
      101.800   6.08162e-06
      101.900   6.07728e-06
      102.000   6.07306e-06
      102.100   6.06975e-06
      102.200   6.06688e-06
      102.300   6.06390e-06
      102.400   6.06087e-06
      102.500   6.05772e-06
      102.600   6.05442e-06
      102.700   6.05098e-06
      102.800   6.04739e-06
      102.900   6.04366e-06
      103.000   6.03979e-06
      103.100   6.03580e-06
      103.200   6.03172e-06
      103.300   6.02756e-06
      103.400   6.02331e-06
      103.500   6.01903e-06
      103.600   6.01471e-06
      103.700   6.01029e-06
      103.800   6.00443e-06
      103.900   5.99686e-06
      104.000   5.98919e-06
      104.100   5.98157e-06
      104.200   5.97462e-06
      104.300   5.97202e-06
      104.400   5.96951e-06
      104.500   5.96696e-06
      104.600   5.96428e-06
      104.700   5.96011e-06
      104.800   5.95527e-06
      104.900   5.95031e-06
      105.000   5.94530e-06
      105.100   5.94118e-06
      105.200   5.93946e-06
      105.300   5.93772e-06
      105.400   5.93587e-06
      105.500   5.93393e-06
      105.600   5.93250e-06
      105.700   5.93114e-06
      105.800   5.92971e-06
      105.900   5.92827e-06
      106.000   5.92768e-06
      106.100   5.92889e-06
      106.200   5.93020e-06
      106.300   5.93145e-06
      106.400   5.93262e-06
      106.500   5.93372e-06
      106.600   5.93476e-06
      106.700   5.93572e-06
      106.800   5.93662e-06
      106.900   5.93749e-06
      107.000   5.93830e-06
      107.100   5.93905e-06
      107.200   5.93976e-06
      107.300   5.94040e-06
      107.400   5.94086e-06
      107.500   5.94119e-06
      107.600   5.94145e-06
      107.700   5.94166e-06
      107.800   5.94185e-06
      107.900   5.94159e-06
      108.000   5.94128e-06
      108.100   5.94091e-06
      108.200   5.94045e-06
      108.300   5.93987e-06
      108.400   5.93872e-06
      108.500   5.93748e-06
      108.600   5.93616e-06
      108.700   5.93471e-06
      108.800   5.93170e-06
      108.900   5.92647e-06
      109.000   5.92111e-06
      109.100   5.91563e-06
      109.200   5.91008e-06
      109.300   5.90449e-06
      109.400   5.89883e-06
      109.500   5.89312e-06
      109.600   5.88737e-06
      109.700   5.88156e-06
      109.800   5.87571e-06
      109.900   5.86984e-06
      110.000   5.86395e-06
      110.100   5.85805e-06
      110.200   5.85209e-06
      110.300   5.84705e-06
      110.400   5.84207e-06
      110.500   5.83707e-06
      110.600   5.83202e-06
      110.700   5.82691e-06
      110.800   5.82174e-06
      110.900   5.81649e-06
      111.000   5.81115e-06
      111.100   5.80573e-06
      111.200   5.80031e-06
      111.300   5.79678e-06
      111.400   5.79319e-06
      111.500   5.78944e-06
      111.600   5.78558e-06
      111.700   5.78171e-06
      111.800   5.77903e-06
      111.900   5.77631e-06
      112.000   5.77352e-06
      112.100   5.77064e-06
      112.200   5.76771e-06
      112.300   5.76343e-06
      112.400   5.75908e-06
      112.500   5.75472e-06
      112.600   5.75035e-06
      112.700   5.74621e-06
      112.800   5.74334e-06
      112.900   5.73733e-06
      113.000   5.73239e-06
      113.100   5.72790e-06
      113.200   5.72275e-06
      113.300   5.71825e-06
      113.400   5.70639e-06
      113.500   5.69263e-06
      113.600   5.68512e-06
      113.700   5.67554e-06
      113.800   5.66152e-06
      113.900   5.65368e-06
      114.000   5.64569e-06
      114.100   5.63307e-06
      114.200   5.62263e-06
      114.300   5.61574e-06
      114.400   5.60781e-06
      114.500   5.59881e-06
      114.600   5.59453e-06
      114.700   5.58659e-06
      114.800   5.58105e-06
      114.900   5.58112e-06
      115.000   5.57707e-06
      115.100   5.57055e-06
      115.200   5.56372e-06
      115.300   5.56204e-06
      115.400   5.55536e-06
      115.500   5.55109e-06
      115.600   5.54467e-06
      115.700   5.53503e-06
      115.800   5.52955e-06
      115.900   5.52176e-06
      116.000   5.51758e-06
      116.100   5.51901e-06
      116.200   5.51989e-06
      116.300   5.51961e-06
      116.400   5.51735e-06
      116.500   5.51912e-06
      116.600   5.51949e-06
      116.700   5.52081e-06
      116.800   5.52083e-06
      116.900   5.51567e-06
      117.000   5.51621e-06
      117.100   5.53337e-06
      117.200   5.56235e-06
      117.300   5.57983e-06
      117.400   5.59658e-06
      117.500   5.61355e-06
      117.600   5.62370e-06
      117.700   5.63115e-06
      117.800   5.63498e-06
      117.900   5.63692e-06
      118.000   5.63533e-06
      118.100   5.63032e-06
      118.200   5.62790e-06
      118.300   5.62654e-06
      118.400   5.61176e-06
      118.500   5.59794e-06
      118.600   5.59017e-06
      118.700   5.58011e-06
      118.800   5.56693e-06
      118.900   5.55569e-06
      119.000   5.53700e-06
      119.100   5.51009e-06
      119.200   5.49153e-06
      119.300   5.47999e-06
      119.400   5.47182e-06
      119.500   5.46513e-06
      119.600   5.45345e-06
      119.700   5.43592e-06
      119.800   5.40681e-06
      119.900   5.36229e-06
      120.000   5.32256e-06
      120.100   5.28665e-06
      120.200   5.26972e-06
      120.300   5.26373e-06
      120.400   5.25753e-06
      120.500   5.23555e-06
      120.600   5.20146e-06
      120.700   5.16334e-06
      120.800   5.12757e-06
      120.900   5.11237e-06
      121.000   5.12955e-06
      121.100   5.14139e-06
      121.200   5.13730e-06
      121.300   5.12138e-06
      121.400   5.09632e-06
      121.500   5.06429e-06
      121.600   5.00559e-06
      121.700   4.95722e-06
      121.800   4.89923e-06
      121.900   4.83980e-06
      122.000   4.77373e-06
      122.100   4.71232e-06
      122.200   4.65159e-06
      122.300   4.61359e-06
      122.400   4.60039e-06
      122.500   4.59247e-06
      122.600   4.58131e-06
      122.700   4.56984e-06
      122.800   4.55257e-06
      122.900   4.53853e-06
      123.000   4.55416e-06
      123.100   4.62176e-06
      123.200   4.69331e-06
      123.300   4.79228e-06
      123.400   4.91435e-06
      123.500   5.06947e-06
      123.600   5.20726e-06
      123.700   5.29123e-06
      123.800   5.36008e-06
      123.900   5.44516e-06
      124.000   5.55655e-06
      124.100   5.75291e-06
      124.200   6.13100e-06
      124.300   6.68854e-06
      124.400   7.23214e-06
      124.500   7.41486e-06
      124.600   7.42898e-06
      124.700   7.42351e-06
      124.800   7.41997e-06
      124.900   7.41627e-06
      125.000   7.41228e-06
      125.100   7.40680e-06
      125.200   7.40113e-06
      125.300   7.39540e-06
      125.400   7.38966e-06
      125.500   7.38389e-06
      125.600   7.37806e-06
      125.700   7.37222e-06
      125.800   7.36628e-06
      125.900   7.36033e-06
      126.000   7.35431e-06
      126.100   7.34824e-06
      126.200   7.34207e-06
      126.300   7.33580e-06
      126.400   7.32942e-06
      126.500   7.32290e-06
      126.600   7.31629e-06
      126.700   7.30956e-06
      126.800   7.30273e-06
      126.900   7.29576e-06
      127.000   7.28849e-06
      127.100   7.28048e-06
      127.200   7.27213e-06
      127.300   7.26359e-06
      127.400   7.25496e-06
      127.500   7.24627e-06
      127.600   7.23752e-06
      127.700   7.22873e-06
      127.800   7.21987e-06
      127.900   7.21096e-06
      128.000   7.20203e-06
      128.100   7.19305e-06
      128.200   7.18404e-06
      128.300   7.17499e-06
      128.400   7.16590e-06
      128.500   7.15675e-06
      128.600   7.14749e-06
      128.700   7.13823e-06
      128.800   7.12888e-06
      128.900   7.11942e-06
      129.000   7.10991e-06
      129.100   7.10015e-06
      129.200   7.08984e-06
      129.300   7.07943e-06
      129.400   7.06893e-06
      129.500   7.05834e-06
      129.600   7.04768e-06
      129.700   7.03692e-06
      129.800   7.02607e-06
      129.900   7.01516e-06
      130.000   7.00419e-06
      130.100   6.99320e-06
      130.200   6.98215e-06
      130.300   6.97108e-06
      130.400   6.96000e-06
      130.500   6.94888e-06
      130.600   6.93774e-06
      130.700   6.92661e-06
      130.800   6.91550e-06
      130.900   6.90437e-06
      131.000   6.89323e-06
      131.100   6.88209e-06
      131.200   6.87088e-06
      131.300   6.85951e-06
      131.400   6.84813e-06
      131.500   6.83671e-06
      131.600   6.82525e-06
      131.700   6.81375e-06
      131.800   6.80218e-06
      131.900   6.79054e-06
      132.000   6.77883e-06
      132.100   6.76701e-06
      132.200   6.75513e-06
      132.300   6.74314e-06
      132.400   6.73106e-06
      132.500   6.71889e-06
      132.600   6.70661e-06
      132.700   6.69422e-06
      132.800   6.68175e-06
      132.900   6.66922e-06
      133.000   6.65660e-06
      133.100   6.64392e-06
      133.200   6.63119e-06
      133.300   6.61836e-06
      133.400   6.60545e-06
      133.500   6.59248e-06
      133.600   6.57948e-06
      133.700   6.56649e-06
      133.800   6.55349e-06
      133.900   6.54049e-06
      134.000   6.52750e-06
      134.100   6.51452e-06
      134.200   6.50154e-06
      134.300   6.48857e-06
      134.400   6.47563e-06
      134.500   6.46269e-06
      134.600   6.44976e-06
      134.700   6.43682e-06
      134.800   6.42388e-06
      134.900   6.41092e-06
      135.000   6.39795e-06
      135.100   6.38494e-06
      135.200   6.37191e-06
      135.300   6.35885e-06
      135.400   6.34572e-06
      135.500   6.33237e-06
      135.600   6.31882e-06
      135.700   6.30520e-06
      135.800   6.29152e-06
      135.900   6.27779e-06
      136.000   6.26401e-06
      136.100   6.25017e-06
      136.200   6.23628e-06
      136.300   6.22231e-06
      136.400   6.20829e-06
      136.500   6.19423e-06
      136.600   6.18012e-06
      136.700   6.16597e-06
      136.800   6.15180e-06
      136.900   6.13759e-06
      137.000   6.12335e-06
      137.100   6.10908e-06
      137.200   6.09478e-06
      137.300   6.08045e-06
      137.400   6.06613e-06
      137.500   6.05178e-06
      137.600   6.03741e-06
      137.700   6.02293e-06
      137.800   6.00838e-06
      137.900   5.99380e-06
      138.000   5.97922e-06
      138.100   5.96465e-06
      138.200   5.95009e-06
      138.300   5.93550e-06
      138.400   5.92092e-06
      138.500   5.90634e-06
      138.600   5.89175e-06
      138.700   5.87715e-06
      138.800   5.86255e-06
      138.900   5.84795e-06
      139.000   5.83335e-06
      139.100   5.81873e-06
      139.200   5.80411e-06
      139.300   5.78949e-06
      139.400   5.77485e-06
      139.500   5.76020e-06
      139.600   5.74555e-06
      139.700   5.73088e-06
      139.800   5.71621e-06
      139.900   5.70150e-06
      140.000   5.68673e-06
      140.100   5.67193e-06
      140.200   5.65712e-06
      140.300   5.64229e-06
      140.400   5.62746e-06
      140.500   5.61261e-06
      140.600   5.59773e-06
      140.700   5.58284e-06
      140.800   5.56794e-06
      140.900   5.55300e-06
      141.000   5.53802e-06
      141.100   5.52304e-06
      141.200   5.50805e-06
      141.300   5.49303e-06
      141.400   5.47800e-06
      141.500   5.46295e-06
      141.600   5.44788e-06
      141.700   5.43277e-06
      141.800   5.41768e-06
      141.900   5.40257e-06
      142.000   5.38746e-06
      142.100   5.37654e-06
      142.200   5.37765e-06
      142.300   5.38915e-06
      142.400   5.40057e-06
      142.500   5.41191e-06
      142.600   5.42317e-06
      142.700   5.43437e-06
      142.800   5.44550e-06
      142.900   5.45656e-06
      143.000   5.46757e-06
      143.100   5.47847e-06
      143.200   5.48933e-06
      143.300   5.50008e-06
      143.400   5.51078e-06
      143.500   5.52143e-06
      143.600   5.53199e-06
      143.700   5.54248e-06
      143.800   5.55290e-06
      143.900   5.56325e-06
      144.000   5.57351e-06
      144.100   5.58368e-06
      144.200   5.59377e-06
      144.300   5.60379e-06
      144.400   5.61495e-06
      144.500   5.64239e-06
      144.600   5.67510e-06
      144.700   5.70840e-06
      144.800   5.74168e-06
      144.900   5.77496e-06
      145.000   5.80826e-06
      145.100   5.84156e-06
      145.200   5.87489e-06
      145.300   5.90820e-06
      145.400   5.94151e-06
      145.500   5.97481e-06
      145.600   6.00807e-06
      145.700   6.04128e-06
      145.800   6.07453e-06
      145.900   6.10779e-06
      146.000   6.14102e-06
      146.100   6.17421e-06
      146.200   6.20740e-06
      146.300   6.24056e-06
      146.400   6.27367e-06
      146.500   6.30675e-06
      146.600   6.33982e-06
      146.700   6.37288e-06
      146.800   6.40550e-06
      146.900   6.43751e-06
      147.000   6.46945e-06
      147.100   6.50135e-06
      147.200   6.53323e-06
      147.300   6.56506e-06
      147.400   6.59685e-06
      147.500   6.62859e-06
      147.600   6.66026e-06
      147.700   6.69191e-06
      147.800   6.72350e-06
      147.900   6.75503e-06
      148.000   6.78649e-06
      148.100   6.81790e-06
      148.200   6.84927e-06
      148.300   6.88061e-06
      148.400   6.91192e-06
      148.500   6.94317e-06
      148.600   6.97436e-06
      148.700   7.00550e-06
      148.800   7.03655e-06
      148.900   7.06759e-06
      149.000   7.09862e-06
      149.100   7.12958e-06
      149.200   7.16044e-06
      149.300   7.19124e-06
      149.400   7.22198e-06
      149.500   7.25269e-06
      149.600   7.28334e-06
      149.700   7.31388e-06
      149.800   7.34438e-06
      149.900   7.37483e-06
      150.000   7.40523e-06
      150.100   7.43556e-06
      150.200   7.46577e-06
      150.300   7.49592e-06
      150.400   7.52599e-06
      150.500   7.55597e-06
      150.600   7.58584e-06
      150.700   7.61564e-06
      150.800   7.64530e-06
      150.900   7.67483e-06
      151.000   7.70422e-06
      151.100   7.73355e-06
      151.200   7.76271e-06
      151.300   7.79173e-06
      151.400   7.82064e-06
      151.500   7.84940e-06
      151.600   7.87819e-06
      151.700   7.90706e-06
      151.800   7.93581e-06
      151.900   7.96438e-06
      152.000   7.99278e-06
      152.100   8.02103e-06
      152.200   8.04920e-06
      152.300   8.07715e-06
      152.400   8.10495e-06
      152.500   8.13265e-06
      152.600   8.16019e-06
      152.700   8.18759e-06
      152.800   8.21482e-06
      152.900   8.24197e-06
      153.000   8.26902e-06
      153.100   8.29594e-06
      153.200   8.32274e-06
      153.300   8.34946e-06
      153.400   8.37605e-06
      153.500   8.40252e-06
      153.600   8.42891e-06
      153.700   8.45528e-06
      153.800   8.48149e-06
      153.900   8.50760e-06
      154.000   8.53559e-06
      154.100   8.56790e-06
      154.200   8.60160e-06
      154.300   8.63526e-06
      154.400   8.66888e-06
      154.500   8.70237e-06
      154.600   8.73578e-06
      154.700   8.76911e-06
      154.800   8.80234e-06
      154.900   8.83540e-06
      155.000   8.86836e-06
      155.100   8.90126e-06
      155.200   8.93394e-06
      155.300   8.96649e-06
      155.400   8.99890e-06
      155.500   9.03119e-06
      155.600   9.06324e-06
      155.700   9.09512e-06
      155.800   9.12685e-06
      155.900   9.15838e-06
      156.000   9.18971e-06
      156.100   9.22083e-06
      156.200   9.25176e-06
      156.300   9.28254e-06
      156.400   9.31307e-06
      156.500   9.34304e-06
      156.600   9.37069e-06
      156.700   9.39807e-06
      156.800   9.42522e-06
      156.900   9.45218e-06
      157.000   9.47901e-06
      157.100   9.50554e-06
      157.200   9.53190e-06
      157.300   9.55810e-06
      157.400   9.58412e-06
      157.500   9.60991e-06
      157.600   9.63553e-06
      157.700   9.66104e-06
      157.800   9.68634e-06
      157.900   9.71141e-06
      158.000   9.73636e-06
      158.100   9.76120e-06
      158.200   9.78581e-06
      158.300   9.81025e-06
      158.400   9.83458e-06
      158.500   9.85873e-06
      158.600   9.88268e-06
      158.700   9.90642e-06
      158.800   9.93010e-06
      158.900   9.95352e-06
      159.000   9.97676e-06
      159.100   9.99974e-06
      159.200   1.00226e-05
      159.300   1.00451e-05
      159.400   1.00675e-05
      159.500   1.00897e-05
      159.600   1.01116e-05
      159.700   1.01334e-05
      159.800   1.01549e-05
      159.900   1.01762e-05
      160.000   1.01972e-05
      160.100   1.02180e-05
      160.200   1.02385e-05
      160.300   1.02588e-05
      160.400   1.02788e-05
      160.500   1.02986e-05
      160.600   1.03181e-05
      160.700   1.03374e-05
      160.800   1.03564e-05
      160.900   1.03752e-05
      161.000   1.03936e-05
      161.100   1.04119e-05
      161.200   1.04299e-05
      161.300   1.04476e-05
      161.400   1.04651e-05
      161.500   1.04824e-05
      161.600   1.04994e-05
      161.700   1.05160e-05
      161.800   1.05324e-05
      161.900   1.05486e-05
      162.000   1.05645e-05
      162.100   1.05801e-05
      162.200   1.05957e-05
      162.300   1.06109e-05
      162.400   1.06259e-05
      162.500   1.06407e-05
      162.600   1.06553e-05
      162.700   1.06697e-05
      162.800   1.06838e-05
      162.900   1.06977e-05
      163.000   1.07114e-05
      163.100   1.07249e-05
      163.200   1.07382e-05
      163.300   1.07512e-05
      163.400   1.07639e-05
      163.500   1.07765e-05
      163.600   1.07887e-05
      163.700   1.08007e-05
      163.800   1.08126e-05
      163.900   1.08241e-05
      164.000   1.08353e-05
      164.100   1.08463e-05
      164.200   1.08570e-05
      164.300   1.08681e-05
      164.400   1.08790e-05
      164.500   1.08895e-05
      164.600   1.08999e-05
      164.700   1.09099e-05
      164.800   1.09196e-05
      164.900   1.09292e-05
      165.000   1.09384e-05
      165.100   1.09474e-05
      165.200   1.09561e-05
      165.300   1.09646e-05
      165.400   1.09728e-05
      165.500   1.09808e-05
      165.600   1.09886e-05
      165.700   1.09961e-05
      165.800   1.10034e-05
      165.900   1.10105e-05
      166.000   1.10173e-05
      166.100   1.10240e-05
      166.200   1.10305e-05
      166.300   1.10368e-05
      166.400   1.10428e-05
      166.500   1.10487e-05
      166.600   1.10544e-05
      166.700   1.10599e-05
      166.800   1.10651e-05
      166.900   1.10701e-05
      167.000   1.10751e-05
      167.100   1.10797e-05
      167.200   1.10841e-05
      167.300   1.10883e-05
      167.400   1.10924e-05
      167.500   1.10962e-05
      167.600   1.10999e-05
      167.700   1.11034e-05
      167.800   1.11066e-05
      167.900   1.11097e-05
      168.000   1.11125e-05
      168.100   1.11151e-05
      168.200   1.11174e-05
      168.300   1.11195e-05
      168.400   1.11213e-05
      168.500   1.11230e-05
      168.600   1.11243e-05
      168.700   1.11254e-05
      168.800   1.11261e-05
      168.900   1.11267e-05
      169.000   1.11270e-05
      169.100   1.11269e-05
      169.200   1.11266e-05
      169.300   1.11260e-05
      169.400   1.11251e-05
      169.500   1.11233e-05
      169.600   1.11183e-05
      169.700   1.11098e-05
      169.800   1.11001e-05
      169.900   1.10899e-05
      170.000   1.10793e-05
      170.100   1.10683e-05
      170.200   1.10570e-05
      170.300   2.01932e-05
      170.400   0.000101106
      170.500   0.000331198
      170.600   0.000697440
      170.700    0.00110301
      170.800    0.00134203
      170.900    0.00138649
      171.000    0.00137730
      171.100    0.00136802
      171.200    0.00135864
      171.300    0.00134916
      171.400    0.00133959
      171.500    0.00132994
      171.600    0.00132022
      171.700    0.00131044
      171.800    0.00130063
      171.900    0.00129081
      172.000    0.00128101
      172.100    0.00127123
      172.200    0.00126151
      172.300    0.00125185
      172.400    0.00124211
      172.500    0.00123242
      172.600    0.00122283
      172.700    0.00121333
      172.800    0.00120393
      172.900    0.00119462
      173.000    0.00118542
      173.100    0.00117633
      173.200    0.00116732
      173.300    0.00115843
      173.400    0.00114963
      173.500    0.00114092
      173.600    0.00113232
      173.700    0.00112381
      173.800    0.00111539
      173.900    0.00110706
      174.000    0.00109881
      174.100    0.00109063
      174.200    0.00108254
      174.300    0.00107452
      174.400    0.00106658
      174.500    0.00105869
      174.600    0.00105087
      174.700    0.00104311
      174.800    0.00103541
      174.900    0.00102777
      175.000    0.00102017
      175.100    0.00101261
      175.200    0.00100514
      175.300   0.000997697
      175.400   0.000990305
      175.500   0.000982963
      175.600   0.000975667
      175.700   0.000968421
      175.800   0.000961220
      175.900   0.000954068
      176.000   0.000946964
      176.100   0.000939909
      176.200   0.000932901
      176.300   0.000925937
      176.400   0.000919024
      176.500   0.000912154
      176.600   0.000905329
      176.700   0.000898548
      176.800   0.000891810
      176.900   0.000885115
      177.000   0.000878460
      177.100   0.000871843
      177.200   0.000865266
      177.300   0.000858727
      177.400   0.000852220
      177.500   0.000845745
      177.600   0.000839305
      177.700   0.000832897
      177.800   0.000826520
      177.900   0.000820163
      178.000   0.000813888
      178.100   0.000807646
      178.200   0.000801430
      178.300   0.000795242
      178.400   0.000789087
      178.500   0.000782958
      178.600   0.000776858
      178.700   0.000770784
      178.800   0.000764743
      178.900   0.000758733
      179.000   0.000752753
      179.100   0.000746803
      179.200   0.000740887
      179.300   0.000735006
      179.400   0.000729159
      179.500   0.000723350
      179.600   0.000717577
      179.700   0.000711845
      179.800   0.000706149
      179.900   0.000700495
      180.000   0.000694880
      180.100   0.000689309
      180.200   0.000683781
      180.300   0.000678297
      180.400   0.000672855
      180.500   0.000667460
      180.600   0.000662108
      180.700   0.000656802
      180.800   0.000651543
      180.900   0.000646330
      181.000   0.000641161
      181.100   0.000636040
      181.200   0.000630961
      181.300   0.000625926
      181.400   0.000620938
      181.500   0.000615992
      181.600   0.000611089
      181.700   0.000606229
      181.800   0.000601412
      181.900   0.000596638
      182.000   0.000591908
      182.100   0.000587217
      182.200   0.000582570
      182.300   0.000577963
      182.400   0.000573398
      182.500   0.000568873
      182.600   0.000564388
      182.700   0.000559942
      182.800   0.000555537
      182.900   0.000551170
      183.000   0.000546843
      183.100   0.000542555
      183.200   0.000538304
      183.300   0.000534090
      183.400   0.000529914
      183.500   0.000525775
      183.600   0.000521671
      183.700   0.000517606
      183.800   0.000513588
      183.900   0.000509610
      184.000   0.000505666
      184.100   0.000501756
      184.200   0.000497877
      184.300   0.000494029
      184.400   0.000490213
      184.500   0.000486428
      184.600   0.000482672
      184.700   0.000478944
      184.800   0.000475245
      184.900   0.000471573
      185.000   0.000467928
      185.100   0.000464308
      185.200   0.000460712
      185.300   0.000457144
      185.400   0.000453598
      185.500   0.000450077
      185.600   0.000446578
      185.700   0.000443100
      185.800   0.000439645
      185.900   0.000436213
      186.000   0.000432800
      186.100   0.000429407
      186.200   0.000426036
      186.300   0.000422683
      186.400   0.000419351
      186.500   0.000416037
      186.600   0.000412742
      186.700   0.000409465
      186.800   0.000406205
      186.900   0.000402964
      187.000   0.000399740
      187.100   0.000396535
      187.200   0.000393348
      187.300   0.000390180
      187.400   0.000387030
      187.500   0.000383898
      187.600   0.000380784
      187.700   0.000377689
      187.800   0.000374612
      187.900   0.000371553
      188.000   0.000368513
      188.100   0.000365491
      188.200   0.000362487
      188.300   0.000359501
      188.400   0.000356534
      188.500   0.000353587
      188.600   0.000350658
      188.700   0.000347748
      188.800   0.000344858
      188.900   0.000341989
      189.000   0.000339137
      189.100   0.000336305
      189.200   0.000333493
      189.300   0.000330701
      189.400   0.000327930
      189.500   0.000325178
      189.600   0.000322445
      189.700   0.000319734
      189.800   0.000317070
      189.900   0.000314430
      190.000   0.000311809
      190.100   0.000309209
      190.200   0.000306630
      190.300   0.000304072
      190.400   0.000301533
      190.500   0.000299014
      190.600   0.000296518
      190.700   0.000294040
      190.800   0.000291584
      190.900   0.000289149
      191.000   0.000286733
      191.100   0.000284339
      191.200   0.000281965
      191.300   0.000279610
      191.400   0.000277277
      191.500   0.000274962
      191.600   0.000272668
      191.700   0.000270394
      191.800   0.000268137
      191.900   0.000265902
      192.000   0.000263686
      192.100   0.000261489
      192.200   0.000259312
      192.300   0.000257153
      192.400   0.000255013
      192.500   0.000252891
      192.600   0.000250788
      192.700   0.000248703
      192.800   0.000246634
      192.900   0.000244578
      193.000   0.000242541
      193.100   0.000240522
      193.200   0.000238520
      193.300   0.000236536
      193.400   0.000234571
      193.500   0.000232624
      193.600   0.000230693
      193.700   0.000228779
      193.800   0.000226883
      193.900   0.000225005
      194.000   0.000223144
      194.100   0.000221299
      194.200   0.000219473
      194.300   0.000217664
      194.400   0.000215871
      194.500   0.000214094
      194.600   0.000212333
      194.700   0.000210589
      194.800   0.000208861
      194.900   0.000207148
      195.000   0.000205450
      195.100   0.000203769
      195.200   0.000202102
      195.300   0.000200451
      195.400   0.000198813
      195.500   0.000197189
      195.600   0.000195579
      195.700   0.000193983
      195.800   0.000192399
      195.900   0.000190826
      196.000   0.000189192
      196.100   0.000187571
      196.200   0.000185962
      196.300   0.000184367
      196.400   0.000182784
      196.500   0.000181211
      196.600   0.000179652
      196.700   0.000178103
      196.800   0.000176566
      196.900   0.000175040
      197.000   0.000173524
      197.100   0.000172019
      197.200   0.000170523
      197.300   0.000169038
      197.400   0.000167562
      197.500   0.000166095
      197.600   0.000164639
      197.700   0.000163192
      197.800   0.000161755
      197.900   0.000160326
      198.000   0.000158907
      198.100   0.000157497
      198.200   0.000156096
      198.300   0.000154704
      198.400   0.000153322
      198.500   0.000151950
      198.600   0.000150587
      198.700   0.000149233
      198.800   0.000147888
      198.900   0.000146553
      199.000   0.000145228
      199.100   0.000143912
      199.200   0.000142606
      199.300   0.000141310
      199.400   0.000140024
      199.500   0.000138748
      199.600   0.000137482
      199.700   0.000136225
      199.800   0.000134979
      199.900   0.000133743
      200.000   0.000132516
      200.100   0.000131306
      200.200   0.000130100
      200.300   0.000128904
      200.400   0.000127717
      200.500   0.000126541
      200.600   0.000125374
      200.700   0.000124217
      200.800   0.000123070
      200.900   0.000121932
      201.000   0.000120805
      201.100   0.000119686
      201.200   0.000118577
      201.300   0.000117477
      201.400   0.000116388
      201.500   0.000115306
      201.600   0.000114235
      201.700   0.000113172
      201.800   0.000112118
      201.900   0.000111073
      202.000   0.000110038
      202.100   0.000109012
      202.200   0.000107994
      202.300   0.000107009
      202.400   0.000106081
      202.500   0.000105174
      202.600   0.000104273
      202.700   0.000103379
      202.800   0.000102494
      202.900   0.000101615
      203.000   0.000100744
      203.100   9.98813e-05
      203.200   9.90253e-05
      203.300   9.81766e-05
      203.400   9.73354e-05
      203.500   9.65019e-05
      203.600   9.56758e-05
      203.700   9.48573e-05
      203.800   9.40464e-05
      203.900   9.32434e-05
      204.000   9.24477e-05
      204.100   9.16596e-05
      204.200   9.08793e-05
      204.300   9.01061e-05
      204.400   8.93406e-05
      204.500   8.85825e-05
      204.600   8.78317e-05
      204.700   8.70882e-05
      204.800   8.63527e-05
      204.900   8.56242e-05
      205.000   8.49028e-05
      205.100   8.41888e-05
      205.200   8.34814e-05
      205.300   8.27813e-05
      205.400   8.20881e-05
      205.500   8.14013e-05
      205.600   8.07318e-05
      205.700   8.00793e-05
      205.800   7.94339e-05
      205.900   7.87946e-05
      206.000   7.81615e-05
      206.100   7.75338e-05
      206.200   7.69116e-05
      206.300   7.62952e-05
      206.400   7.56844e-05
      206.500   7.50783e-05
      206.600   7.44778e-05
      206.700   7.38824e-05
      206.800   7.32916e-05
      206.900   7.27058e-05
      207.000   7.21250e-05
      207.100   7.15486e-05
      207.200   7.09770e-05
      207.300   7.04100e-05
      207.400   6.98471e-05
      207.500   6.92885e-05
      207.600   6.87343e-05
      207.700   6.81841e-05
      207.800   6.76379e-05
      207.900   6.70959e-05
      208.000   6.65578e-05
      208.100   6.60236e-05
      208.200   6.54935e-05
      208.300   6.49671e-05
      208.400   6.44444e-05
      208.500   6.39258e-05
      208.600   6.34105e-05
      208.700   6.28989e-05
      208.800   6.23910e-05
      208.900   6.18845e-05
      209.000   6.13741e-05
      209.100   6.08668e-05
      209.200   6.03633e-05
      209.300   5.98632e-05
      209.400   5.93671e-05
      209.500   5.88745e-05
      209.600   5.83855e-05
      209.700   5.79000e-05
      209.800   5.74185e-05
      209.900   5.69401e-05
      210.000   5.64655e-05
      210.100   5.59942e-05
      210.200   5.55264e-05
      210.300   5.50621e-05
      210.400   5.46011e-05
      210.500   5.41434e-05
      210.600   5.36890e-05
      210.700   5.32380e-05
      210.800   5.27902e-05
      210.900   5.23455e-05
      211.000   5.19040e-05
      211.100   5.14657e-05
      211.200   5.10305e-05
      211.300   5.05984e-05
      211.400   5.01696e-05
      211.500   4.97435e-05
      211.600   4.93205e-05
      211.700   4.89006e-05
      211.800   4.84832e-05
      211.900   4.80689e-05
      212.000   4.76576e-05
      212.100   4.72491e-05
      212.200   4.68432e-05
      212.300   4.64405e-05
      212.400   4.60407e-05
      212.500   4.56436e-05
      212.600   4.52494e-05
      212.700   4.48578e-05
      212.800   4.44690e-05
      212.900   4.40831e-05
      213.000   4.36997e-05
      213.100   4.33193e-05
      213.200   4.29416e-05
      213.300   4.25665e-05
      213.400   4.21943e-05
      213.500   4.18248e-05
      213.600   4.14579e-05
      213.700   4.10940e-05
      213.800   4.07326e-05
      213.900   4.03743e-05
      214.000   4.00186e-05
      214.100   3.96657e-05
      214.200   3.93158e-05
      214.300   3.89686e-05
      214.400   3.86241e-05
      214.500   3.82825e-05
      214.600   3.79438e-05
      214.700   3.76080e-05
      214.800   3.72749e-05
      214.900   3.69449e-05
      215.000   3.66174e-05
      215.100   3.62930e-05
      215.200   3.59713e-05
      215.300   3.56528e-05
      215.400   3.53369e-05
      215.500   3.50239e-05
      215.600   3.47139e-05
      215.700   3.44066e-05
      215.800   3.41020e-05
      215.900   3.38003e-05
      216.000   3.35013e-05
      216.100   3.32051e-05
      216.200   3.29118e-05
      216.300   3.26212e-05
      216.400   3.23333e-05
      216.500   3.20481e-05
      216.600   3.17657e-05
      216.700   3.14860e-05
      216.800   3.12089e-05
      216.900   3.09344e-05
      217.000   3.06626e-05
      217.100   3.03932e-05
      217.200   3.01265e-05
      217.300   2.98623e-05
      217.400   2.96006e-05
      217.500   2.93414e-05
      217.600   2.90846e-05
      217.700   2.88302e-05
      217.800   2.85782e-05
      217.900   2.83287e-05
      218.000   2.80815e-05
      218.100   2.78366e-05
      218.200   2.75940e-05
      218.300   2.73536e-05
      218.400   2.71156e-05
      218.500   2.68796e-05
      218.600   2.66459e-05
      218.700   2.64143e-05
      218.800   2.61849e-05
      218.900   2.59576e-05
      219.000   2.57323e-05
      219.100   2.55091e-05
      219.200   2.52879e-05
      219.300   2.50688e-05
      219.400   2.48515e-05
      219.500   2.46362e-05
      219.600   2.44229e-05
      219.700   2.42115e-05
      219.800   2.40021e-05
      219.900   2.37944e-05
      220.000   2.35887e-05
      220.100   2.33847e-05
      220.200   2.31826e-05
      220.300   2.29823e-05
      220.400   2.27838e-05
      220.500   2.25870e-05
      220.600   2.23920e-05
      220.700   2.21987e-05
      220.800   2.20070e-05
      220.900   2.18172e-05
      221.000   2.16289e-05
      221.100   2.14422e-05
      221.200   2.12572e-05
      221.300   2.10739e-05
      221.400   2.08921e-05
      221.500   2.07119e-05
      221.600   2.05332e-05
      221.700   2.03561e-05
      221.800   2.01804e-05
      221.900   2.00062e-05
      222.000   1.98336e-05
      222.100   1.96624e-05
      222.200   1.94927e-05
      222.300   1.93244e-05
      222.400   1.91575e-05
      222.500   1.89919e-05
      222.600   1.88278e-05
      222.700   1.86650e-05
      222.800   1.85034e-05
      222.900   1.83432e-05
      223.000   1.81842e-05
      223.100   1.80266e-05
      223.200   1.78702e-05
      223.300   1.77151e-05
      223.400   1.75612e-05
      223.500   1.74085e-05
      223.600   1.72572e-05
      223.700   1.71070e-05
      223.800   1.69579e-05
      223.900   1.68102e-05
      224.000   1.66635e-05
      224.100   1.65180e-05
      224.200   1.63736e-05
      224.300   1.62303e-05
      224.400   1.60882e-05
      224.500   1.59472e-05
      224.600   1.58072e-05
      224.700   1.56683e-05
      224.800   1.55306e-05
      224.900   1.53938e-05
      225.000   1.52581e-05
      225.100   1.51234e-05
      225.200   1.49898e-05
      225.300   1.48572e-05
      225.400   1.47256e-05
      225.500   1.45950e-05
      225.600   1.44654e-05
      225.700   1.43368e-05
      225.800   1.42091e-05
      225.900   1.40824e-05
      226.000   1.39567e-05
      226.100   1.38320e-05
      226.200   1.37083e-05
      226.300   1.35864e-05
      226.400   1.34662e-05
      226.500   1.33468e-05
      226.600   1.32279e-05
      226.700   1.31099e-05
      226.800   1.29925e-05
      226.900   1.28760e-05
      227.000   1.27603e-05
      227.100   1.26455e-05
      227.200   1.25316e-05
      227.300   1.24187e-05
      227.400   1.23066e-05
      227.500   1.21953e-05
      227.600   1.20850e-05
      227.700   1.19755e-05
      227.800   1.18669e-05
      227.900   1.17592e-05
      228.000   1.16523e-05
      228.100   1.15463e-05
      228.200   1.14412e-05
      228.300   1.13369e-05
      228.400   1.12335e-05
      228.500   1.11309e-05
      228.600   1.10292e-05
      228.700   1.09284e-05
      228.800   1.08284e-05
      228.900   1.07293e-05
      229.000   1.06310e-05
      229.100   1.05335e-05
      229.200   1.04369e-05
      229.300   1.03411e-05
      229.400   1.02462e-05
      229.500   1.01521e-05
      229.600   1.00589e-05
      229.700   9.96645e-06
      229.800   9.87484e-06
      229.900   9.78406e-06
      230.000   9.69404e-06
      230.100   9.60397e-06
      230.200   9.51475e-06
      230.300   9.42640e-06
      230.400   9.33884e-06
      230.500   9.25210e-06
      230.600   9.16617e-06
      230.700   9.08102e-06
      230.800   8.99668e-06
      230.900   8.91315e-06
      231.000   8.83038e-06
      231.100   8.74839e-06
      231.200   8.66718e-06
      231.300   8.58674e-06
      231.400   8.50710e-06
      231.500   8.42816e-06
      231.600   8.34996e-06
      231.700   8.27253e-06
      231.800   8.19585e-06
      231.900   8.11989e-06
      232.000   8.04464e-06
      232.100   7.97010e-06
      232.200   7.89629e-06
      232.300   7.82319e-06
      232.400   7.75076e-06
      232.500   7.67901e-06
      232.600   7.60796e-06
      232.700   7.53759e-06
      232.800   7.46788e-06
      232.900   7.39884e-06
      233.000   7.33043e-06
      233.100   7.26271e-06
      233.200   7.19559e-06
      233.300   7.12913e-06
      233.400   7.06330e-06
      233.500   6.99808e-06
      233.600   6.93350e-06
      233.700   6.86949e-06
      233.800   6.79971e-06
      233.900   6.72967e-06
      234.000   6.66039e-06
      234.100   6.59185e-06
      234.200   6.52403e-06
      234.300   6.45691e-06
      234.400   6.39047e-06
      234.500   6.32474e-06
      234.600   6.25967e-06
      234.700   6.19528e-06
      234.800   6.13158e-06
      234.900   6.06852e-06
      235.000   6.00611e-06
      235.100   5.94435e-06
      235.200   5.88324e-06
      235.300   5.82275e-06
      235.400   5.76289e-06
      235.500   5.70366e-06
      235.600   5.64506e-06
      235.700   5.58704e-06
      235.800   5.52965e-06
      235.900   5.47285e-06
      236.000   5.41665e-06
      236.100   5.36102e-06
      236.200   5.30597e-06
      236.300   5.25148e-06
      236.400   5.19758e-06
      236.500   5.14422e-06
      236.600   5.09142e-06
      236.700   5.03916e-06
      236.800   4.98744e-06
      236.900   4.93626e-06
      237.000   4.88560e-06
      237.100   4.83546e-06
      237.200   4.78584e-06
      237.300   4.73674e-06
      237.400   4.68813e-06
      237.500   4.64001e-06
      237.600   4.59233e-06
      237.700   4.54515e-06
      237.800   4.49846e-06
      237.900   4.45223e-06
      238.000   4.40649e-06
      238.100   4.36119e-06
      238.200   4.31635e-06
      238.300   4.27196e-06
      238.400   4.22801e-06
      238.500   4.18450e-06
      238.600   4.14143e-06
      238.700   4.09880e-06
      238.800   4.05658e-06
      238.900   4.01477e-06
      239.000   3.97337e-06
      239.100   3.93238e-06
      239.200   3.89181e-06
      239.300   3.85161e-06
      239.400   3.81183e-06
      239.500   3.77243e-06
      239.600   3.73341e-06
      239.700   3.69478e-06
      239.800   3.65651e-06
      239.900   3.61861e-06
      240.000   3.58108e-06
      240.100   3.54389e-06
      240.200   3.50706e-06
      240.300   3.47058e-06
      240.400   3.43444e-06
      240.500   3.39867e-06
      240.600   3.36323e-06
      240.700   3.32812e-06
      240.800   3.29335e-06
      240.900   3.25891e-06
      241.000   3.22480e-06
      241.100   3.19101e-06
      241.200   3.15755e-06
      241.300   3.12439e-06
      241.400   3.09155e-06
      241.500   3.05902e-06
      241.600   3.02679e-06
      241.700   2.99488e-06
      241.800   2.96326e-06
      241.900   2.93194e-06
      242.000   2.90092e-06
      242.100   2.87020e-06
      242.200   2.83979e-06
      242.300   2.80967e-06
      242.400   2.77983e-06
      242.500   2.75028e-06
      242.600   2.72102e-06
      242.700   2.69203e-06
      242.800   2.66333e-06
      242.900   2.63492e-06
      243.000   2.60677e-06
      243.100   2.57890e-06
      243.200   2.55130e-06
      243.300   2.52397e-06
      243.400   2.49692e-06
      243.500   2.47013e-06
      243.600   2.44362e-06
      243.700   2.41736e-06
      243.800   2.39136e-06
      243.900   2.36563e-06
      244.000   2.34015e-06
      244.100   2.31492e-06
      244.200   2.28996e-06
      244.300   2.26523e-06
      244.400   2.24076e-06
      244.500   2.21654e-06
      244.600   2.19255e-06
      244.700   2.16882e-06
      244.800   2.14533e-06
      244.900   2.12208e-06
      245.000   2.09906e-06
      245.100   2.07628e-06
      245.200   2.05373e-06
      245.300   2.03142e-06
      245.400   2.00932e-06
      245.500   1.98746e-06
      245.600   1.96583e-06
      245.700   1.94440e-06
      245.800   1.92320e-06
      245.900   1.90223e-06
      246.000   1.88148e-06
      246.100   1.86094e-06
      246.200   1.84061e-06
      246.300   1.82049e-06
      246.400   1.80059e-06
      246.500   1.78088e-06
      246.600   1.76138e-06
      246.700   1.74209e-06
      246.800   1.72300e-06
      246.900   1.70410e-06
      247.000   1.68541e-06
      247.100   1.66691e-06
      247.200   1.64861e-06
      247.300   1.63050e-06
      247.400   1.61258e-06
      247.500   1.59485e-06
      247.600   1.57730e-06
      247.700   1.55994e-06
      247.800   1.54276e-06
      247.900   1.52576e-06
      248.000   1.50895e-06
      248.100   1.49232e-06
      248.200   1.47587e-06
      248.300   1.45960e-06
      248.400   1.44349e-06
      248.500   1.42756e-06
      248.600   1.41179e-06
      248.700   1.39620e-06
      248.800   1.38077e-06
      248.900   1.36551e-06
      249.000   1.35042e-06
      249.100   1.33549e-06
      249.200   1.32073e-06
      249.300   1.30612e-06
      249.400   1.29168e-06
      249.500   1.27739e-06
      249.600   1.26326e-06
      249.700   1.24928e-06
      249.800   1.23545e-06
      249.900   1.22177e-06
      250.000   1.20825e-06
      250.100   1.19488e-06
      250.200   1.18165e-06
      250.300   1.16858e-06
      250.400   1.15565e-06
      250.500   1.14286e-06
      250.600   1.13022e-06
      250.700   1.11771e-06
      250.800   1.10534e-06
      250.900   1.09312e-06
      251.000   1.08102e-06
      251.100   1.06906e-06
      251.200   1.05724e-06
      251.300   1.04556e-06
      251.400   1.03400e-06
      251.500   1.02257e-06
      251.600   1.01127e-06
      251.700   1.00010e-06
      251.800   9.89055e-07
      251.900   9.78131e-07
      252.000   9.67326e-07
      252.100   9.56650e-07
      252.200   9.46085e-07
      252.300   9.35648e-07
      252.400   9.25321e-07
      252.500   9.15117e-07
      252.600   9.05023e-07
      252.700   8.95042e-07
      252.800   8.85173e-07
      252.900   8.75414e-07
      253.000   8.65762e-07
      253.100   8.56221e-07
      253.200   8.46784e-07
      253.300   8.37801e-07
      253.400   8.29075e-07
      253.500   8.20447e-07
      253.600   8.11912e-07
      253.700   8.03462e-07
      253.800   7.95106e-07
      253.900   7.86836e-07
      254.000   7.78651e-07
      254.100   7.70549e-07
      254.200   7.62532e-07
      254.300   7.54599e-07
      254.400   7.46747e-07
      254.500   7.38977e-07
      254.600   7.31285e-07
      254.700   7.23676e-07
      254.800   7.16146e-07
      254.900   7.08693e-07
      255.000   7.01317e-07
      255.100   6.94011e-07
      255.200   6.86782e-07
      255.300   6.79628e-07
      255.400   6.72545e-07
      255.500   6.65535e-07
      255.600   6.58597e-07
      255.700   6.51728e-07
      255.800   6.44929e-07
      255.900   6.38197e-07
      256.000   6.31534e-07
      256.100   6.24939e-07
      256.200   6.18409e-07
      256.300   6.11945e-07
      256.400   6.05552e-07
      256.500   5.99216e-07
      256.600   5.92947e-07
      256.700   5.86741e-07
      256.800   5.80596e-07
      256.900   5.74511e-07
      257.000   5.68489e-07
      257.100   5.62526e-07
      257.200   5.56625e-07
      257.300   5.50783e-07
      257.400   5.45147e-07
      257.500   5.39621e-07
      257.600   5.34154e-07
      257.700   5.28737e-07
      257.800   5.23374e-07
      257.900   5.18063e-07
      258.000   5.12803e-07
      258.100   5.07593e-07
      258.200   5.02435e-07
      258.300   4.97327e-07
      258.400   4.92267e-07
      258.500   4.87254e-07
      258.600   4.82291e-07
      258.700   4.77377e-07
      258.800   4.72508e-07
      258.900   4.67691e-07
      259.000   4.62916e-07
      259.100   4.58189e-07
      259.200   4.53506e-07
      259.300   4.48872e-07
      259.400   4.44282e-07
      259.500   4.39735e-07
      259.600   4.35234e-07
      259.700   4.30777e-07
      259.800   4.26361e-07
      259.900   4.21987e-07
      260.000   4.17657e-07
      260.100   4.13370e-07
      260.200   4.09124e-07
      260.300   4.04919e-07
      260.400   4.00756e-07
      260.500   3.96634e-07
      260.600   3.92550e-07
      260.700   3.88506e-07
      260.800   3.84504e-07
      260.900   3.80538e-07
      261.000   3.76613e-07
      261.100   3.72726e-07
      261.200   3.68876e-07
      261.300   3.65063e-07
      261.400   3.61290e-07
      261.500   3.57570e-07
      261.600   3.53941e-07
      261.700   3.50358e-07
      261.800   3.46809e-07
      261.900   3.43292e-07
      262.000   3.39809e-07
      262.100   3.36360e-07
      262.200   3.32945e-07
      262.300   3.29561e-07
      262.400   3.26210e-07
      262.500   3.22890e-07
      262.600   3.19602e-07
      262.700   3.16346e-07
      262.800   3.13121e-07
      262.900   3.09925e-07
      263.000   3.06764e-07
      263.100   3.03630e-07
      263.200   3.00527e-07
      263.300   2.97454e-07
      263.400   2.94409e-07
      263.500   2.91395e-07
      263.600   2.88410e-07
      263.700   2.85454e-07
      263.800   2.82524e-07
      263.900   2.79626e-07
      264.000   2.76753e-07
      264.100   2.73909e-07
      264.200   2.71090e-07
      264.300   2.68302e-07
      264.400   2.65540e-07
      264.500   2.62803e-07
      264.600   2.60094e-07
      264.700   2.57411e-07
      264.800   2.54753e-07
      264.900   2.52122e-07
      265.000   2.49517e-07
      265.100   2.46936e-07
      265.200   2.44381e-07
      265.300   2.41850e-07
      265.400   2.39346e-07
      265.500   2.36865e-07
      265.600   2.34409e-07
      265.700   2.31976e-07
      265.800   2.29573e-07
      265.900   2.27193e-07
      266.000   2.24838e-07
      266.100   2.22506e-07
      266.200   2.20197e-07
      266.300   2.17910e-07
      266.400   2.15647e-07
      266.500   2.13405e-07
      266.600   2.11186e-07
      266.700   2.08989e-07
      266.800   2.06816e-07
      266.900   2.04663e-07
      267.000   2.02531e-07
      267.100   2.00421e-07
      267.200   1.98333e-07
      267.300   1.96266e-07
      267.400   1.94219e-07
      267.500   1.92193e-07
      267.600   1.90187e-07
      267.700   1.88202e-07
      267.800   1.86237e-07
      267.900   1.84291e-07
      268.000   1.82366e-07
      268.100   1.80461e-07
      268.200   1.78575e-07
      268.300   1.76709e-07
      268.400   1.74861e-07
      268.500   1.73032e-07
      268.600   1.71221e-07
      268.700   1.69430e-07
      268.800   1.67657e-07
      268.900   1.65903e-07
      269.000   1.64166e-07
      269.100   1.62447e-07
      269.200   1.60747e-07
      269.300   1.59064e-07
      269.400   1.57398e-07
      269.500   1.55749e-07
      269.600   1.54118e-07
      269.700   1.52503e-07
      269.800   1.50906e-07
      269.900   1.49324e-07
      270.000   1.47760e-07
      270.100   1.46216e-07
      270.200   1.44690e-07
      270.300   1.43180e-07
      270.400   1.41685e-07
      270.500   1.40207e-07
      270.600   1.38743e-07
      270.700   1.37294e-07
      270.800   1.35861e-07
      270.900   1.34442e-07
      271.000   1.33039e-07
      271.100   1.31650e-07
      271.200   1.30275e-07
      271.300   1.28915e-07
      271.400   1.27569e-07
      271.500   1.26237e-07
      271.600   1.24918e-07
      271.700   1.23613e-07
      271.800   1.22323e-07
      271.900   1.21045e-07
      272.000   1.19781e-07
      272.100   1.18530e-07
      272.200   1.17292e-07
      272.300   1.16067e-07
      272.400   1.14854e-07
      272.500   1.13655e-07
      272.600   1.12467e-07
      272.700   1.11292e-07
      272.800   1.10129e-07
      272.900   1.08979e-07
      273.000   1.07840e-07
      273.100   1.06713e-07
      273.200   1.05598e-07
      273.300   1.04495e-07
      273.400   1.03402e-07
      273.500   1.02321e-07
      273.600   1.01252e-07
      273.700   1.00193e-07
      273.800   9.91454e-08
      273.900   9.81091e-08
      274.000   9.70832e-08
      274.100   9.60678e-08
      274.200   9.50630e-08
      274.300   9.40685e-08
      274.400   9.30569e-08
      274.500   9.19838e-08
      274.600   9.09102e-08
      274.700   8.98499e-08
      274.800   8.88012e-08
      274.900   8.77644e-08
      275.000   8.67396e-08
      275.100   8.57264e-08
      275.200   8.47250e-08
      275.300   8.37347e-08
      275.400   8.27560e-08
      275.500   8.17886e-08
      275.600   8.08316e-08
      275.700   7.98860e-08
      275.800   7.89514e-08
      275.900   7.80271e-08
      276.000   7.71135e-08
      276.100   7.62101e-08
      276.200   7.53171e-08
      276.300   7.44340e-08
      276.400   7.35613e-08
      276.500   7.26981e-08
      276.600   7.18453e-08
      276.700   7.10018e-08
      276.800   7.01683e-08
      276.900   6.93440e-08
      277.000   6.85291e-08
      277.100   6.77234e-08
      277.200   6.69269e-08
      277.300   6.61397e-08
      277.400   6.53614e-08
      277.500   6.45917e-08
      277.600   6.38311e-08
      277.700   6.30789e-08
      277.800   6.23352e-08
      277.900   6.16002e-08
      278.000   6.08736e-08
      278.100   6.01553e-08
      278.200   5.94451e-08
      278.300   5.87432e-08
      278.400   5.80492e-08
      278.500   5.73629e-08
      278.600   5.66843e-08
      278.700   5.60138e-08
      278.800   5.53508e-08
      278.900   5.46904e-08
      279.000   5.40360e-08
      279.100   5.33892e-08
      279.200   5.27496e-08
      279.300   5.21177e-08
      279.400   5.14927e-08
      279.500   5.08752e-08
      279.600   5.02648e-08
      279.700   4.96616e-08
      279.800   4.90651e-08
      279.900   4.84755e-08
      280.000   4.78928e-08
      280.100   4.73166e-08
      280.200   4.67474e-08
      280.300   4.61846e-08
      280.400   4.56281e-08
      280.500   4.50786e-08
      280.600   4.45352e-08
      280.700   4.39980e-08
      280.800   4.34671e-08
      280.900   4.29424e-08
      281.000   4.24237e-08
      281.100   4.19110e-08
      281.200   4.14042e-08
      281.300   4.09033e-08
      281.400   4.04084e-08
      281.500   3.99190e-08
      281.600   3.94352e-08
      281.700   3.89571e-08
      281.800   3.84849e-08
      281.900   3.80178e-08
      282.000   3.75562e-08
      282.100   3.70999e-08
      282.200   3.66493e-08
      282.300   3.62037e-08
      282.400   3.57633e-08
      282.500   3.53279e-08
      282.600   3.48978e-08
      282.700   3.44725e-08
      282.800   3.40521e-08
      282.900   3.36370e-08
      283.000   3.32264e-08
      283.100   3.28209e-08
      283.200   3.24199e-08
      283.300   3.20238e-08
      283.400   3.16323e-08
      283.500   3.12454e-08
      283.600   3.08629e-08
      283.700   3.04848e-08
      283.800   3.01112e-08
      283.900   2.97422e-08
      284.000   2.93773e-08
      284.100   2.90167e-08
      284.200   2.86604e-08
      284.300   2.83083e-08
      284.400   2.79603e-08
      284.500   2.76164e-08
      284.600   2.72766e-08
      284.700   2.69409e-08
      284.800   2.66091e-08
      284.900   2.62811e-08
      285.000   2.59570e-08
      285.100   2.56367e-08
      285.200   2.53204e-08
      285.300   2.50076e-08
      285.400   2.46985e-08
      285.500   2.43931e-08
      285.600   2.40915e-08
      285.700   2.37933e-08
      285.800   2.34988e-08
      285.900   2.32077e-08
      286.000   2.29201e-08
      286.100   2.26360e-08
      286.200   2.23551e-08
      286.300   2.20777e-08
      286.400   2.18037e-08
      286.500   2.15328e-08
      286.600   2.12652e-08
      286.700   2.10007e-08
      286.800   2.07394e-08
      286.900   2.04813e-08
      287.000   2.02262e-08
      287.100   1.99742e-08
      287.200   1.97252e-08
      287.300   1.94792e-08
      287.400   1.92362e-08
      287.500   1.89960e-08
      287.600   1.87588e-08
      287.700   1.85243e-08
      287.800   1.82928e-08
      287.900   1.80640e-08
      288.000   1.78381e-08
      288.100   1.76148e-08
      288.200   1.73943e-08
      288.300   1.71765e-08
      288.400   1.69612e-08
      288.500   1.67487e-08
      288.600   1.65386e-08
      288.700   1.63311e-08
      288.800   1.61261e-08
      288.900   1.59237e-08
      289.000   1.57236e-08
      289.100   1.55260e-08
      289.200   1.53308e-08
      289.300   1.51380e-08
      289.400   1.49474e-08
      289.500   1.47593e-08
      289.600   1.45734e-08
      289.700   1.43899e-08
      289.800   1.42085e-08
      289.900   1.40292e-08
      290.000   1.38523e-08
      290.100   1.36775e-08
      290.200   1.35048e-08
      290.300   1.33343e-08
      290.400   1.31659e-08
      290.500   1.29996e-08
      290.600   1.28352e-08
      290.700   1.26729e-08
      290.800   1.25127e-08
      290.900   1.23543e-08
      291.000   1.21979e-08
      291.100   1.20433e-08
      291.200   1.18907e-08
      291.300   1.17400e-08
      291.400   1.15912e-08
      291.500   1.14441e-08
      291.600   1.12989e-08
      291.700   1.11555e-08
      291.800   1.10138e-08
      291.900   1.08740e-08
      292.000   1.07358e-08
      292.100   1.05994e-08
      292.200   1.04647e-08
      292.300   1.03316e-08
      292.400   1.02001e-08
      292.500   1.00703e-08
      292.600   9.94202e-09
      292.700   9.81540e-09
      292.800   9.69034e-09
      292.900   9.56686e-09
      293.000   9.44489e-09
      293.100   9.32439e-09
      293.200   9.20539e-09
      293.300   9.08789e-09
      293.400   8.97189e-09
      293.500   8.85731e-09
      293.600   8.74416e-09
      293.700   8.63239e-09
      293.800   8.52203e-09
      293.900   8.41308e-09
      294.000   8.30544e-09
      294.100   8.19915e-09
      294.200   8.09421e-09
      294.300   7.99059e-09
      294.400   7.88817e-09
      294.500   7.78708e-09
      294.600   7.68723e-09
      294.700   7.58864e-09
      294.800   7.49128e-09
      294.900   7.39514e-09
      295.000   7.30020e-09
      295.100   7.20650e-09
      295.200   7.11394e-09
      295.300   7.02252e-09
      295.400   6.93227e-09
      295.500   6.84317e-09
      295.600   6.75514e-09
      295.700   6.66823e-09
      295.800   6.58242e-09
      295.900   6.49763e-09
      296.000   6.41391e-09
      296.100   6.33124e-09
      296.200   6.24964e-09
      296.300   6.16905e-09
      296.400   6.08954e-09
      296.500   6.01097e-09
      296.600   5.93339e-09
      296.700   5.85679e-09
      296.800   5.78117e-09
      296.900   5.70646e-09
      297.000   5.63271e-09
      297.100   5.55988e-09
      297.200   5.48798e-09
      297.300   5.41696e-09
      297.400   5.34684e-09
      297.500   5.27758e-09
      297.600   5.20922e-09
      297.700   5.14171e-09
      297.800   5.07507e-09
      297.900   5.00927e-09
      298.000   4.94432e-09
      298.100   4.88017e-09
      298.200   4.81682e-09
      298.300   4.75430e-09
      298.400   4.69254e-09
      298.500   4.63155e-09
      298.600   4.57132e-09
      298.700   4.51187e-09
      298.800   4.45315e-09
      298.900   4.39522e-09
      299.000   4.33804e-09
      299.100   4.28157e-09
      299.200   4.22578e-09
      299.300   4.17073e-09
      299.400   4.11636e-09
      299.500   4.06268e-09
      299.600   4.00968e-09
      299.700   3.95736e-09
      299.800   3.90565e-09
      299.900   3.85466e-09
      300.000   3.80430e-09
      300.100   3.75457e-09
      300.192   3.70939e-09
      300.285   3.66424e-09
      300.377   3.62011e-09
      300.470   3.57605e-09
      300.562   3.53296e-09
      300.654   3.49037e-09
      300.747   3.44781e-09
      300.839   3.40623e-09
      300.932   3.36467e-09
      301.025   3.32361e-09
      301.117   3.28348e-09
      301.210   3.24337e-09
      301.303   3.20375e-09
      301.395   3.16506e-09
      301.488   3.12633e-09
      301.581   3.08813e-09
      301.674   3.05034e-09
      301.766   3.01341e-09
      301.859   2.97652e-09
      301.952   2.94008e-09
      302.045   2.90405e-09
      302.138   2.86852e-09
      302.231   2.83353e-09
      302.324   2.79897e-09
      302.417   2.76481e-09
      302.510   2.73104e-09
      302.603   2.69771e-09
      302.696   2.66475e-09
      302.789   2.63217e-09
      302.882   2.59998e-09
      302.976   2.56785e-09
      303.069   2.53643e-09
      303.162   2.50538e-09
      303.255   2.47469e-09
      303.349   2.44405e-09
      303.442   2.41408e-09
      303.535   2.38450e-09
      303.629   2.35495e-09
      303.722   2.32606e-09
      303.816   2.29720e-09
      303.909   2.26899e-09
      304.003   2.24083e-09
      304.096   2.21328e-09
      304.190   2.18578e-09
      304.283   2.15889e-09
      304.377   2.13206e-09
      304.471   2.10553e-09
      304.564   2.07960e-09
      304.658   2.05372e-09
      304.752   2.02812e-09
      304.846   2.00286e-09
      304.939   1.97816e-09
      305.033   1.95348e-09
      305.127   1.92912e-09
      305.221   1.90504e-09
      305.315   1.88126e-09
      305.409   1.85776e-09
      305.503   1.83455e-09
      305.597   1.81162e-09
      305.691   1.78896e-09
      305.785   1.76657e-09
      305.879   1.74446e-09
      305.973   1.72262e-09
      306.067   1.70104e-09
      306.161   1.67973e-09
      306.255   1.65867e-09
      306.350   1.63765e-09
      306.444   1.61710e-09
      306.538   1.59680e-09
      306.633   1.57654e-09
      306.727   1.55673e-09
      306.821   1.53717e-09
      306.916   1.51764e-09
      307.010   1.49856e-09
      307.105   1.47953e-09
      307.199   1.46093e-09
      307.294   1.44236e-09
      307.388   1.42421e-09
      307.483   1.40610e-09
      307.577   1.38839e-09
      307.672   1.37072e-09
      307.767   1.35327e-09
      307.861   1.33621e-09
      307.956   1.31917e-09
      308.051   1.30235e-09
      308.146   1.28574e-09
      308.240   1.26952e-09
      308.335   1.25331e-09
      308.430   1.23730e-09
      308.525   1.22149e-09
      308.620   1.20588e-09
      308.715   1.19047e-09
      308.810   1.17524e-09
      308.905   1.16021e-09
      309.000   1.14536e-09
      309.095   1.13070e-09
      309.190   1.11622e-09
      309.285   1.10192e-09
      309.380   1.08779e-09
      309.476   1.07370e-09
      309.571   1.05993e-09
      309.666   1.04633e-09
      309.761   1.03290e-09
      309.857   1.01950e-09
      309.952   1.00640e-09
      310.047   9.93474e-10
      310.143   9.80571e-10
      310.238   9.67964e-10
      310.334   9.55385e-10
      310.429   9.43087e-10
      310.525   9.30823e-10
      310.620   9.18839e-10
      310.716   9.06877e-10
      310.811   8.95194e-10
      310.907   8.83540e-10
      311.003   8.72032e-10
      311.098   8.60783e-10
      311.194   8.49560e-10
      311.290   8.38483e-10
      311.386   8.27548e-10
      311.481   8.16860e-10
      311.577   8.06201e-10
      311.673   7.95674e-10
      311.769   7.85280e-10
      311.865   7.75024e-10
      311.961   7.64953e-10
      312.057   7.55253e-10
      312.153   7.45770e-10
      312.249   7.36394e-10
      312.345   7.27135e-10
      312.441   7.17985e-10
      312.537   7.08950e-10
      312.633   7.00030e-10
      312.730   6.91121e-10
      312.826   6.82418e-10
      312.922   6.73824e-10
      313.018   6.65335e-10
      313.115   6.56863e-10
      313.211   6.48579e-10
      313.307   6.40400e-10
      313.404   6.32241e-10
      313.500   6.24261e-10
      313.597   6.16305e-10
      313.693   6.08527e-10
      313.790   6.00765e-10
      313.886   5.93178e-10
      313.983   5.85604e-10
      314.079   5.78202e-10
      314.176   5.70820e-10
      314.273   5.63528e-10
      314.369   5.56404e-10
      314.466   5.49294e-10
      314.563   5.42271e-10
      314.660   5.35340e-10
      314.756   5.28562e-10
      314.853   5.21799e-10
      314.950   5.15123e-10
      315.047   5.08530e-10
      315.144   5.02018e-10
      315.241   4.95590e-10
      315.338   4.89241e-10
      315.435   4.82972e-10
      315.532   4.76783e-10
      315.629   4.70672e-10
      315.726   4.64637e-10
      315.823   4.58674e-10
      315.921   4.52731e-10
      316.018   4.46921e-10
      316.115   4.41185e-10
      316.212   4.35518e-10
      316.310   4.29868e-10
      316.407   4.24346e-10
      316.504   4.18891e-10
      316.602   4.13451e-10
      316.699   4.08136e-10
      316.796   4.02888e-10
      316.894   3.97653e-10
      316.991   3.92557e-10
      317.089   3.87606e-10
      317.187   3.82793e-10
      317.284   3.78081e-10
      317.382   3.73378e-10
      317.479   3.68778e-10
      317.577   3.64189e-10
      317.675   3.59657e-10
      317.773   3.55179e-10
      317.870   3.50802e-10
      317.968   3.46430e-10
      318.066   3.42112e-10
      318.164   3.37847e-10
      318.262   3.33635e-10
      318.360   3.29474e-10
      318.458   3.25364e-10
      318.556   3.21306e-10
      318.654   3.17297e-10
      318.752   3.13335e-10
      318.850   3.09423e-10
      318.948   3.05558e-10
      319.046   3.01740e-10
      319.144   2.97968e-10
      319.242   2.94243e-10
      319.341   2.90526e-10
      319.439   2.86892e-10
      319.537   2.83303e-10
      319.635   2.79758e-10
      319.734   2.76220e-10
      319.832   2.72762e-10
      319.930   2.69344e-10
      320.029   2.65936e-10
      320.127   2.62603e-10
      320.226   2.59278e-10
      320.324   2.56025e-10
      320.423   2.52779e-10
      320.522   2.49576e-10
      320.620   2.46444e-10
      320.719   2.43318e-10
      320.818   2.40231e-10
      320.916   2.37213e-10
      321.015   2.34201e-10
      321.114   2.31227e-10
      321.213   2.28289e-10
      321.311   2.25417e-10
      321.410   2.22553e-10
      321.509   2.19722e-10
      321.608   2.16929e-10
      321.707   2.14169e-10
      321.806   2.11442e-10
      321.905   2.08751e-10
      322.004   2.06091e-10
      322.103   2.03467e-10
      322.202   2.00873e-10
      322.301   1.98313e-10
      322.401   1.95760e-10
      322.500   1.93263e-10
      322.599   1.90797e-10
      322.698   1.88363e-10
      322.798   1.85934e-10
      322.897   1.83559e-10
      322.996   1.81214e-10
      323.096   1.78874e-10
      323.195   1.76587e-10
      323.294   1.74329e-10
      323.394   1.72077e-10
      323.493   1.69874e-10
      323.593   1.67678e-10
      323.692   1.65530e-10
      323.792   1.63389e-10
      323.892   1.61274e-10
      323.991   1.59205e-10
      324.091   1.57144e-10
      324.191   1.55107e-10
      324.291   1.53097e-10
      324.390   1.51132e-10
      324.490   1.49171e-10
      324.590   1.47236e-10
      324.690   1.45325e-10
      324.790   1.43438e-10
      324.890   1.41575e-10
      324.990   1.39735e-10
      325.090   1.37918e-10
      325.190   1.36125e-10
      325.290   1.34355e-10
      325.390   1.32605e-10
      325.490   1.30879e-10
      325.590   1.29176e-10
      325.690   1.27492e-10
      325.790   1.25830e-10
      325.891   1.24174e-10
      325.991   1.22554e-10
      326.091   1.20955e-10
      326.192   1.19360e-10
      326.292   1.17801e-10
      326.392   1.16263e-10
      326.493   1.14728e-10
      326.593   1.13228e-10
      326.694   1.11734e-10
      326.794   1.10272e-10
      326.895   1.08814e-10
      326.995   1.07389e-10
      327.096   1.05968e-10
      327.197   1.04566e-10
      327.297   1.03195e-10
      327.398   1.01828e-10
      327.499   1.00479e-10
      327.599   9.91602e-11
      327.700   9.78448e-11
      327.801   9.65466e-11
      327.902   9.52659e-11
      328.003   9.40007e-11
      328.104   9.27520e-11
      328.205   9.15195e-11
      328.306   9.03028e-11
      328.407   8.91021e-11
      328.508   8.79162e-11
      328.609   8.67457e-11
      328.710   8.55908e-11
      328.811   8.44506e-11
      328.912   8.33252e-11
      329.013   8.22142e-11
      329.115   8.11072e-11
      329.216   8.00248e-11
      329.317   7.89564e-11
      329.419   7.78923e-11
      329.520   7.68514e-11
      329.621   7.58237e-11
      329.723   7.47996e-11
      329.824   7.37997e-11
      329.926   7.28026e-11
      330.027   7.18276e-11
      330.129   7.08561e-11
      330.230   6.99072e-11
      330.332   6.89608e-11
      330.434   6.80271e-11
      330.535   6.71142e-11
      330.637   6.62045e-11
      330.739   6.53072e-11
      330.840   6.44300e-11
      330.942   6.35555e-11
      331.044   6.26929e-11
      331.146   6.18414e-11
      331.248   6.10013e-11
      331.350   6.01723e-11
      331.452   5.93558e-11
      331.554   5.85818e-11
      331.656   5.78675e-11
      331.758   5.71620e-11
      331.860   5.64642e-11
      331.962   5.57748e-11
      332.064   5.50935e-11
      332.166   5.44206e-11
      332.268   5.37550e-11
      332.371   5.30915e-11
      332.473   5.24417e-11
      332.575   5.17992e-11
      332.677   5.11649e-11
      332.780   5.05321e-11
      332.882   4.99125e-11
      332.985   4.92945e-11
      333.087   4.86894e-11
      333.190   4.80859e-11
      333.292   4.74809e-11
      333.395   4.68396e-11
      333.497   4.61982e-11
      333.600   4.55592e-11
      333.702   4.49348e-11
      333.805   4.43132e-11
      333.908   4.36992e-11
      334.011   4.30939e-11
      334.113   4.25024e-11
      334.216   4.19129e-11
      334.319   4.13317e-11
      334.422   4.07581e-11
      334.525   4.01923e-11
      334.628   3.96341e-11
      334.731   3.90838e-11
      334.834   3.85407e-11
      334.937   3.80049e-11
      335.040   3.74761e-11
      335.143   3.69550e-11
      335.246   3.64406e-11
      335.349   3.59333e-11
      335.452   3.54329e-11
      335.555   3.49394e-11
      335.659   3.44477e-11
      335.762   3.39674e-11
      335.865   3.34938e-11
      335.969   3.30220e-11
      336.072   3.25609e-11
      336.175   3.21066e-11
      336.279   3.16540e-11
      336.382   3.12119e-11
      336.486   3.07714e-11
      336.589   3.03411e-11
      336.693   2.99130e-11
      336.796   2.94947e-11
      336.900   2.90781e-11
      337.004   2.86670e-11
      337.107   2.82659e-11
      337.211   2.78661e-11
      337.315   2.74723e-11
      337.419   2.70836e-11
      337.523   2.67002e-11
      337.626   2.63259e-11
      337.730   2.59533e-11
      337.834   2.55857e-11
      337.938   2.52234e-11
      338.042   2.48675e-11
      338.146   2.45225e-11
      338.250   2.41827e-11
      338.354   2.38476e-11
      338.458   2.35167e-11
      338.562   2.31905e-11
      338.667   2.28658e-11
      338.771   2.25483e-11
      338.875   2.22353e-11
      338.979   2.19265e-11
      339.084   2.16193e-11
      339.188   2.13190e-11
      339.292   2.10229e-11
      339.397   2.07279e-11
      339.501   2.04399e-11
      339.606   2.01529e-11
      339.710   1.98727e-11
      339.815   1.95936e-11
      339.919   1.93212e-11
      340.024   1.90497e-11
      340.128   1.87848e-11
      340.233   1.85207e-11
      340.338   1.82606e-11
      340.442   1.80062e-11
      340.547   1.77532e-11
      340.652   1.75035e-11
      340.757   1.72573e-11
      340.862   1.70146e-11
      340.966   1.67775e-11
      341.071   1.65415e-11
      341.176   1.63087e-11
      341.281   1.60791e-11
      341.386   1.58529e-11
      341.491   1.56296e-11
      341.596   1.54096e-11
      341.702   1.51905e-11
      341.807   1.49765e-11
      341.912   1.47656e-11
      342.017   1.45575e-11
      342.122   1.43523e-11
      342.228   1.41482e-11
      342.333   1.39488e-11
      342.438   1.37521e-11
      342.544   1.35565e-11
      342.649   1.33653e-11
      342.754   1.31769e-11
      342.860   1.29893e-11
      342.965   1.28060e-11
      343.071   1.26237e-11
      343.176   1.24457e-11
      343.282   1.22683e-11
      343.388   1.20936e-11
      343.493   1.19243e-11
      343.599   1.17678e-11
      343.705   1.16145e-11
      343.810   1.14645e-11
      343.916   1.13151e-11
      344.022   1.11676e-11
      344.128   1.10221e-11
      344.234   1.08784e-11
      344.340   1.07366e-11
      344.446   1.05965e-11
      344.552   1.04583e-11
      344.658   1.03219e-11
      344.764   1.01874e-11
      344.870   1.00544e-11
      344.976   9.92330e-12
      345.082   9.79381e-12
      345.188   9.66609e-12
      345.294   9.53989e-12
      345.401   9.41423e-12
      345.507   9.29136e-12
      345.613   9.17010e-12
      345.719   9.05040e-12
      345.826   8.93114e-12
      345.932   8.81451e-12
      346.039   8.69836e-12
      346.145   8.58474e-12
      346.252   8.47159e-12
      346.358   8.36091e-12
      346.465   8.25074e-12
      346.571   8.14294e-12
      346.678   8.03552e-12
      346.785   7.92952e-12
      346.891   7.82590e-12
      346.998   7.72271e-12
      347.105   7.62084e-12
      347.212   7.52029e-12
      347.319   7.42102e-12
      347.425   7.32395e-12
      347.532   7.22726e-12
      347.639   7.13187e-12
      347.746   7.03771e-12
      347.853   6.94473e-12
      347.960   6.85301e-12
      348.067   6.76253e-12
      348.174   6.67322e-12
      348.281   6.58503e-12
      348.389   6.49722e-12
      348.496   6.41131e-12
      348.603   6.32664e-12
      348.710   6.24300e-12
      348.818   6.15969e-12
      348.925   6.07821e-12
      349.032   5.99783e-12
      349.140   5.91743e-12
      349.247   5.83878e-12
      349.355   5.76049e-12
      349.462   5.68391e-12
      349.570   5.60756e-12
      349.677   5.53300e-12
      349.785   5.45868e-12
      349.892   5.38605e-12
      350.000   5.31372e-12
      350.100   5.24761e-12
      350.193   5.18684e-12
      350.287   5.12608e-12
      350.380   5.06671e-12
      350.473   5.00800e-12
      350.567   4.94930e-12
      350.660   4.89192e-12
      350.754   4.83460e-12
      350.847   4.77855e-12
      350.941   4.72253e-12
      351.034   4.66775e-12
      351.128   4.61301e-12
      351.221   4.55949e-12
      351.315   4.50598e-12
      351.409   4.45308e-12
      351.502   4.40138e-12
      351.596   4.34972e-12
      351.690   4.29860e-12
      351.783   4.24868e-12
      351.877   4.19878e-12
      351.971   4.14943e-12
      352.065   4.10066e-12
      352.159   4.05245e-12
      352.252   4.00529e-12
      352.346   3.95817e-12
      352.440   3.91161e-12
      352.534   3.86561e-12
      352.628   3.82010e-12
      352.722   3.77510e-12
      352.816   3.73065e-12
      352.910   3.68672e-12
      353.004   3.64330e-12
      353.098   3.60035e-12
      353.192   3.55789e-12
      353.287   3.51549e-12
      353.381   3.47400e-12
      353.475   3.43304e-12
      353.569   3.39250e-12
      353.663   3.35246e-12
      353.758   3.31247e-12
      353.852   3.27335e-12
      353.946   3.23467e-12
      354.041   3.19603e-12
      354.135   3.15825e-12
      354.229   3.12089e-12
      354.324   3.08357e-12
      354.418   3.04708e-12
      354.513   3.01062e-12
      354.607   2.97500e-12
      354.702   2.93920e-12
      354.796   2.90350e-12
      354.891   2.86775e-12
      354.985   2.83283e-12
      355.080   2.79796e-12
      355.175   2.76348e-12
      355.269   2.72978e-12
      355.364   2.69613e-12
      355.459   2.66289e-12
      355.553   2.63038e-12
      355.648   2.59793e-12
      355.743   2.56587e-12
      355.838   2.53415e-12
      355.933   2.50287e-12
      356.027   2.47226e-12
      356.122   2.44168e-12
      356.217   2.41148e-12
      356.312   2.38166e-12
      356.407   2.35218e-12
      356.502   2.32305e-12
      356.597   2.29427e-12
      356.692   2.26584e-12
      356.787   2.23776e-12
      356.882   2.20999e-12
      356.977   2.18258e-12
      357.073   2.15521e-12
      357.168   2.12844e-12
      357.263   2.10200e-12
      357.358   2.07587e-12
      357.453   2.05007e-12
      357.549   2.02431e-12
      357.644   1.99912e-12
      357.739   1.97425e-12
      357.835   1.94939e-12
      357.930   1.92510e-12
      358.025   1.90111e-12
      358.121   1.87716e-12
      358.216   1.85374e-12
      358.312   1.83035e-12
      358.407   1.80751e-12
      358.503   1.78469e-12
      358.598   1.76240e-12
      358.694   1.74014e-12
      358.790   1.71814e-12
      358.885   1.69663e-12
      358.981   1.67517e-12
      359.076   1.65420e-12
      359.172   1.63326e-12
      359.268   1.61256e-12
      359.364   1.59212e-12
      359.459   1.57216e-12
      359.555   1.55221e-12
      359.651   1.53251e-12
      359.747   1.51306e-12
      359.843   1.49384e-12
      359.939   1.47485e-12
      360.035   1.45610e-12
      360.131   1.43759e-12
      360.227   1.41929e-12
      360.323   1.40122e-12
      360.419   1.38338e-12
      360.515   1.36576e-12
      360.611   1.34834e-12
      360.707   1.33113e-12
      360.803   1.31416e-12
      360.899   1.29737e-12
      360.995   1.28081e-12
      361.092   1.26427e-12
      361.188   1.24810e-12
      361.284   1.23214e-12
      361.380   1.21637e-12
      361.477   1.20064e-12
      361.573   1.18525e-12
      361.669   1.17006e-12
      361.766   1.15490e-12
      361.862   1.14009e-12
      361.959   1.12531e-12
      362.055   1.11084e-12
      362.152   1.09643e-12
      362.248   1.08234e-12
      362.345   1.06826e-12
      362.441   1.05452e-12
      362.538   1.04081e-12
      362.635   1.02727e-12
      362.731   1.01403e-12
      362.828   1.00082e-12
      362.925   9.87774e-13
      363.021   9.75025e-13
      363.118   9.62311e-13
      363.215   9.49748e-13
      363.312   9.37342e-13
      363.409   9.25100e-13
      363.505   9.13131e-13
      363.602   9.01184e-13
      363.699   8.89396e-13
      363.796   8.77753e-13
      363.893   8.66255e-13
      363.990   8.54904e-13
      364.087   8.43697e-13
      364.184   8.32631e-13
      364.281   8.21701e-13
      364.378   8.10914e-13
      364.475   8.00262e-13
      364.573   7.89634e-13
      364.670   7.79251e-13
      364.767   7.69000e-13
      364.864   7.58877e-13
      364.961   7.48882e-13
      365.059   7.38915e-13
      365.156   7.29179e-13
      365.253   7.19561e-13
      365.351   7.09969e-13
      365.448   7.00595e-13
      365.545   6.91345e-13
      365.643   6.82115e-13
      365.740   6.73094e-13
      365.838   6.64101e-13
      365.935   6.55315e-13
      366.033   6.46553e-13
      366.130   6.37987e-13
      366.228   6.29449e-13
      366.326   6.21021e-13
      366.423   6.12786e-13
      366.521   6.04574e-13
      366.618   5.96545e-13
      366.716   5.88541e-13
      366.814   5.80645e-13
      366.912   5.72851e-13
      367.010   5.65153e-13
      367.107   5.57633e-13
      367.205   5.50133e-13
      367.303   5.42733e-13
      367.401   5.35429e-13
      367.499   5.28217e-13
      367.597   5.21101e-13
      367.695   5.14079e-13
      367.793   5.07150e-13
      367.891   5.00311e-13
      367.989   4.93555e-13
      368.087   4.86892e-13
      368.185   4.80317e-13
      368.283   4.73825e-13
      368.381   4.67416e-13
      368.480   4.61031e-13
      368.578   4.54793e-13
      368.676   4.48638e-13
      368.774   4.42564e-13
      368.873   4.36508e-13
      368.971   4.30592e-13
      369.069   4.24753e-13
      369.168   4.18930e-13
      369.266   4.13245e-13
      369.364   4.07634e-13
      369.463   4.02042e-13
      369.561   3.96580e-13
      369.660   3.91134e-13
      369.758   3.85815e-13
      369.857   3.80515e-13
      369.955   3.75337e-13
      370.054   3.70174e-13
      370.153   3.65081e-13
      370.251   3.60108e-13
      370.350   3.55151e-13
      370.449   3.50261e-13
      370.547   3.45484e-13
      370.646   3.40719e-13
      370.745   3.36023e-13
      370.844   3.31389e-13
      370.943   3.26817e-13
      371.041   3.22352e-13
      371.140   3.17900e-13
      371.239   3.13508e-13
      371.338   3.09177e-13
      371.437   3.04905e-13
      371.536   3.00690e-13
      371.635   2.96530e-13
      371.734   2.92427e-13
      371.833   2.88381e-13
      371.932   2.84389e-13
      372.032   2.80411e-13
      372.131   2.76525e-13
      372.230   2.72695e-13
      372.329   2.68916e-13
      372.428   2.65187e-13
      372.528   2.61473e-13
      372.627   2.57848e-13
      372.726   2.54270e-13
      372.826   2.50706e-13
      372.925   2.47226e-13
      373.024   2.43792e-13
      373.124   2.40370e-13
      373.223   2.37031e-13
      373.323   2.33705e-13
      373.422   2.30456e-13
      373.522   2.27218e-13
      373.621   2.24060e-13
      373.721   2.20911e-13
      373.820   2.17838e-13
      373.920   2.14776e-13
      374.020   2.11753e-13
      374.119   2.08806e-13
      374.219   2.05867e-13
      374.319   2.02971e-13
      374.419   2.00116e-13
      374.518   1.97326e-13
      374.618   1.94548e-13
      374.718   1.91806e-13
      374.818   1.89105e-13
      374.918   1.86443e-13
      375.018   1.83814e-13
      375.118   1.81224e-13
      375.218   1.78668e-13
      375.318   1.76150e-13
      375.418   1.73664e-13
      375.518   1.71216e-13
      375.618   1.68801e-13
      375.718   1.66419e-13
      375.818   1.64070e-13
      375.918   1.61754e-13
      376.019   1.59449e-13
      376.119   1.57197e-13
      376.219   1.54978e-13
      376.319   1.52788e-13
      376.420   1.50609e-13
      376.520   1.48481e-13
      376.620   1.46384e-13
      376.721   1.44294e-13
      376.821   1.42255e-13
      376.922   1.40225e-13
      377.022   1.38242e-13
      377.122   1.36288e-13
      377.223   1.34342e-13
      377.323   1.32443e-13
      377.424   1.30551e-13
      377.525   1.28687e-13
      377.625   1.26866e-13
      377.726   1.25054e-13
      377.827   1.23268e-13
      377.927   1.21523e-13
      378.028   1.19787e-13
      378.129   1.18075e-13
      378.230   1.16389e-13
      378.330   1.14745e-13
      378.431   1.13109e-13
      378.532   1.11498e-13
      378.633   1.09908e-13
      378.734   1.08340e-13
      378.835   1.06795e-13
      378.936   1.05272e-13
      379.037   1.03771e-13
      379.138   1.02291e-13
      379.239   1.00831e-13
      379.340   9.93939e-14
      379.441   9.79762e-14
      379.542   9.65781e-14
      379.643   9.52005e-14
      379.745   9.38292e-14
      379.846   9.24901e-14
      379.947   9.11700e-14
      380.048   8.98695e-14
      380.150   8.85743e-14
      380.251   8.73100e-14
      380.352   8.60643e-14
      380.454   8.48244e-14
      380.555   8.36137e-14
      380.656   8.24200e-14
      380.758   8.12318e-14
      380.859   8.00724e-14
      380.961   7.89188e-14
      381.062   7.77924e-14
      381.164   7.66708e-14
      381.266   7.55656e-14
      381.367   7.44869e-14
      381.469   7.34132e-14
      381.570   7.23655e-14
      381.672   7.13225e-14
      381.774   7.02941e-14
      381.876   6.92806e-14
      381.977   6.82916e-14
      382.079   6.73073e-14
      382.181   6.63369e-14
      382.283   6.53811e-14
      382.385   6.44386e-14
      382.487   6.35090e-14
      382.589   6.25936e-14
      382.691   6.16913e-14
      382.793   6.08020e-14
      382.895   5.99256e-14
      382.997   5.90614e-14
      383.099   5.82098e-14
      383.201   5.73708e-14
      383.303   5.65435e-14
      383.405   5.57282e-14
      383.507   5.49245e-14
      383.610   5.41251e-14
      383.712   5.33445e-14
      383.814   5.25757e-14
      383.916   5.18179e-14
      384.019   5.10633e-14
      384.121   5.03269e-14
      384.223   4.96013e-14
      384.326   4.88794e-14
      384.428   4.81741e-14
      384.531   4.74720e-14
      384.633   4.67870e-14
      384.736   4.61050e-14
      384.838   4.54394e-14
      384.941   4.47771e-14
      385.043   4.41306e-14
      385.146   4.34875e-14
      385.249   4.28538e-14
      385.351   4.22351e-14
      385.454   4.16193e-14
      385.557   4.10128e-14
      385.660   4.04149e-14
      385.762   3.98316e-14
      385.865   3.92510e-14
      385.968   3.86786e-14
      386.071   3.81144e-14
      386.174   3.75587e-14
      386.277   3.70113e-14
      386.380   3.64716e-14
      386.483   3.59396e-14
      386.586   3.54158e-14
      386.689   3.48993e-14
      386.792   3.43902e-14
      386.895   3.38887e-14
      386.998   3.33944e-14
      387.101   3.29074e-14
      387.204   3.24270e-14
      387.308   3.19493e-14
      387.411   3.14831e-14
      387.514   3.10237e-14
      387.617   3.05710e-14
      387.721   3.01207e-14
      387.824   2.96811e-14
      387.927   2.92475e-14
      388.031   2.88164e-14
      388.134   2.83958e-14
      388.238   2.79774e-14
      388.341   2.75687e-14
      388.445   2.71622e-14
      388.548   2.67652e-14
      388.652   2.63706e-14
      388.755   2.59854e-14
      388.859   2.56021e-14
      388.962   2.52280e-14
      389.066   2.48556e-14
      389.170   2.44890e-14
      389.274   2.41275e-14
      389.377   2.37747e-14
      389.481   2.34235e-14
      389.585   2.30777e-14
      389.689   2.27369e-14
      389.793   2.24009e-14
      389.897   2.20701e-14
      390.000   2.17470e-14
      390.104   2.14257e-14
      390.208   2.11089e-14
      390.312   2.07969e-14
      390.416   2.04893e-14
      390.520   2.01858e-14
      390.625   1.98839e-14
      390.729   1.95896e-14
      390.833   1.92993e-14
      390.937   1.90134e-14
      391.041   1.87316e-14
      391.145   1.84541e-14
      391.250   1.81778e-14
      391.354   1.79083e-14
      391.458   1.76427e-14
      391.563   1.73784e-14
      391.667   1.71206e-14
      391.771   1.68665e-14
      391.876   1.66136e-14
      391.980   1.63669e-14
      392.085   1.61214e-14
      392.189   1.58819e-14
      392.294   1.56436e-14
      392.398   1.54111e-14
      392.503   1.51797e-14
      392.607   1.49539e-14
      392.712   1.47294e-14
      392.817   1.45080e-14
      392.921   1.42921e-14
      393.026   1.40772e-14
      393.131   1.38656e-14
      393.236   1.36569e-14
      393.340   1.34533e-14
      393.445   1.32509e-14
      393.550   1.30514e-14
      393.655   1.28548e-14
      393.760   1.26612e-14
      393.865   1.24703e-14
      393.970   1.22824e-14
      394.075   1.20971e-14
      394.180   1.19147e-14
      394.285   1.17349e-14
      394.390   1.15578e-14
      394.495   1.13831e-14
      394.600   1.12112e-14
      394.706   1.10402e-14
      394.811   1.08733e-14
      394.916   1.07088e-14
      395.021   1.05467e-14
      395.126   1.03872e-14
      395.232   1.02284e-14
      395.337   1.00734e-14
      395.443   9.91938e-15
      395.548   9.76901e-15
      395.653   9.62091e-15
      395.759   9.47352e-15
      395.864   9.32978e-15
      395.970   9.18679e-15
      396.075   9.04726e-15
      396.181   8.90845e-15
      396.286   8.77295e-15
      396.392   8.63835e-15
      396.498   8.50571e-15
      396.603   8.37614e-15
      396.709   8.24741e-15
      396.815   8.12052e-15
      396.921   7.99551e-15
      397.026   7.87363e-15
      397.132   7.75234e-15
      397.238   7.63296e-15
      397.344   7.51522e-15
      397.450   7.39946e-15
      397.556   7.28524e-15
      397.662   7.17277e-15
      397.768   7.06205e-15
      397.874   6.95294e-15
      397.980   6.84546e-15
      398.086   6.73956e-15
      398.192   6.63532e-15
      398.298   6.53259e-15
      398.404   6.43141e-15
      398.510   6.33173e-15
      398.617   6.23272e-15
      398.723   6.13603e-15
      398.829   6.04077e-15
      398.935   5.94696e-15
      399.042   5.85374e-15
      399.148   5.76270e-15
      399.255   5.67229e-15
      399.361   5.58406e-15
      399.467   5.49704e-15
      399.574   5.41067e-15
      399.680   5.32633e-15
      399.787   5.24248e-15
      399.893       0.00000
      400.000       0.00000
