Filter Al-poly
observation_date 22Sept2023
wavelength effective area
      1.00000   2.78456e-10
      1.10000   7.94911e-10
      1.20000   2.06646e-09
      1.30000   4.94129e-09
      1.40000   1.12121e-08
      1.50000   2.39195e-08
      1.60000   4.84222e-08
      1.70000   9.40045e-08
      1.80000   1.75010e-07
      1.90000   3.14546e-07
      2.00000   5.46834e-07
      2.10000   9.23630e-07
      2.20000   1.52297e-06
      2.30000   2.44820e-06
      2.40000   3.84358e-06
      2.50000   5.87404e-06
      2.60000   8.96443e-06
      2.70000   1.33653e-05
      2.80000   1.95457e-05
      2.90000   2.82906e-05
      3.00000   4.03092e-05
      3.10000   5.66958e-05
      3.20000   7.88743e-05
      3.30000   0.000108614
      3.40000   0.000148010
      3.50000   0.000199745
      3.60000   0.000268327
      3.70000   0.000356633
      3.80000   0.000472045
      3.90000   0.000621349
      4.00000   0.000812799
      4.10000    0.00105833
      4.20000    0.00137313
      4.30000    0.00177654
      4.40000    0.00229238
      4.50000    0.00294994
      4.60000    0.00378345
      4.70000    0.00485242
      4.80000    0.00621720
      4.90000    0.00786356
      5.00000     0.0102081
      5.10000     0.0130650
      5.20000     0.0167718
      5.30000     0.0213484
      5.40000     0.0271313
      5.50000     0.0345419
      5.60000     0.0426287
      5.70000     0.0554261
      5.80000     0.0649976
      5.90000     0.0992714
      6.00000      0.133488
      6.10000      0.170671
      6.20000      0.209675
      6.30000      0.246919
      6.40000      0.278925
      6.50000      0.302553
      6.60000      0.313340
      6.70000      0.323294
      6.80000      0.323907
      6.90000      0.425193
      7.00000      0.462681
      7.10000      0.489653
      7.20000      0.511204
      7.30000      0.528930
      7.40000      0.542604
      7.50000      0.553614
      7.60000      0.562068
      7.70000      0.566474
      7.80000      0.565716
      7.90000      0.565652
      8.00000      0.954759
      8.10000       1.05058
      8.20000       1.07339
      8.30000       1.09156
      8.40000       1.10570
      8.50000       1.11829
      8.60000       1.12897
      8.70000       1.13844
      8.80000       1.14634
      8.90000       1.15320
      9.00000       1.15894
      9.10000       1.16358
      9.20000       1.16735
      9.30000       1.17012
      9.40000       1.17206
      9.50000       1.17322
      9.60000       1.17352
      9.70000       1.17310
      9.80000       1.17207
      9.90000       1.17047
      10.0000       1.16835
      10.1000       1.16573
      10.2000       1.16263
      10.3000       1.15899
      10.4000       1.15484
      10.5000       1.15021
      10.6000       1.14513
      10.7000       1.13962
      10.8000       1.13369
      10.9000       1.12736
      11.0000       1.12065
      11.1000       1.11360
      11.2000       1.10619
      11.3000       1.09848
      11.4000       1.09044
      11.5000       1.08205
      11.6000       1.07335
      11.7000       1.06423
      11.8000       1.05480
      11.9000       1.04487
      12.0000       1.03336
      12.1000       1.02547
      12.2000       1.03548
      12.3000       1.03465
      12.4000       1.02614
      12.5000       1.01683
      12.6000       1.00711
      12.7000      0.997145
      12.8000      0.986984
      12.9000      0.976640
      13.0000      0.966169
      13.1000      0.955608
      13.2000      0.944982
      13.3000      0.934308
      13.4000      0.923615
      13.5000      0.913061
      13.6000      0.902615
      13.7000      0.892170
      13.8000      0.881714
      13.9000      0.871286
      14.0000      0.860880
      14.1000      0.850470
      14.2000      0.840055
      14.3000      0.829628
      14.4000      0.819158
      14.5000      0.808658
      14.6000      0.798111
      14.7000      0.787529
      14.8000      0.776924
      14.9000      0.766299
      15.0000      0.755669
      15.1000      0.745057
      15.2000      0.734465
      15.3000      0.723898
      15.4000      0.713360
      15.5000      0.702860
      15.6000      0.692443
      15.7000      0.682068
      15.8000      0.671789
      15.9000      0.661603
      16.0000      0.651503
      16.1000      0.641501
      16.2000      0.631617
      16.3000      0.621802
      16.4000      0.612058
      16.5000      0.602380
      16.6000      0.592760
      16.7000      0.583197
      16.8000      0.573693
      16.9000      0.564247
      17.0000      0.554864
      17.1000      0.545539
      17.2000      0.536267
      17.3000      0.527060
      17.4000      0.518056
      17.5000      0.509285
      17.6000      0.500681
      17.7000      0.492317
      17.8000      0.484314
      17.9000      0.476394
      18.0000      0.468486
      18.1000      0.460622
      18.2000      0.452747
      18.3000      0.444832
      18.4000      0.436830
      18.5000      0.428773
      18.6000      0.420648
      18.7000      0.412393
      18.8000      0.404197
      18.9000      0.396068
      19.0000      0.388003
      19.1000      0.380040
      19.2000      0.372171
      19.3000      0.364419
      19.4000      0.356790
      19.5000      0.349270
      19.6000      0.341918
      19.7000      0.334668
      19.8000      0.327515
      19.9000      0.320500
      20.0000      0.313564
      20.1000      0.306713
      20.2000      0.299929
      20.3000      0.293211
      20.4000      0.286582
      20.5000      0.280005
      20.6000      0.273482
      20.7000      0.267036
      20.8000      0.260644
      20.9000      0.254294
      21.0000      0.248012
      21.1000      0.241801
      21.2000      0.235591
      21.3000      0.229433
      21.4000      0.223345
      21.5000      0.217260
      21.6000      0.211171
      21.7000      0.205090
      21.8000      0.199041
      21.9000      0.192771
      22.0000      0.186487
      22.1000      0.180086
      22.2000      0.173298
      22.3000      0.166191
      22.4000      0.156410
      22.5000      0.145873
      22.6000      0.124279
      22.7000      0.113574
      22.8000      0.155394
      22.9000      0.207711
      23.0000      0.265281
      23.1000      0.302425
      23.2000      0.319554
      23.3000      0.323403
      23.4000      0.320329
      23.5000      0.316821
      23.6000      0.313224
      23.7000      0.308767
      23.8000      0.304265
      23.9000      0.299645
      24.0000      0.295022
      24.1000      0.290190
      24.2000      0.285382
      24.3000      0.280569
      24.4000      0.275767
      24.5000      0.270934
      24.6000      0.266139
      24.7000      0.261381
      24.8000      0.256656
      24.9000      0.251961
      25.0000      0.247311
      25.1000      0.242712
      25.2000      0.238155
      25.3000      0.233644
      25.4000      0.229183
      25.5000      0.224785
      25.6000      0.220446
      25.7000      0.216179
      25.8000      0.211959
      25.9000      0.207805
      26.0000      0.203692
      26.1000      0.199639
      26.2000      0.195627
      26.3000      0.191688
      26.4000      0.187784
      26.5000      0.183945
      26.6000      0.180140
      26.7000      0.176410
      26.8000      0.172727
      26.9000      0.169093
      27.0000      0.165496
      27.1000      0.161920
      27.2000      0.158371
      27.3000      0.155217
      27.4000      0.152542
      27.5000      0.149766
      27.6000      0.146664
      27.7000      0.143586
      27.8000      0.140482
      27.9000      0.137408
      28.0000      0.134404
      28.1000      0.131438
      28.2000      0.128537
      28.3000      0.125688
      28.4000      0.122886
      28.5000      0.120149
      28.6000      0.117444
      28.7000      0.114851
      28.8000      0.112283
      28.9000      0.109776
      29.0000      0.107304
      29.1000      0.104878
      29.2000      0.102499
      29.3000      0.100150
      29.4000     0.0978647
      29.5000     0.0956022
      29.6000     0.0933975
      29.7000     0.0912246
      29.8000     0.0890930
      29.9000     0.0870088
      30.0000     0.0849479
      30.1000     0.0829491
      30.2000     0.0809711
      30.3000     0.0822382
      30.4000     0.0853215
      30.5000     0.0872911
      30.6000     0.0852821
      30.7000     0.0832941
      30.8000     0.0813588
      30.9000     0.0794536
      31.0000     0.0775810
      31.1000     0.0757559
      31.2000     0.0739505
      31.3000     0.0721971
      31.4000     0.0704696
      31.5000     0.0687733
      31.6000     0.0671215
      31.7000     0.0654879
      31.8000     0.0639025
      31.9000     0.0623424
      32.0000     0.0608090
      32.1000     0.0593203
      32.2000     0.0578483
      32.3000     0.0564185
      32.4000     0.0550162
      32.5000     0.0536367
      32.6000     0.0523278
      32.7000     0.0510378
      32.8000     0.0497797
      32.9000     0.0485503
      33.0000     0.0473349
      33.1000     0.0461960
      33.2000     0.0450827
      33.3000     0.0439909
      33.4000     0.0429295
      33.5000     0.0418805
      33.6000     0.0408601
      33.7000     0.0398629
      33.8000     0.0388767
      33.9000     0.0379256
      34.0000     0.0369883
      34.1000     0.0360705
      34.2000     0.0351787
      34.3000     0.0342966
      34.4000     0.0334354
      34.5000     0.0325979
      34.6000     0.0317698
      34.7000     0.0309518
      34.8000     0.0301433
      34.9000     0.0293440
      35.0000     0.0285767
      35.1000     0.0278205
      35.2000     0.0270756
      35.3000     0.0263607
      35.4000     0.0256539
      35.5000     0.0249621
      35.6000     0.0242948
      35.7000     0.0236352
      35.8000     0.0229932
      35.9000     0.0223711
      36.0000     0.0217561
      36.1000     0.0211609
      36.2000     0.0205815
      36.3000     0.0200090
      36.4000     0.0194572
      36.5000     0.0189182
      36.6000     0.0183856
      36.7000     0.0178746
      36.8000     0.0173739
      36.9000     0.0168792
      37.0000     0.0164060
      37.1000     0.0159414
      37.2000     0.0154824
      37.3000     0.0150446
      37.4000     0.0146142
      37.5000     0.0141890
      37.6000     0.0137840
      37.7000     0.0133856
      37.8000     0.0129921
      37.9000     0.0126176
      38.0000     0.0122495
      38.1000     0.0118859
      38.2000     0.0115397
      38.3000     0.0111999
      38.4000     0.0108643
      38.5000     0.0105443
      38.6000     0.0102310
      38.7000    0.00992169
      38.8000    0.00962596
      38.9000    0.00933759
      39.0000    0.00905284
      39.1000    0.00877959
      39.2000    0.00851453
      39.3000    0.00825285
      39.4000    0.00800035
      39.5000    0.00775699
      39.6000    0.00751677
      39.7000    0.00728345
      39.8000    0.00706049
      39.9000    0.00684040
      40.0000    0.00662484
      40.1000    0.00642075
      40.2000    0.00621932
      40.3000    0.00602053
      40.4000    0.00583356
      40.5000    0.00564949
      40.6000    0.00546783
      40.7000    0.00529509
      40.8000    0.00512707
      40.9000    0.00496129
      41.0000    0.00480161
      41.1000    0.00464847
      41.2000    0.00449739
      41.3000    0.00434986
      41.4000    0.00421074
      41.5000    0.00407347
      41.6000    0.00393807
      41.7000    0.00381075
      41.8000    0.00368604
      41.9000    0.00356303
      42.0000    0.00344541
      42.1000    0.00333243
      42.2000    0.00322098
      42.3000    0.00311215
      42.4000    0.00300983
      42.5000    0.00290892
      42.6000    0.00280940
      42.7000    0.00271568
      42.8000    0.00262444
      42.9000    0.00253445
      43.0000    0.00244767
      43.1000    0.00236534
      43.2000    0.00228416
      43.3000    0.00220411
      43.4000    0.00696892
      43.5000     0.0159732
      43.6000     0.0336341
      43.7000     0.0579260
      43.8000     0.0758458
      43.9000     0.0791875
      44.0000     0.0768937
      44.1000     0.0693721
      44.2000     0.0676852
      44.3000     0.0665007
      44.4000     0.0653399
      44.5000     0.0642090
      44.6000     0.0630817
      44.7000     0.0619581
      44.8000     0.0608771
      44.9000     0.0598051
      45.0000     0.0587366
      45.1000     0.0576843
      45.2000     0.0566662
      45.3000     0.0556513
      45.4000     0.0546397
      45.5000     0.0536600
      45.6000     0.0526968
      45.7000     0.0517369
      45.8000     0.0507816
      45.9000     0.0498689
      46.0000     0.0489592
      46.1000     0.0480524
      46.2000     0.0472032
      46.3000     0.0464506
      46.4000     0.0457005
      46.5000     0.0449528
      46.6000     0.0442416
      46.7000     0.0435496
      46.8000     0.0428600
      46.9000     0.0421725
      47.0000     0.0415334
      47.1000     0.0408996
      47.2000     0.0402678
      47.3000     0.0396431
      47.4000     0.0390442
      47.5000     0.0384472
      47.6000     0.0378521
      47.7000     0.0372677
      47.8000     0.0366991
      47.9000     0.0361322
      48.0000     0.0355673
      48.1000     0.0350167
      48.2000     0.0344777
      48.3000     0.0339403
      48.4000     0.0334047
      48.5000     0.0328858
      48.6000     0.0323746
      48.7000     0.0318650
      48.8000     0.0313570
      48.9000     0.0308681
      49.0000     0.0303841
      49.1000     0.0299017
      49.2000     0.0294210
      49.3000     0.0289601
      49.4000     0.0285023
      49.5000     0.0280460
      49.6000     0.0275911
      49.7000     0.0271564
      49.8000     0.0267235
      49.9000     0.0262921
      50.0000     0.0258625
      50.1000     0.0254485
      50.2000     0.0250460
      50.3000     0.0246485
      50.4000     0.0242569
      50.5000     0.0238711
      50.6000     0.0234910
      50.7000     0.0231162
      50.8000     0.0227462
      50.9000     0.0223819
      51.0000     0.0220237
      51.1000     0.0216711
      51.2000     0.0213235
      51.3000     0.0209807
      51.4000     0.0206436
      51.5000     0.0203111
      51.6000     0.0199830
      51.7000     0.0196594
      51.8000     0.0193383
      51.9000     0.0190217
      52.0000     0.0187100
      52.1000     0.0184031
      52.2000     0.0181002
      52.3000     0.0178013
      52.4000     0.0175076
      52.5000     0.0172182
      52.6000     0.0169325
      52.7000     0.0166504
      52.8000     0.0163722
      52.9000     0.0160986
      53.0000     0.0158292
      53.1000     0.0155636
      53.2000     0.0153024
      53.3000     0.0150448
      53.4000     0.0147912
      53.5000     0.0145414
      53.6000     0.0142950
      53.7000     0.0140522
      53.8000     0.0138133
      53.9000     0.0135780
      54.0000     0.0133466
      54.1000     0.0131193
      54.2000     0.0128949
      54.3000     0.0126735
      54.4000     0.0124557
      54.5000     0.0122414
      54.6000     0.0120303
      54.7000     0.0118227
      54.8000     0.0116183
      54.9000     0.0114170
      55.0000     0.0112189
      55.1000     0.0110238
      55.2000     0.0108222
      55.3000     0.0106151
      55.4000     0.0104112
      55.5000     0.0102106
      55.6000     0.0100137
      55.7000    0.00982030
      55.8000    0.00963004
      55.9000    0.00944314
      56.0000    0.00926071
      56.1000    0.00907792
      56.2000    0.00889533
      56.3000    0.00871633
      56.4000    0.00854041
      56.5000    0.00836738
      56.6000    0.00819736
      56.7000    0.00803061
      56.8000    0.00786680
      56.9000    0.00770622
      57.0000    0.00754887
      57.1000    0.00739439
      57.2000    0.00724243
      57.3000    0.00709296
      57.4000    0.00694649
      57.5000    0.00680286
      57.6000    0.00666181
      57.7000    0.00652327
      57.8000    0.00638753
      57.9000    0.00625431
      58.0000    0.00612354
      58.1000    0.00599512
      58.2000    0.00586938
      58.3000    0.00574600
      58.4000    0.00562481
      58.5000    0.00550577
      58.6000    0.00538912
      58.7000    0.00527484
      58.8000    0.00516275
      58.9000    0.00505269
      59.0000    0.00494464
      59.1000    0.00483873
      59.2000    0.00473479
      59.3000    0.00463291
      59.4000    0.00453311
      59.5000    0.00443542
      59.6000    0.00433960
      59.7000    0.00424547
      59.8000    0.00415307
      59.9000    0.00406249
      60.0000    0.00397391
      60.1000    0.00388708
      60.2000    0.00380196
      60.3000    0.00371849
      60.4000    0.00363663
      60.5000    0.00355653
      60.6000    0.00347796
      60.7000    0.00340088
      60.8000    0.00332534
      60.9000    0.00325126
      61.0000    0.00317871
      61.1000    0.00310762
      61.2000    0.00303798
      61.3000    0.00296980
      61.4000    0.00290301
      61.5000    0.00283756
      61.6000    0.00277347
      61.7000    0.00271068
      61.8000    0.00264950
      61.9000    0.00258972
      62.0000    0.00253118
      62.1000    0.00247389
      62.2000    0.00241790
      62.3000    0.00236304
      62.4000    0.00230927
      62.5000    0.00225657
      62.6000    0.00220493
      62.7000    0.00215435
      62.8000    0.00210503
      62.9000    0.00205678
      63.0000    0.00200955
      63.1000    0.00196332
      63.2000    0.00191804
      63.3000    0.00187368
      63.4000    0.00183022
      63.5000    0.00178774
      63.6000    0.00174617
      63.7000    0.00170550
      63.8000    0.00166572
      63.9000    0.00162680
      64.0000    0.00158870
      64.1000    0.00155142
      64.2000    0.00151497
      64.3000    0.00147932
      64.4000    0.00144444
      64.5000    0.00141032
      64.6000    0.00137692
      64.7000    0.00134424
      64.8000    0.00131224
      64.9000    0.00128094
      65.0000    0.00125032
      65.1000    0.00122045
      65.2000    0.00119126
      65.3000    0.00116270
      65.4000    0.00113477
      65.5000    0.00110743
      65.6000    0.00108066
      65.7000    0.00105449
      65.8000    0.00102892
      65.9000    0.00100395
      66.0000   0.000979560
      66.1000   0.000955765
      66.2000   0.000932503
      66.3000   0.000909748
      66.4000   0.000887479
      66.5000   0.000865697
      66.6000   0.000844404
      66.7000   0.000823608
      66.8000   0.000803307
      66.9000   0.000783596
      67.0000   0.000764449
      67.1000   0.000745746
      67.2000   0.000727460
      67.3000   0.000709603
      67.4000   0.000692149
      67.5000   0.000675099
      67.6000   0.000658445
      67.7000   0.000642176
      67.8000   0.000626258
      67.9000   0.000610666
      68.0000   0.000595493
      68.1000   0.000580746
      68.2000   0.000566334
      68.3000   0.000552265
      68.4000   0.000538534
      68.5000   0.000525130
      68.6000   0.000512034
      68.7000   0.000499234
      68.8000   0.000486722
      68.9000   0.000474626
      69.0000   0.000463540
      69.1000   0.000454128
      69.2000   0.000445704
      69.3000   0.000437518
      69.4000   0.000429643
      69.5000   0.000421711
      69.6000   0.000413649
      69.7000   0.000405889
      69.8000   0.000398470
      69.9000   0.000391187
      70.0000   0.000384025
      70.1000   0.000376885
      70.2000   0.000370345
      70.3000   0.000364386
      70.4000   0.000358500
      70.5000   0.000352764
      70.6000   0.000347163
      70.7000   0.000341649
      70.8000   0.000336212
      70.9000   0.000330706
      71.0000   0.000325149
      71.1000   0.000319837
      71.2000   0.000314765
      71.3000   0.000309474
      71.4000   0.000303908
      71.5000   0.000298731
      71.6000   0.000294104
      71.7000   0.000289473
      71.8000   0.000284746
      71.9000   0.000280182
      72.0000   0.000275926
      72.1000   0.000271622
      72.2000   0.000266834
      72.3000   0.000262141
      72.4000   0.000257951
      72.5000   0.000253830
      72.6000   0.000249769
      72.7000   0.000245770
      72.8000   0.000241833
      72.9000   0.000237962
      73.0000   0.000234229
      73.1000   0.000230592
      73.2000   0.000227014
      73.3000   0.000223491
      73.4000   0.000220049
      73.5000   0.000216705
      73.6000   0.000213409
      73.7000   0.000210161
      73.8000   0.000206960
      73.9000   0.000203805
      74.0000   0.000200715
      74.1000   0.000197872
      74.2000   0.000195128
      74.3000   0.000192228
      74.4000   0.000189222
      74.5000   0.000186302
      74.6000   0.000183510
      74.7000   0.000180757
      74.8000   0.000178042
      74.9000   0.000175364
      75.0000   0.000172705
      75.1000   0.000170079
      75.2000   0.000167493
      75.3000   0.000164946
      75.4000   0.000162456
      75.5000   0.000160044
      75.6000   0.000157667
      75.7000   0.000155323
      75.8000   0.000153014
      75.9000   0.000150758
      76.0000   0.000148545
      76.1000   0.000146365
      76.2000   0.000144217
      76.3000   0.000142106
      76.4000   0.000140055
      76.5000   0.000138035
      76.6000   0.000136041
      76.7000   0.000134072
      76.8000   0.000132128
      76.9000   0.000130210
      77.0000   0.000128318
      77.1000   0.000126454
      77.2000   0.000124619
      77.3000   0.000122812
      77.4000   0.000121033
      77.5000   0.000119277
      77.6000   0.000117520
      77.7000   0.000115785
      77.8000   0.000114073
      77.9000   0.000112382
      78.0000   0.000110696
      78.1000   0.000108986
      78.2000   0.000107304
      78.3000   0.000105751
      78.4000   0.000104260
      78.5000   0.000102780
      78.6000   0.000101291
      78.7000   9.98227e-05
      78.8000   9.83352e-05
      78.9000   9.68575e-05
      79.0000   9.53991e-05
      79.1000   9.39598e-05
      79.2000   9.25433e-05
      79.3000   9.11787e-05
      79.4000   8.98456e-05
      79.5000   8.85227e-05
      79.6000   8.71874e-05
      79.7000   8.58710e-05
      79.8000   8.45580e-05
      79.9000   8.32563e-05
      80.0000   8.19699e-05
      80.1000   8.06649e-05
      80.2000   7.93760e-05
      80.3000   7.80667e-05
      80.4000   7.67411e-05
      80.5000   7.54355e-05
      80.6000   7.41521e-05
      80.7000   7.28902e-05
      80.8000   7.16545e-05
      80.9000   7.04524e-05
      81.0000   6.92695e-05
      81.1000   6.81072e-05
      81.2000   6.69643e-05
      81.3000   6.58408e-05
      81.4000   6.48004e-05
      81.5000   6.37795e-05
      81.6000   6.27928e-05
      81.7000   6.18604e-05
      81.8000   6.09445e-05
      81.9000   6.00689e-05
      82.0000   5.92196e-05
      82.1000   5.83839e-05
      82.2000   5.75388e-05
      82.3000   5.67074e-05
      82.4000   5.59204e-05
      82.5000   5.52109e-05
      82.6000   5.45086e-05
      82.7000   5.37984e-05
      82.8000   5.30774e-05
      82.9000   5.23645e-05
      83.0000   5.16669e-05
      83.1000   5.09814e-05
      83.2000   5.03054e-05
      83.3000   4.96384e-05
      83.4000   4.89809e-05
      83.5000   4.83338e-05
      83.6000   4.77073e-05
      83.7000   4.70883e-05
      83.8000   4.64734e-05
      83.9000   4.58578e-05
      84.0000   4.52497e-05
      84.1000   4.46569e-05
      84.2000   4.40829e-05
      84.3000   4.35158e-05
      84.4000   4.29503e-05
      84.5000   4.23879e-05
      84.6000   4.18328e-05
      84.7000   4.12928e-05
      84.8000   4.07643e-05
      84.9000   4.02427e-05
      85.0000   3.97160e-05
      85.1000   3.91925e-05
      85.2000   3.86761e-05
      85.3000   3.81836e-05
      85.4000   3.77003e-05
      85.5000   3.72235e-05
      85.6000   3.67442e-05
      85.7000   3.62704e-05
      85.8000   3.58021e-05
      85.9000   3.53394e-05
      86.0000   3.48823e-05
      86.1000   3.44311e-05
      86.2000   3.39964e-05
      86.3000   3.35670e-05
      86.4000   3.31425e-05
      86.5000   3.27228e-05
      86.6000   3.23080e-05
      86.7000   3.18984e-05
      86.8000   3.14695e-05
      86.9000   3.10456e-05
      87.0000   3.06275e-05
      87.1000   3.02201e-05
      87.2000   2.98187e-05
      87.3000   2.94228e-05
      87.4000   2.90238e-05
      87.5000   2.86284e-05
      87.6000   2.82377e-05
      87.7000   2.78569e-05
      87.8000   2.74819e-05
      87.9000   2.71112e-05
      88.0000   2.67449e-05
      88.1000   2.63830e-05
      88.2000   2.60259e-05
      88.3000   2.56797e-05
      88.4000   2.53438e-05
      88.5000   2.50133e-05
      88.6000   2.46850e-05
      88.7000   2.43577e-05
      88.8000   2.40349e-05
      88.9000   2.37158e-05
      89.0000   2.34001e-05
      89.1000   2.30887e-05
      89.2000   2.27807e-05
      89.3000   2.24758e-05
      89.4000   2.21736e-05
      89.5000   2.18751e-05
      89.6000   2.15803e-05
      89.7000   2.12890e-05
      89.8000   2.10012e-05
      89.9000   2.07167e-05
      90.0000   2.04361e-05
      90.1000   2.01596e-05
      90.2000   1.98819e-05
      90.3000   1.95969e-05
      90.4000   1.93156e-05
      90.5000   1.90387e-05
      90.6000   1.87697e-05
      90.7000   1.84995e-05
      90.8000   1.82275e-05
      90.9000   1.79528e-05
      91.0000   1.76808e-05
      91.1000   1.74125e-05
      91.2000   1.71452e-05
      91.3000   1.68773e-05
      91.4000   1.66127e-05
      91.5000   1.63526e-05
      91.6000   1.60967e-05
      91.7000   1.58614e-05
      91.8000   1.56555e-05
      91.9000   1.54831e-05
      92.0000   1.52938e-05
      92.1000   1.51028e-05
      92.2000   1.49036e-05
      92.3000   1.46976e-05
      92.4000   1.44891e-05
      92.5000   1.42836e-05
      92.6000   1.40808e-05
      92.7000   1.38806e-05
      92.8000   1.36831e-05
      92.9000   1.34902e-05
      93.0000   1.33042e-05
      93.1000   1.31207e-05
      93.2000   1.29398e-05
      93.3000   1.27667e-05
      93.4000   1.25980e-05
      93.5000   1.24314e-05
      93.6000   1.22665e-05
      93.7000   1.21030e-05
      93.8000   1.19408e-05
      93.9000   1.17805e-05
      94.0000   1.16219e-05
      94.1000   1.14651e-05
      94.2000   1.13104e-05
      94.3000   1.11586e-05
      94.4000   1.10120e-05
      94.5000   1.08675e-05
      94.6000   1.07251e-05
      94.7000   1.05848e-05
      94.8000   1.04465e-05
      94.9000   1.03099e-05
      95.0000   1.01752e-05
      95.1000   1.00426e-05
      95.2000   9.91146e-06
      95.3000   9.78166e-06
      95.4000   9.65361e-06
      95.5000   9.52872e-06
      95.6000   9.40508e-06
      95.7000   9.28278e-06
      95.8000   9.16064e-06
      95.9000   9.03957e-06
      96.0000   8.91987e-06
      96.1000   8.80151e-06
      96.2000   8.68450e-06
      96.3000   8.56942e-06
      96.4000   8.45585e-06
      96.5000   8.34381e-06
      96.6000   8.23359e-06
      96.7000   8.12530e-06
      96.8000   8.01818e-06
      96.9000   7.91229e-06
      97.0000   7.80769e-06
      97.1000   7.70477e-06
      97.2000   7.60290e-06
      97.3000   7.50102e-06
      97.4000   7.39937e-06
      97.5000   7.29921e-06
      97.6000   7.20029e-06
      97.7000   7.10307e-06
      97.8000   7.00744e-06
      97.9000   6.91329e-06
      98.0000   6.82029e-06
      98.1000   6.72842e-06
      98.2000   6.63788e-06
      98.3000   6.55845e-06
      98.4000   6.48478e-06
      98.5000   6.41519e-06
      98.6000   6.34643e-06
      98.7000   6.27838e-06
      98.8000   6.21092e-06
      98.9000   6.14407e-06
      99.0000   6.07804e-06
      99.1000   6.01257e-06
      99.2000   5.94731e-06
      99.3000   5.88083e-06
      99.4000   5.81509e-06
      99.5000   5.75003e-06
      99.6000   5.68608e-06
      99.7000   5.62555e-06
      99.8000   5.56804e-06
      99.9000   5.53186e-06
      100.000   5.52807e-06
      100.100   5.52241e-06
      100.200   5.51670e-06
      100.300   5.51094e-06
      100.400   5.50514e-06
      100.500   5.50005e-06
      100.600   5.49477e-06
      100.700   5.48939e-06
      100.800   5.48386e-06
      100.900   5.47819e-06
      101.000   5.47238e-06
      101.100   5.46645e-06
      101.200   5.46045e-06
      101.300   5.45440e-06
      101.400   5.44833e-06
      101.500   5.44228e-06
      101.600   5.43626e-06
      101.700   5.43081e-06
      101.800   5.42557e-06
      101.900   5.42034e-06
      102.000   5.41521e-06
      102.100   5.41091e-06
      102.200   5.40698e-06
      102.300   5.40297e-06
      102.400   5.39891e-06
      102.500   5.39474e-06
      102.600   5.39045e-06
      102.700   5.38602e-06
      102.800   5.38146e-06
      102.900   5.37679e-06
      103.000   5.37199e-06
      103.100   5.36708e-06
      103.200   5.36210e-06
      103.300   5.35705e-06
      103.400   5.35193e-06
      103.500   5.34677e-06
      103.600   5.34160e-06
      103.700   5.33633e-06
      103.800   5.32979e-06
      103.900   5.32174e-06
      104.000   5.31360e-06
      104.100   5.30550e-06
      104.200   5.29801e-06
      104.300   5.29438e-06
      104.400   5.29084e-06
      104.500   5.28726e-06
      104.600   5.28356e-06
      104.700   5.27855e-06
      104.800   5.27295e-06
      104.900   5.26725e-06
      105.000   5.26150e-06
      105.100   5.25654e-06
      105.200   5.25371e-06
      105.300   5.25086e-06
      105.400   5.24791e-06
      105.500   5.24489e-06
      105.600   5.24232e-06
      105.700   5.23980e-06
      105.800   5.23722e-06
      105.900   5.23464e-06
      106.000   5.23280e-06
      106.100   5.23255e-06
      106.200   5.23238e-06
      106.300   5.23216e-06
      106.400   5.23187e-06
      106.500   5.23151e-06
      106.600   5.23109e-06
      106.700   5.23060e-06
      106.800   5.23006e-06
      106.900   5.22948e-06
      107.000   5.22884e-06
      107.100   5.22815e-06
      107.200   5.22741e-06
      107.300   5.22662e-06
      107.400   5.22567e-06
      107.500   5.22459e-06
      107.600   5.22344e-06
      107.700   5.22225e-06
      107.800   5.22104e-06
      107.900   5.21943e-06
      108.000   5.21777e-06
      108.100   5.21605e-06
      108.200   5.21426e-06
      108.300   5.21235e-06
      108.400   5.20994e-06
      108.500   5.20745e-06
      108.600   5.20489e-06
      108.700   5.20221e-06
      108.800   5.19816e-06
      108.900   5.19216e-06
      109.000   5.18606e-06
      109.100   5.17984e-06
      109.200   5.17357e-06
      109.300   5.16727e-06
      109.400   5.16090e-06
      109.500   5.15450e-06
      109.600   5.14806e-06
      109.700   5.14157e-06
      109.800   5.13505e-06
      109.900   5.12851e-06
      110.000   5.12196e-06
      110.100   5.11540e-06
      110.200   5.10880e-06
      110.300   5.10300e-06
      110.400   5.09725e-06
      110.500   5.09150e-06
      110.600   5.08570e-06
      110.700   5.07986e-06
      110.800   5.07396e-06
      110.900   5.06800e-06
      111.000   5.06197e-06
      111.100   5.05586e-06
      111.200   5.04977e-06
      111.300   5.04532e-06
      111.400   5.04083e-06
      111.500   5.03619e-06
      111.600   5.03147e-06
      111.700   5.02675e-06
      111.800   5.02305e-06
      111.900   5.01933e-06
      112.000   5.01555e-06
      112.100   5.01170e-06
      112.200   5.00780e-06
      112.300   5.00273e-06
      112.400   4.99760e-06
      112.500   4.99247e-06
      112.600   4.98734e-06
      112.700   4.98240e-06
      112.800   4.97857e-06
      112.900   4.97202e-06
      113.000   4.96640e-06
      113.100   4.96117e-06
      113.200   4.95537e-06
      113.300   4.95013e-06
      113.400   4.93853e-06
      113.500   4.92528e-06
      113.600   4.91745e-06
      113.700   4.90783e-06
      113.800   4.89438e-06
      113.900   4.88627e-06
      114.000   4.87803e-06
      114.100   4.86580e-06
      114.200   4.85544e-06
      114.300   4.84817e-06
      114.400   4.83999e-06
      114.500   4.83089e-06
      114.600   4.82586e-06
      114.700   4.81767e-06
      114.800   4.81155e-06
      114.900   4.81028e-06
      115.000   4.80545e-06
      115.100   4.79848e-06
      115.200   4.79125e-06
      115.300   4.78845e-06
      115.400   4.78135e-06
      115.500   4.77632e-06
      115.600   4.76944e-06
      115.700   4.75979e-06
      115.800   4.75373e-06
      115.900   4.74567e-06
      116.000   4.74071e-06
      116.100   4.74058e-06
      116.200   4.73996e-06
      116.300   4.73836e-06
      116.400   4.73505e-06
      116.500   4.73519e-06
      116.600   4.73412e-06
      116.700   4.73388e-06
      116.800   4.73251e-06
      116.900   4.72670e-06
      117.000   4.72577e-06
      117.100   4.73908e-06
      117.200   4.76250e-06
      117.300   4.77606e-06
      117.400   4.78898e-06
      117.500   4.80208e-06
      117.600   4.80934e-06
      117.700   4.81429e-06
      117.800   4.81613e-06
      117.900   4.81636e-06
      118.000   4.81358e-06
      118.100   4.80787e-06
      118.200   4.80437e-06
      118.300   4.80179e-06
      118.400   4.78776e-06
      118.500   4.77455e-06
      118.600   4.76651e-06
      118.700   4.75651e-06
      118.800   4.74387e-06
      118.900   4.73289e-06
      119.000   4.71557e-06
      119.100   4.69126e-06
      119.200   4.67407e-06
      119.300   4.66288e-06
      119.400   4.65455e-06
      119.500   4.64749e-06
      119.600   4.63618e-06
      119.700   4.61992e-06
      119.800   4.59383e-06
      119.900   4.55466e-06
      120.000   4.51958e-06
      120.100   4.48777e-06
      120.200   4.47209e-06
      120.300   4.46569e-06
      120.400   4.45912e-06
      120.500   4.43918e-06
      120.600   4.40899e-06
      120.700   4.37540e-06
      120.800   4.34381e-06
      120.900   4.32967e-06
      121.000   4.34295e-06
      121.100   4.35170e-06
      121.200   4.34697e-06
      121.300   4.33223e-06
      121.400   4.30978e-06
      121.500   4.28144e-06
      121.600   4.23058e-06
      121.700   4.18847e-06
      121.800   4.13826e-06
      121.900   4.08687e-06
      122.000   4.02991e-06
      122.100   3.97689e-06
      122.200   3.92449e-06
      122.300   3.89129e-06
      122.400   3.87902e-06
      122.500   3.87121e-06
      122.600   3.86066e-06
      122.700   3.84986e-06
      122.800   3.83418e-06
      122.900   3.82122e-06
      123.000   3.83324e-06
      123.100   3.88899e-06
      123.200   3.94802e-06
      123.300   4.03007e-06
      123.400   4.13149e-06
      123.500   4.26063e-06
      123.600   4.37513e-06
      123.700   4.44434e-06
      123.800   4.50081e-06
      123.900   4.57088e-06
      124.000   4.66297e-06
      124.100   4.82629e-06
      124.200   5.14191e-06
      124.300   5.60780e-06
      124.400   6.06170e-06
      124.500   6.21295e-06
      124.600   6.22287e-06
      124.700   6.21637e-06
      124.800   6.21149e-06
      124.900   6.20646e-06
      125.000   6.20120e-06
      125.100   6.19479e-06
      125.200   6.18821e-06
      125.300   6.18159e-06
      125.400   6.17496e-06
      125.500   6.16830e-06
      125.600   6.16159e-06
      125.700   6.15487e-06
      125.800   6.14807e-06
      125.900   6.14126e-06
      126.000   6.13440e-06
      126.100   6.12748e-06
      126.200   6.12048e-06
      126.300   6.11341e-06
      126.400   6.10624e-06
      126.500   6.09896e-06
      126.600   6.09160e-06
      126.700   6.08414e-06
      126.800   6.07660e-06
      126.900   6.06895e-06
      127.000   6.06105e-06
      127.100   6.05256e-06
      127.200   6.04381e-06
      127.300   6.03490e-06
      127.400   6.02592e-06
      127.500   6.01689e-06
      127.600   6.00782e-06
      127.700   5.99871e-06
      127.800   5.98956e-06
      127.900   5.98037e-06
      128.000   5.97116e-06
      128.100   5.96193e-06
      128.200   5.95266e-06
      128.300   5.94338e-06
      128.400   5.93406e-06
      128.500   5.92469e-06
      128.600   5.91525e-06
      128.700   5.90581e-06
      128.800   5.89630e-06
      128.900   5.88671e-06
      129.000   5.87708e-06
      129.100   5.86725e-06
      129.200   5.85698e-06
      129.300   5.84662e-06
      129.400   5.83621e-06
      129.500   5.82572e-06
      129.600   5.81518e-06
      129.700   5.80457e-06
      129.800   5.79390e-06
      129.900   5.78317e-06
      130.000   5.77241e-06
      130.100   5.76163e-06
      130.200   5.75082e-06
      130.300   5.74000e-06
      130.400   5.72917e-06
      130.500   5.71832e-06
      130.600   5.70746e-06
      130.700   5.69661e-06
      130.800   5.68579e-06
      130.900   5.67496e-06
      131.000   5.66412e-06
      131.100   5.65330e-06
      131.200   5.64242e-06
      131.300   5.63142e-06
      131.400   5.62041e-06
      131.500   5.60938e-06
      131.600   5.59833e-06
      131.700   5.58724e-06
      131.800   5.57611e-06
      131.900   5.56492e-06
      132.000   5.55367e-06
      132.100   5.54236e-06
      132.200   5.53098e-06
      132.300   5.51954e-06
      132.400   5.50802e-06
      132.500   5.49642e-06
      132.600   5.48475e-06
      132.700   5.47299e-06
      132.800   5.46117e-06
      132.900   5.44930e-06
      133.000   5.43737e-06
      133.100   5.42540e-06
      133.200   5.41338e-06
      133.300   5.40129e-06
      133.400   5.38914e-06
      133.500   5.37694e-06
      133.600   5.36472e-06
      133.700   5.35252e-06
      133.800   5.34031e-06
      133.900   5.32810e-06
      134.000   5.31590e-06
      134.100   5.30372e-06
      134.200   5.29154e-06
      134.300   5.27938e-06
      134.400   5.26723e-06
      134.500   5.25510e-06
      134.600   5.24297e-06
      134.700   5.23084e-06
      134.800   5.21872e-06
      134.900   5.20658e-06
      135.000   5.19443e-06
      135.100   5.18226e-06
      135.200   5.17007e-06
      135.300   5.15786e-06
      135.400   5.14560e-06
      135.500   5.13316e-06
      135.600   5.12056e-06
      135.700   5.10791e-06
      135.800   5.09522e-06
      135.900   5.08249e-06
      136.000   5.06972e-06
      136.100   5.05690e-06
      136.200   5.04405e-06
      136.300   5.03114e-06
      136.400   5.01819e-06
      136.500   5.00522e-06
      136.600   4.99221e-06
      136.700   4.97917e-06
      136.800   4.96612e-06
      136.900   4.95305e-06
      137.000   4.93995e-06
      137.100   4.92683e-06
      137.200   4.91369e-06
      137.300   4.90054e-06
      137.400   4.88739e-06
      137.500   4.87424e-06
      137.600   4.86106e-06
      137.700   4.84781e-06
      137.800   4.83450e-06
      137.900   4.82119e-06
      138.000   4.80787e-06
      138.100   4.79457e-06
      138.200   4.78128e-06
      138.300   4.76798e-06
      138.400   4.75469e-06
      138.500   4.74141e-06
      138.600   4.72812e-06
      138.700   4.71484e-06
      138.800   4.70156e-06
      138.900   4.68829e-06
      139.000   4.67503e-06
      139.100   4.66176e-06
      139.200   4.64850e-06
      139.300   4.63524e-06
      139.400   4.62198e-06
      139.500   4.60872e-06
      139.600   4.59546e-06
      139.700   4.58221e-06
      139.800   4.56895e-06
      139.900   4.55568e-06
      140.000   4.54235e-06
      140.100   4.52903e-06
      140.200   4.51569e-06
      140.300   4.50236e-06
      140.400   4.48903e-06
      140.500   4.47569e-06
      140.600   4.46234e-06
      140.700   4.44899e-06
      140.800   4.43564e-06
      140.900   4.42227e-06
      141.000   4.40888e-06
      141.100   4.39549e-06
      141.200   4.38210e-06
      141.300   4.36871e-06
      141.400   4.35531e-06
      141.500   4.34191e-06
      141.600   4.32850e-06
      141.700   4.31507e-06
      141.800   4.30166e-06
      141.900   4.28825e-06
      142.000   4.27484e-06
      142.100   4.26477e-06
      142.200   4.26424e-06
      142.300   4.27195e-06
      142.400   4.27960e-06
      142.500   4.28717e-06
      142.600   4.29468e-06
      142.700   4.30214e-06
      142.800   4.30953e-06
      142.900   4.31687e-06
      143.000   4.32415e-06
      143.100   4.33135e-06
      143.200   4.33851e-06
      143.300   4.34558e-06
      143.400   4.35261e-06
      143.500   4.35959e-06
      143.600   4.36650e-06
      143.700   4.37334e-06
      143.800   4.38012e-06
      143.900   4.38685e-06
      144.000   4.39350e-06
      144.100   4.40006e-06
      144.200   4.40657e-06
      144.300   4.41301e-06
      144.400   4.42034e-06
      144.500   4.44048e-06
      144.600   4.46476e-06
      144.700   4.48948e-06
      144.800   4.51417e-06
      144.900   4.53883e-06
      145.000   4.56350e-06
      145.100   4.58814e-06
      145.200   4.61279e-06
      145.300   4.63741e-06
      145.400   4.66201e-06
      145.500   4.68658e-06
      145.600   4.71110e-06
      145.700   4.73557e-06
      145.800   4.76004e-06
      145.900   4.78451e-06
      146.000   4.80893e-06
      146.100   4.83331e-06
      146.200   4.85766e-06
      146.300   4.88197e-06
      146.400   4.90622e-06
      146.500   4.93042e-06
      146.600   4.95460e-06
      146.700   4.97875e-06
      146.800   5.00254e-06
      146.900   5.02583e-06
      147.000   5.04905e-06
      147.100   5.07222e-06
      147.200   5.09535e-06
      147.300   5.11842e-06
      147.400   5.14144e-06
      147.500   5.16440e-06
      147.600   5.18729e-06
      147.700   5.21014e-06
      147.800   5.23293e-06
      147.900   5.25564e-06
      148.000   5.27829e-06
      148.100   5.30087e-06
      148.200   5.32340e-06
      148.300   5.34589e-06
      148.400   5.36833e-06
      148.500   5.39071e-06
      148.600   5.41302e-06
      148.700   5.43527e-06
      148.800   5.45743e-06
      148.900   5.47957e-06
      149.000   5.50167e-06
      149.100   5.52371e-06
      149.200   5.54564e-06
      149.300   5.56751e-06
      149.400   5.58931e-06
      149.500   5.61107e-06
      149.600   5.63275e-06
      149.700   5.65435e-06
      149.800   5.67588e-06
      149.900   5.69736e-06
      150.000   5.71878e-06
      150.100   5.74013e-06
      150.200   5.76136e-06
      150.300   5.78252e-06
      150.400   5.80361e-06
      150.500   5.82461e-06
      150.600   5.84550e-06
      150.700   5.86632e-06
      150.800   5.88702e-06
      150.900   5.90760e-06
      151.000   5.92805e-06
      151.100   5.94843e-06
      151.200   5.96867e-06
      151.300   5.98878e-06
      151.400   6.00879e-06
      151.500   6.02867e-06
      151.600   6.04855e-06
      151.700   6.06848e-06
      151.800   6.08830e-06
      151.900   6.10796e-06
      152.000   6.12747e-06
      152.100   6.14686e-06
      152.200   6.16617e-06
      152.300   6.18529e-06
      152.400   6.20428e-06
      152.500   6.22318e-06
      152.600   6.24194e-06
      152.700   6.26057e-06
      152.800   6.27907e-06
      152.900   6.29748e-06
      153.000   6.31582e-06
      153.100   6.33402e-06
      153.200   6.35213e-06
      153.300   6.37016e-06
      153.400   6.38808e-06
      153.500   6.40590e-06
      153.600   6.42364e-06
      153.700   6.44134e-06
      153.800   6.45891e-06
      153.900   6.47640e-06
      154.000   6.49530e-06
      154.100   6.51747e-06
      154.200   6.54069e-06
      154.300   6.56386e-06
      154.400   6.58698e-06
      154.500   6.60999e-06
      154.600   6.63291e-06
      154.700   6.65576e-06
      154.800   6.67852e-06
      154.900   6.70114e-06
      155.000   6.72366e-06
      155.100   6.74611e-06
      155.200   6.76839e-06
      155.300   6.79056e-06
      155.400   6.81259e-06
      155.500   6.83453e-06
      155.600   6.85627e-06
      155.700   6.87786e-06
      155.800   6.89933e-06
      155.900   6.92062e-06
      156.000   6.94175e-06
      156.100   6.96272e-06
      156.200   6.98352e-06
      156.300   7.00419e-06
      156.400   7.02466e-06
      156.500   7.04469e-06
      156.600   7.06296e-06
      156.700   7.08102e-06
      156.800   7.09889e-06
      156.900   7.11660e-06
      157.000   7.13419e-06
      157.100   7.15156e-06
      157.200   7.16879e-06
      157.300   7.18587e-06
      157.400   7.20282e-06
      157.500   7.21958e-06
      157.600   7.23619e-06
      157.700   7.25271e-06
      157.800   7.26906e-06
      157.900   7.28523e-06
      158.000   7.30129e-06
      158.100   7.31726e-06
      158.200   7.33304e-06
      158.300   7.34869e-06
      158.400   7.36423e-06
      158.500   7.37964e-06
      158.600   7.39488e-06
      158.700   7.40995e-06
      158.800   7.42496e-06
      158.900   7.43977e-06
      159.000   7.45443e-06
      159.100   7.46888e-06
      159.200   7.48320e-06
      159.300   7.49732e-06
      159.400   7.51128e-06
      159.500   7.52507e-06
      159.600   7.53871e-06
      159.700   7.55215e-06
      159.800   7.56540e-06
      159.900   7.57850e-06
      160.000   7.59137e-06
      160.100   7.60405e-06
      160.200   7.61653e-06
      160.300   7.62881e-06
      160.400   7.64093e-06
      160.500   7.65281e-06
      160.600   7.66450e-06
      160.700   7.67599e-06
      160.800   7.68727e-06
      160.900   7.69833e-06
      161.000   7.70918e-06
      161.100   7.71989e-06
      161.200   7.73036e-06
      161.300   7.74062e-06
      161.400   7.75068e-06
      161.500   7.76060e-06
      161.600   7.77025e-06
      161.700   7.77964e-06
      161.800   7.78887e-06
      161.900   7.79791e-06
      162.000   7.80672e-06
      162.100   7.81536e-06
      162.200   7.82387e-06
      162.300   7.83217e-06
      162.400   7.84029e-06
      162.500   7.84822e-06
      162.600   7.85601e-06
      162.700   7.86365e-06
      162.800   7.87106e-06
      162.900   7.87831e-06
      163.000   7.88539e-06
      163.100   7.89231e-06
      163.200   7.89901e-06
      163.300   7.90554e-06
      163.400   7.91189e-06
      163.500   7.91805e-06
      163.600   7.92400e-06
      163.700   7.92975e-06
      163.800   7.93537e-06
      163.900   7.94073e-06
      164.000   7.94588e-06
      164.100   7.95087e-06
      164.200   7.95562e-06
      164.300   7.96064e-06
      164.400   7.96545e-06
      164.500   7.97008e-06
      164.600   7.97452e-06
      164.700   7.97871e-06
      164.800   7.98269e-06
      164.900   7.98649e-06
      165.000   7.99011e-06
      165.100   7.99350e-06
      165.200   7.99669e-06
      165.300   7.99969e-06
      165.400   8.00255e-06
      165.500   8.00518e-06
      165.600   8.00763e-06
      165.700   8.00993e-06
      165.800   8.01205e-06
      165.900   8.01398e-06
      166.000   8.01576e-06
      166.100   8.01739e-06
      166.200   8.01888e-06
      166.300   8.02022e-06
      166.400   8.02137e-06
      166.500   8.02241e-06
      166.600   8.02332e-06
      166.700   8.02406e-06
      166.800   8.02459e-06
      166.900   8.02499e-06
      167.000   8.02534e-06
      167.100   8.02543e-06
      167.200   8.02536e-06
      167.300   8.02519e-06
      167.400   8.02486e-06
      167.500   8.02438e-06
      167.600   8.02375e-06
      167.700   8.02300e-06
      167.800   8.02208e-06
      167.900   8.02098e-06
      168.000   8.01973e-06
      168.100   8.01833e-06
      168.200   8.01674e-06
      168.300   8.01497e-06
      168.400   8.01303e-06
      168.500   8.01095e-06
      168.600   8.00862e-06
      168.700   8.00610e-06
      168.800   8.00338e-06
      168.900   8.00050e-06
      169.000   7.99743e-06
      169.100   7.99412e-06
      169.200   7.99062e-06
      169.300   7.98692e-06
      169.400   7.98300e-06
      169.500   7.97842e-06
      169.600   7.97161e-06
      169.700   7.96224e-06
      169.800   7.95200e-06
      169.900   7.94145e-06
      170.000   7.93062e-06
      170.100   7.91954e-06
      170.200   7.90819e-06
      170.300   1.44367e-05
      170.400   7.22541e-05
      170.500   0.000236589
      170.600   0.000498008
      170.700   0.000787285
      170.800   0.000957496
      170.900   0.000988814
      171.000   0.000981858
      171.100   0.000974842
      171.200   0.000967762
      171.300   0.000960618
      171.400   0.000953418
      171.500   0.000946164
      171.600   0.000938866
      171.700   0.000931536
      171.800   0.000924187
      171.900   0.000916835
      172.000   0.000909501
      172.100   0.000902193
      172.200   0.000894934
      172.300   0.000887716
      172.400   0.000880453
      172.500   0.000873234
      172.600   0.000866085
      172.700   0.000859011
      172.800   0.000852010
      172.900   0.000845082
      173.000   0.000838235
      173.100   0.000831465
      173.200   0.000824770
      173.300   0.000818154
      173.400   0.000811610
      173.500   0.000805142
      173.600   0.000798750
      173.700   0.000792426
      173.800   0.000786171
      173.900   0.000779984
      174.000   0.000773861
      174.100   0.000767797
      174.200   0.000761794
      174.300   0.000755847
      174.400   0.000749955
      174.500   0.000744115
      174.600   0.000738319
      174.700   0.000732574
      174.800   0.000726875
      174.900   0.000721218
      175.000   0.000715598
      175.100   0.000710015
      175.200   0.000704489
      175.300   0.000698995
      175.400   0.000693537
      175.500   0.000688119
      175.600   0.000682738
      175.700   0.000677395
      175.800   0.000672089
      175.900   0.000666820
      176.000   0.000661589
      176.100   0.000656397
      176.200   0.000651242
      176.300   0.000646121
      176.400   0.000641039
      176.500   0.000635992
      176.600   0.000630979
      176.700   0.000626001
      176.800   0.000621057
      176.900   0.000616148
      177.000   0.000611269
      177.100   0.000606420
      177.200   0.000601603
      177.300   0.000596816
      177.400   0.000592055
      177.500   0.000587320
      177.600   0.000582612
      177.700   0.000577930
      177.800   0.000573273
      177.900   0.000568634
      178.000   0.000564054
      178.100   0.000559501
      178.200   0.000554969
      178.300   0.000550460
      178.400   0.000545977
      178.500   0.000541516
      178.600   0.000537077
      178.700   0.000532661
      178.800   0.000528270
      178.900   0.000523904
      179.000   0.000519561
      179.100   0.000515243
      179.200   0.000510952
      179.300   0.000506687
      179.400   0.000502450
      179.500   0.000498241
      179.600   0.000494060
      179.700   0.000489911
      179.800   0.000485791
      179.900   0.000481701
      180.000   0.000477642
      180.100   0.000473616
      180.200   0.000469622
      180.300   0.000465661
      180.400   0.000461733
      180.500   0.000457839
      180.600   0.000453978
      180.700   0.000450151
      180.800   0.000446360
      180.900   0.000442602
      181.000   0.000438878
      181.100   0.000435189
      181.200   0.000431532
      181.300   0.000427907
      181.400   0.000424317
      181.500   0.000420759
      181.600   0.000417233
      181.700   0.000413739
      181.800   0.000410276
      181.900   0.000406846
      182.000   0.000403448
      182.100   0.000400080
      182.200   0.000396743
      182.300   0.000393437
      182.400   0.000390162
      182.500   0.000386916
      182.600   0.000383700
      182.700   0.000380513
      182.800   0.000377357
      182.900   0.000374228
      183.000   0.000371129
      183.100   0.000368059
      183.200   0.000365016
      183.300   0.000362001
      183.400   0.000359013
      183.500   0.000356054
      183.600   0.000353120
      183.700   0.000350215
      183.800   0.000347344
      183.900   0.000344502
      184.000   0.000341686
      184.100   0.000338894
      184.200   0.000336126
      184.300   0.000333380
      184.400   0.000330659
      184.500   0.000327961
      184.600   0.000325283
      184.700   0.000322628
      184.800   0.000319994
      184.900   0.000317380
      185.000   0.000314786
      185.100   0.000312211
      185.200   0.000309655
      185.300   0.000307119
      185.400   0.000304601
      185.500   0.000302100
      185.600   0.000299617
      185.700   0.000297150
      185.800   0.000294701
      185.900   0.000292269
      186.000   0.000289851
      186.100   0.000287449
      186.200   0.000285063
      186.300   0.000282692
      186.400   0.000280336
      186.500   0.000277995
      186.600   0.000275669
      186.700   0.000273356
      186.800   0.000271056
      186.900   0.000268771
      187.000   0.000266500
      187.100   0.000264242
      187.200   0.000262000
      187.300   0.000259771
      187.400   0.000257556
      187.500   0.000255355
      187.600   0.000253168
      187.700   0.000250996
      187.800   0.000248837
      187.900   0.000246692
      188.000   0.000244562
      188.100   0.000242446
      188.200   0.000240343
      188.300   0.000238254
      188.400   0.000236179
      188.500   0.000234119
      188.600   0.000232074
      188.700   0.000230042
      188.800   0.000228025
      188.900   0.000226024
      189.000   0.000224037
      189.100   0.000222064
      189.200   0.000220106
      189.300   0.000218163
      189.400   0.000216235
      189.500   0.000214322
      189.600   0.000212423
      189.700   0.000210540
      189.800   0.000208690
      189.900   0.000206857
      190.000   0.000205038
      190.100   0.000203235
      190.200   0.000201448
      190.300   0.000199675
      190.400   0.000197916
      190.500   0.000196173
      190.600   0.000194446
      190.700   0.000192732
      190.800   0.000191034
      190.900   0.000189352
      191.000   0.000187683
      191.100   0.000186031
      191.200   0.000184393
      191.300   0.000182769
      191.400   0.000181160
      191.500   0.000179566
      191.600   0.000177986
      191.700   0.000176420
      191.800   0.000174867
      191.900   0.000173330
      192.000   0.000171806
      192.100   0.000170297
      192.200   0.000168802
      192.300   0.000167320
      192.400   0.000165851
      192.500   0.000164395
      192.600   0.000162953
      192.700   0.000161525
      192.800   0.000160108
      192.900   0.000158701
      193.000   0.000157307
      193.100   0.000155926
      193.200   0.000154557
      193.300   0.000153202
      193.400   0.000151860
      193.500   0.000150530
      193.600   0.000149212
      193.700   0.000147906
      193.800   0.000146614
      193.900   0.000145334
      194.000   0.000144066
      194.100   0.000142810
      194.200   0.000141567
      194.300   0.000140336
      194.400   0.000139116
      194.500   0.000137908
      194.600   0.000136711
      194.700   0.000135527
      194.800   0.000134354
      194.900   0.000133191
      195.000   0.000132039
      195.100   0.000130899
      195.200   0.000129769
      195.300   0.000128650
      195.400   0.000127541
      195.500   0.000126442
      195.600   0.000125352
      195.700   0.000124273
      195.800   0.000123202
      195.900   0.000122139
      196.000   0.000121038
      196.100   0.000119946
      196.200   0.000118864
      196.300   0.000117790
      196.400   0.000116726
      196.500   0.000115669
      196.600   0.000114622
      196.700   0.000113582
      196.800   0.000112551
      196.900   0.000111527
      197.000   0.000110511
      197.100   0.000109502
      197.200   0.000108501
      197.300   0.000107507
      197.400   0.000106520
      197.500   0.000105539
      197.600   0.000104566
      197.700   0.000103600
      197.800   0.000102641
      197.900   0.000101688
      198.000   0.000100742
      198.100   9.98029e-05
      198.200   9.88701e-05
      198.300   9.79437e-05
      198.400   9.70246e-05
      198.500   9.61121e-05
      198.600   9.52064e-05
      198.700   9.43073e-05
      198.800   9.34149e-05
      198.900   9.25295e-05
      199.000   9.16507e-05
      199.100   9.07787e-05
      199.200   8.99136e-05
      199.300   8.90557e-05
      199.400   8.82047e-05
      199.500   8.73610e-05
      199.600   8.65239e-05
      199.700   8.56938e-05
      199.800   8.48706e-05
      199.900   8.40546e-05
      200.000   8.32453e-05
      200.100   8.24474e-05
      200.200   8.16521e-05
      200.300   8.08641e-05
      200.400   8.00828e-05
      200.500   7.93085e-05
      200.600   7.85410e-05
      200.700   7.77803e-05
      200.800   7.70259e-05
      200.900   7.62786e-05
      201.000   7.55381e-05
      201.100   7.48039e-05
      201.200   7.40762e-05
      201.300   7.33551e-05
      201.400   7.26408e-05
      201.500   7.19324e-05
      201.600   7.12305e-05
      201.700   7.05351e-05
      201.800   6.98455e-05
      201.900   6.91622e-05
      202.000   6.84856e-05
      202.100   6.78146e-05
      202.200   6.71500e-05
      202.300   6.65067e-05
      202.400   6.59018e-05
      202.500   6.53108e-05
      202.600   6.47239e-05
      202.700   6.41422e-05
      202.800   6.35657e-05
      202.900   6.29940e-05
      203.000   6.24276e-05
      203.100   6.18665e-05
      203.200   6.13102e-05
      203.300   6.07588e-05
      203.400   6.02124e-05
      203.500   5.96713e-05
      203.600   5.91351e-05
      203.700   5.86040e-05
      203.800   5.80781e-05
      203.900   5.75574e-05
      204.000   5.70417e-05
      204.100   5.65310e-05
      204.200   5.60256e-05
      204.300   5.55249e-05
      204.400   5.50293e-05
      204.500   5.45388e-05
      204.600   5.40530e-05
      204.700   5.35722e-05
      204.800   5.30966e-05
      204.900   5.26257e-05
      205.000   5.21596e-05
      205.100   5.16983e-05
      205.200   5.12415e-05
      205.300   5.07895e-05
      205.400   5.03421e-05
      205.500   4.98990e-05
      205.600   4.94672e-05
      205.700   4.90468e-05
      205.800   4.86310e-05
      205.900   4.82192e-05
      206.000   4.78116e-05
      206.100   4.74076e-05
      206.200   4.70073e-05
      206.300   4.66108e-05
      206.400   4.62180e-05
      206.500   4.58284e-05
      206.600   4.54425e-05
      206.700   4.50600e-05
      206.800   4.46806e-05
      206.900   4.43045e-05
      207.000   4.39318e-05
      207.100   4.35620e-05
      207.200   4.31955e-05
      207.300   4.28320e-05
      207.400   4.24714e-05
      207.500   4.21136e-05
      207.600   4.17587e-05
      207.700   4.14065e-05
      207.800   4.10571e-05
      207.900   4.07105e-05
      208.000   4.03665e-05
      208.100   4.00252e-05
      208.200   3.96866e-05
      208.300   3.93505e-05
      208.400   3.90169e-05
      208.500   3.86860e-05
      208.600   3.83575e-05
      208.700   3.80314e-05
      208.800   3.77078e-05
      208.900   3.73853e-05
      209.000   3.70607e-05
      209.100   3.67383e-05
      209.200   3.64184e-05
      209.300   3.61008e-05
      209.400   3.57858e-05
      209.500   3.54733e-05
      209.600   3.51631e-05
      209.700   3.48554e-05
      209.800   3.45502e-05
      209.900   3.42472e-05
      210.000   3.39467e-05
      210.100   3.36485e-05
      210.200   3.33526e-05
      210.300   3.30590e-05
      210.400   3.27677e-05
      210.500   3.24786e-05
      210.600   3.21917e-05
      210.700   3.19070e-05
      210.800   3.16246e-05
      210.900   3.13442e-05
      211.000   3.10660e-05
      211.100   3.07899e-05
      211.200   3.05158e-05
      211.300   3.02440e-05
      211.400   2.99742e-05
      211.500   2.97063e-05
      211.600   2.94405e-05
      211.700   2.91768e-05
      211.800   2.89148e-05
      211.900   2.86548e-05
      212.000   2.83969e-05
      212.100   2.81408e-05
      212.200   2.78866e-05
      212.300   2.76344e-05
      212.400   2.73841e-05
      212.500   2.71357e-05
      212.600   2.68892e-05
      212.700   2.66445e-05
      212.800   2.64017e-05
      212.900   2.61608e-05
      213.000   2.59216e-05
      213.100   2.56843e-05
      213.200   2.54489e-05
      213.300   2.52152e-05
      213.400   2.49834e-05
      213.500   2.47534e-05
      213.600   2.45252e-05
      213.700   2.42989e-05
      213.800   2.40744e-05
      213.900   2.38518e-05
      214.000   2.36310e-05
      214.100   2.34120e-05
      214.200   2.31950e-05
      214.300   2.29797e-05
      214.400   2.27662e-05
      214.500   2.25547e-05
      214.600   2.23450e-05
      214.700   2.21372e-05
      214.800   2.19312e-05
      214.900   2.17272e-05
      215.000   2.15249e-05
      215.100   2.13245e-05
      215.200   2.11259e-05
      215.300   2.09293e-05
      215.400   2.07345e-05
      215.500   2.05415e-05
      215.600   2.03505e-05
      215.700   2.01612e-05
      215.800   1.99736e-05
      215.900   1.97880e-05
      216.000   1.96041e-05
      216.100   1.94219e-05
      216.200   1.92416e-05
      216.300   1.90631e-05
      216.400   1.88863e-05
      216.500   1.87113e-05
      216.600   1.85380e-05
      216.700   1.83664e-05
      216.800   1.81965e-05
      216.900   1.80283e-05
      217.000   1.78618e-05
      217.100   1.76969e-05
      217.200   1.75337e-05
      217.300   1.73721e-05
      217.400   1.72120e-05
      217.500   1.70536e-05
      217.600   1.68967e-05
      217.700   1.67413e-05
      217.800   1.65875e-05
      217.900   1.64353e-05
      218.000   1.62845e-05
      218.100   1.61352e-05
      218.200   1.59873e-05
      218.300   1.58409e-05
      218.400   1.56960e-05
      218.500   1.55524e-05
      218.600   1.54102e-05
      218.700   1.52694e-05
      218.800   1.51300e-05
      218.900   1.49919e-05
      219.000   1.48551e-05
      219.100   1.47196e-05
      219.200   1.45854e-05
      219.300   1.44525e-05
      219.400   1.43208e-05
      219.500   1.41903e-05
      219.600   1.40612e-05
      219.700   1.39332e-05
      219.800   1.38064e-05
      219.900   1.36809e-05
      220.000   1.35565e-05
      220.100   1.34332e-05
      220.200   1.33111e-05
      220.300   1.31902e-05
      220.400   1.30704e-05
      220.500   1.29517e-05
      220.600   1.28342e-05
      220.700   1.27177e-05
      220.800   1.26022e-05
      220.900   1.24879e-05
      221.000   1.23746e-05
      221.100   1.22623e-05
      221.200   1.21511e-05
      221.300   1.20409e-05
      221.400   1.19317e-05
      221.500   1.18235e-05
      221.600   1.17162e-05
      221.700   1.16100e-05
      221.800   1.15046e-05
      221.900   1.14002e-05
      222.000   1.12969e-05
      222.100   1.11943e-05
      222.200   1.10928e-05
      222.300   1.09921e-05
      222.400   1.08923e-05
      222.500   1.07933e-05
      222.600   1.06953e-05
      222.700   1.05981e-05
      222.800   1.05016e-05
      222.900   1.04061e-05
      223.000   1.03113e-05
      223.100   1.02173e-05
      223.200   1.01242e-05
      223.300   1.00318e-05
      223.400   9.94030e-06
      223.500   9.84949e-06
      223.600   9.75951e-06
      223.700   9.67024e-06
      223.800   9.58172e-06
      223.900   9.49402e-06
      224.000   9.40699e-06
      224.100   9.32068e-06
      224.200   9.23508e-06
      224.300   9.15023e-06
      224.400   9.06604e-06
      224.500   8.98257e-06
      224.600   8.89975e-06
      224.700   8.81767e-06
      224.800   8.73624e-06
      224.900   8.65545e-06
      225.000   8.57534e-06
      225.100   8.49587e-06
      225.200   8.41704e-06
      225.300   8.33888e-06
      225.400   8.26133e-06
      225.500   8.18440e-06
      225.600   8.10810e-06
      225.700   8.03243e-06
      225.800   7.95735e-06
      225.900   7.88289e-06
      226.000   7.80905e-06
      226.100   7.73580e-06
      226.200   7.66320e-06
      226.300   7.59166e-06
      226.400   7.52117e-06
      226.500   7.45113e-06
      226.600   7.38149e-06
      226.700   7.31234e-06
      226.800   7.24365e-06
      226.900   7.17546e-06
      227.000   7.10784e-06
      227.100   7.04073e-06
      227.200   6.97420e-06
      227.300   6.90822e-06
      227.400   6.84279e-06
      227.500   6.77790e-06
      227.600   6.71355e-06
      227.700   6.64975e-06
      227.800   6.58650e-06
      227.900   6.52378e-06
      228.000   6.46160e-06
      228.100   6.39994e-06
      228.200   6.33880e-06
      228.300   6.27820e-06
      228.400   6.21815e-06
      228.500   6.15859e-06
      228.600   6.09958e-06
      228.700   6.04108e-06
      228.800   5.98308e-06
      228.900   5.92564e-06
      229.000   5.86871e-06
      229.100   5.81228e-06
      229.200   5.75636e-06
      229.300   5.70096e-06
      229.400   5.64608e-06
      229.500   5.59169e-06
      229.600   5.53781e-06
      229.700   5.48443e-06
      229.800   5.43155e-06
      229.900   5.37917e-06
      230.000   5.32724e-06
      230.100   5.27520e-06
      230.200   5.22368e-06
      230.300   5.17268e-06
      230.400   5.12216e-06
      230.500   5.07214e-06
      230.600   5.02260e-06
      230.700   4.97353e-06
      230.800   4.92496e-06
      230.900   4.87687e-06
      231.000   4.82923e-06
      231.100   4.78208e-06
      231.200   4.73538e-06
      231.300   4.68915e-06
      231.400   4.64340e-06
      231.500   4.59807e-06
      231.600   4.55319e-06
      231.700   4.50877e-06
      231.800   4.46479e-06
      231.900   4.42124e-06
      232.000   4.37813e-06
      232.100   4.33544e-06
      232.200   4.29318e-06
      232.300   4.25134e-06
      232.400   4.20992e-06
      232.500   4.16889e-06
      232.600   4.12828e-06
      232.700   4.08808e-06
      232.800   4.04828e-06
      232.900   4.00887e-06
      233.000   3.96984e-06
      233.100   3.93122e-06
      233.200   3.89296e-06
      233.300   3.85509e-06
      233.400   3.81759e-06
      233.500   3.78046e-06
      233.600   3.74371e-06
      233.700   3.70730e-06
      233.800   3.66772e-06
      233.900   3.62800e-06
      234.000   3.58874e-06
      234.100   3.54991e-06
      234.200   3.51152e-06
      234.300   3.47353e-06
      234.400   3.43596e-06
      234.500   3.39879e-06
      234.600   3.36202e-06
      234.700   3.32566e-06
      234.800   3.28970e-06
      234.900   3.25411e-06
      235.000   3.21891e-06
      235.100   3.18410e-06
      235.200   3.14966e-06
      235.300   3.11560e-06
      235.400   3.08190e-06
      235.500   3.04858e-06
      235.600   3.01562e-06
      235.700   2.98301e-06
      235.800   2.95076e-06
      235.900   2.91887e-06
      236.000   2.88732e-06
      236.100   2.85611e-06
      236.200   2.82524e-06
      236.300   2.79470e-06
      236.400   2.76451e-06
      236.500   2.73463e-06
      236.600   2.70508e-06
      236.700   2.67585e-06
      236.800   2.64693e-06
      236.900   2.61833e-06
      237.000   2.59003e-06
      237.100   2.56204e-06
      237.200   2.53435e-06
      237.300   2.50696e-06
      237.400   2.47987e-06
      237.500   2.45306e-06
      237.600   2.42651e-06
      237.700   2.40025e-06
      237.800   2.37427e-06
      237.900   2.34857e-06
      238.000   2.32315e-06
      238.100   2.29799e-06
      238.200   2.27309e-06
      238.300   2.24846e-06
      238.400   2.22409e-06
      238.500   2.19997e-06
      238.600   2.17611e-06
      238.700   2.15250e-06
      238.800   2.12914e-06
      238.900   2.10602e-06
      239.000   2.08313e-06
      239.100   2.06048e-06
      239.200   2.03808e-06
      239.300   2.01589e-06
      239.400   1.99395e-06
      239.500   1.97222e-06
      239.600   1.95072e-06
      239.700   1.92945e-06
      239.800   1.90838e-06
      239.900   1.88753e-06
      240.000   1.86690e-06
      240.100   1.84647e-06
      240.200   1.82624e-06
      240.300   1.80622e-06
      240.400   1.78639e-06
      240.500   1.76678e-06
      240.600   1.74736e-06
      240.700   1.72814e-06
      240.800   1.70911e-06
      240.900   1.69027e-06
      241.000   1.67163e-06
      241.100   1.65317e-06
      241.200   1.63489e-06
      241.300   1.61680e-06
      241.400   1.59889e-06
      241.500   1.58116e-06
      241.600   1.56361e-06
      241.700   1.54623e-06
      241.800   1.52903e-06
      241.900   1.51200e-06
      242.000   1.49514e-06
      242.100   1.47846e-06
      242.200   1.46195e-06
      242.300   1.44561e-06
      242.400   1.42943e-06
      242.500   1.41342e-06
      242.600   1.39758e-06
      242.700   1.38189e-06
      242.800   1.36637e-06
      242.900   1.35101e-06
      243.000   1.33580e-06
      243.100   1.32076e-06
      243.200   1.30586e-06
      243.300   1.29112e-06
      243.400   1.27655e-06
      243.500   1.26212e-06
      243.600   1.24785e-06
      243.700   1.23372e-06
      243.800   1.21974e-06
      243.900   1.20592e-06
      244.000   1.19224e-06
      244.100   1.17870e-06
      244.200   1.16531e-06
      244.300   1.15205e-06
      244.400   1.13894e-06
      244.500   1.12597e-06
      244.600   1.11314e-06
      244.700   1.10045e-06
      244.800   1.08789e-06
      244.900   1.07548e-06
      245.000   1.06319e-06
      245.100   1.05103e-06
      245.200   1.03901e-06
      245.300   1.02712e-06
      245.400   1.01535e-06
      245.500   1.00372e-06
      245.600   9.92213e-07
      245.700   9.80826e-07
      245.800   9.69561e-07
      245.900   9.58426e-07
      246.000   9.47417e-07
      246.100   9.36524e-07
      246.200   9.25750e-07
      246.300   9.15094e-07
      246.400   9.04558e-07
      246.500   8.94135e-07
      246.600   8.83826e-07
      246.700   8.73633e-07
      246.800   8.63547e-07
      246.900   8.53574e-07
      247.000   8.43716e-07
      247.100   8.33966e-07
      247.200   8.24325e-07
      247.300   8.14791e-07
      247.400   8.05362e-07
      247.500   7.96038e-07
      247.600   7.86817e-07
      247.700   7.77699e-07
      247.800   7.68682e-07
      247.900   7.59765e-07
      248.000   7.50948e-07
      248.100   7.42239e-07
      248.200   7.33625e-07
      248.300   7.25106e-07
      248.400   7.16684e-07
      248.500   7.08354e-07
      248.600   7.00119e-07
      248.700   6.91978e-07
      248.800   6.83930e-07
      248.900   6.75973e-07
      249.000   6.68107e-07
      249.100   6.60331e-07
      249.200   6.52648e-07
      249.300   6.45051e-07
      249.400   6.37541e-07
      249.500   6.30118e-07
      249.600   6.22778e-07
      249.700   6.15522e-07
      249.800   6.08351e-07
      249.900   6.01262e-07
      250.000   5.94256e-07
      250.100   5.87335e-07
      250.200   5.80489e-07
      250.300   5.73729e-07
      250.400   5.67047e-07
      250.500   5.60442e-07
      250.600   5.53916e-07
      250.700   5.47464e-07
      250.800   5.41087e-07
      250.900   5.34786e-07
      251.000   5.28557e-07
      251.100   5.22402e-07
      251.200   5.16321e-07
      251.300   5.10313e-07
      251.400   5.04377e-07
      251.500   4.98507e-07
      251.600   4.92708e-07
      251.700   4.86979e-07
      251.800   4.81317e-07
      251.900   4.75720e-07
      252.000   4.70188e-07
      252.100   4.64725e-07
      252.200   4.59322e-07
      252.300   4.53987e-07
      252.400   4.48712e-07
      252.500   4.43502e-07
      252.600   4.38352e-07
      252.700   4.33263e-07
      252.800   4.28233e-07
      252.900   4.23263e-07
      253.000   4.18350e-07
      253.100   4.13496e-07
      253.200   4.08698e-07
      253.300   4.04131e-07
      253.400   3.99697e-07
      253.500   3.95315e-07
      253.600   3.90983e-07
      253.700   3.86696e-07
      253.800   3.82460e-07
      253.900   3.78269e-07
      254.000   3.74124e-07
      254.100   3.70023e-07
      254.200   3.65968e-07
      254.300   3.61957e-07
      254.400   3.57989e-07
      254.500   3.54065e-07
      254.600   3.50183e-07
      254.700   3.46345e-07
      254.800   3.42549e-07
      254.900   3.38794e-07
      255.000   3.35080e-07
      255.100   3.31403e-07
      255.200   3.27767e-07
      255.300   3.24171e-07
      255.400   3.20612e-07
      255.500   3.17093e-07
      255.600   3.13611e-07
      255.700   3.10167e-07
      255.800   3.06759e-07
      255.900   3.03386e-07
      256.000   3.00050e-07
      256.100   2.96751e-07
      256.200   2.93485e-07
      256.300   2.90255e-07
      256.400   2.87061e-07
      256.500   2.83899e-07
      256.600   2.80771e-07
      256.700   2.77677e-07
      256.800   2.74615e-07
      256.900   2.71585e-07
      257.000   2.68587e-07
      257.100   2.65621e-07
      257.200   2.62688e-07
      257.300   2.59785e-07
      257.400   2.56985e-07
      257.500   2.54240e-07
      257.600   2.51527e-07
      257.700   2.48840e-07
      257.800   2.46180e-07
      257.900   2.43549e-07
      258.000   2.40944e-07
      258.100   2.38365e-07
      258.200   2.35813e-07
      258.300   2.33289e-07
      258.400   2.30788e-07
      258.500   2.28313e-07
      258.600   2.25864e-07
      258.700   2.23440e-07
      258.800   2.21040e-07
      258.900   2.18666e-07
      259.000   2.16315e-07
      259.100   2.13989e-07
      259.200   2.11686e-07
      259.300   2.09408e-07
      259.400   2.07153e-07
      259.500   2.04920e-07
      259.600   2.02712e-07
      259.700   2.00526e-07
      259.800   1.98361e-07
      259.900   1.96219e-07
      260.000   1.94099e-07
      260.100   1.92001e-07
      260.200   1.89925e-07
      260.300   1.87870e-07
      260.400   1.85836e-07
      260.500   1.83824e-07
      260.600   1.81831e-07
      260.700   1.79859e-07
      260.800   1.77909e-07
      260.900   1.75977e-07
      261.000   1.74066e-07
      261.100   1.72175e-07
      261.200   1.70303e-07
      261.300   1.68450e-07
      261.400   1.66617e-07
      261.500   1.64811e-07
      261.600   1.63049e-07
      261.700   1.61310e-07
      261.800   1.59588e-07
      261.900   1.57883e-07
      262.000   1.56195e-07
      262.100   1.54524e-07
      262.200   1.52871e-07
      262.300   1.51234e-07
      262.400   1.49614e-07
      262.500   1.48010e-07
      262.600   1.46422e-07
      262.700   1.44850e-07
      262.800   1.43295e-07
      262.900   1.41754e-07
      263.000   1.40231e-07
      263.100   1.38722e-07
      263.200   1.37228e-07
      263.300   1.35750e-07
      263.400   1.34286e-07
      263.500   1.32838e-07
      263.600   1.31405e-07
      263.700   1.29986e-07
      263.800   1.28581e-07
      263.900   1.27191e-07
      264.000   1.25815e-07
      264.100   1.24453e-07
      264.200   1.23104e-07
      264.300   1.21770e-07
      264.400   1.20450e-07
      264.500   1.19143e-07
      264.600   1.17849e-07
      264.700   1.16569e-07
      264.800   1.15301e-07
      264.900   1.14047e-07
      265.000   1.12806e-07
      265.100   1.11577e-07
      265.200   1.10361e-07
      265.300   1.09157e-07
      265.400   1.07967e-07
      265.500   1.06788e-07
      265.600   1.05622e-07
      265.700   1.04468e-07
      265.800   1.03328e-07
      265.900   1.02200e-07
      266.000   1.01084e-07
      266.100   9.99793e-08
      266.200   9.88866e-08
      266.300   9.78049e-08
      266.400   9.67351e-08
      266.500   9.56757e-08
      266.600   9.46281e-08
      266.700   9.35912e-08
      266.800   9.25658e-08
      266.900   9.15509e-08
      267.000   9.05464e-08
      267.100   8.95526e-08
      267.200   8.85702e-08
      267.300   8.75978e-08
      267.400   8.66352e-08
      267.500   8.56833e-08
      267.600   8.47415e-08
      267.700   8.38097e-08
      267.800   8.28876e-08
      267.900   8.19756e-08
      268.000   8.10735e-08
      268.100   8.01810e-08
      268.200   7.92983e-08
      268.300   7.84253e-08
      268.400   7.75612e-08
      268.500   7.67064e-08
      268.600   7.58608e-08
      268.700   7.50247e-08
      268.800   7.41973e-08
      268.900   7.33793e-08
      269.000   7.25701e-08
      269.100   7.17694e-08
      269.200   7.09778e-08
      269.300   7.01948e-08
      269.400   6.94197e-08
      269.500   6.86533e-08
      269.600   6.78955e-08
      269.700   6.71461e-08
      269.800   6.64047e-08
      269.900   6.56713e-08
      270.000   6.49462e-08
      270.100   6.42308e-08
      270.200   6.35241e-08
      270.300   6.28251e-08
      270.400   6.21335e-08
      270.500   6.14497e-08
      270.600   6.07731e-08
      270.700   6.01042e-08
      270.800   5.94427e-08
      270.900   5.87880e-08
      271.000   5.81408e-08
      271.100   5.75006e-08
      271.200   5.68672e-08
      271.300   5.62410e-08
      271.400   5.56215e-08
      271.500   5.50090e-08
      271.600   5.44028e-08
      271.700   5.38035e-08
      271.800   5.32109e-08
      271.900   5.26246e-08
      272.000   5.20449e-08
      272.100   5.14714e-08
      272.200   5.09043e-08
      272.300   5.03431e-08
      272.400   4.97881e-08
      272.500   4.92395e-08
      272.600   4.86966e-08
      272.700   4.81597e-08
      272.800   4.76286e-08
      272.900   4.71035e-08
      273.000   4.65842e-08
      273.100   4.60704e-08
      273.200   4.55621e-08
      273.300   4.50597e-08
      273.400   4.45625e-08
      273.500   4.40709e-08
      273.600   4.35846e-08
      273.700   4.31035e-08
      273.800   4.26276e-08
      273.900   4.21573e-08
      274.000   4.16918e-08
      274.100   4.12314e-08
      274.200   4.07761e-08
      274.300   4.03257e-08
      274.400   3.98679e-08
      274.500   3.93821e-08
      274.600   3.88963e-08
      274.700   3.84170e-08
      274.800   3.79432e-08
      274.900   3.74751e-08
      275.000   3.70127e-08
      275.100   3.65559e-08
      275.200   3.61046e-08
      275.300   3.56586e-08
      275.400   3.52182e-08
      275.500   3.47831e-08
      275.600   3.43529e-08
      275.700   3.39282e-08
      275.800   3.35086e-08
      275.900   3.30940e-08
      276.000   3.26844e-08
      276.100   3.22797e-08
      276.200   3.18799e-08
      276.300   3.14848e-08
      276.400   3.10946e-08
      276.500   3.07088e-08
      276.600   3.03280e-08
      276.700   2.99516e-08
      276.800   2.95799e-08
      276.900   2.92125e-08
      277.000   2.88496e-08
      277.100   2.84910e-08
      277.200   2.81367e-08
      277.300   2.77868e-08
      277.400   2.74410e-08
      277.500   2.70993e-08
      277.600   2.67619e-08
      277.700   2.64285e-08
      277.800   2.60990e-08
      277.900   2.57736e-08
      278.000   2.54521e-08
      278.100   2.51345e-08
      278.200   2.48207e-08
      278.300   2.45108e-08
      278.400   2.42046e-08
      278.500   2.39019e-08
      278.600   2.36029e-08
      278.700   2.33076e-08
      278.800   2.30159e-08
      278.900   2.27254e-08
      279.000   2.24378e-08
      279.100   2.21537e-08
      279.200   2.18730e-08
      279.300   2.15959e-08
      279.400   2.13220e-08
      279.500   2.10515e-08
      279.600   2.07843e-08
      279.700   2.05205e-08
      279.800   2.02598e-08
      279.900   2.00022e-08
      280.000   1.97479e-08
      280.100   1.94966e-08
      280.200   1.92485e-08
      280.300   1.90033e-08
      280.400   1.87611e-08
      280.500   1.85221e-08
      280.600   1.82859e-08
      280.700   1.80526e-08
      280.800   1.78222e-08
      280.900   1.75945e-08
      281.000   1.73697e-08
      281.100   1.71476e-08
      281.200   1.69282e-08
      281.300   1.67116e-08
      281.400   1.64977e-08
      281.500   1.62863e-08
      281.600   1.60775e-08
      281.700   1.58713e-08
      281.800   1.56677e-08
      281.900   1.54666e-08
      282.000   1.52679e-08
      282.100   1.50716e-08
      282.200   1.48780e-08
      282.300   1.46866e-08
      282.400   1.44975e-08
      282.500   1.43108e-08
      282.600   1.41265e-08
      282.700   1.39443e-08
      282.800   1.37644e-08
      282.900   1.35869e-08
      283.000   1.34114e-08
      283.100   1.32382e-08
      283.200   1.30671e-08
      283.300   1.28982e-08
      283.400   1.27314e-08
      283.500   1.25666e-08
      283.600   1.24039e-08
      283.700   1.22431e-08
      283.800   1.20843e-08
      283.900   1.19276e-08
      284.000   1.17728e-08
      284.100   1.16200e-08
      284.200   1.14690e-08
      284.300   1.13199e-08
      284.400   1.11727e-08
      284.500   1.10273e-08
      284.600   1.08837e-08
      284.700   1.07420e-08
      284.800   1.06021e-08
      284.900   1.04638e-08
      285.000   1.03273e-08
      285.100   1.01925e-08
      285.200   1.00594e-08
      285.300   9.92794e-09
      285.400   9.79812e-09
      285.500   9.66996e-09
      285.600   9.54346e-09
      285.700   9.41849e-09
      285.800   9.29516e-09
      285.900   9.17332e-09
      286.000   9.05304e-09
      286.100   8.93434e-09
      286.200   8.81705e-09
      286.300   8.70131e-09
      286.400   8.58706e-09
      286.500   8.47418e-09
      286.600   8.36276e-09
      286.700   8.25274e-09
      286.800   8.14412e-09
      286.900   8.03688e-09
      287.000   7.93100e-09
      287.100   7.82645e-09
      287.200   7.72327e-09
      287.300   7.62138e-09
      287.400   7.52077e-09
      287.500   7.42145e-09
      287.600   7.32341e-09
      287.700   7.22658e-09
      287.800   7.13103e-09
      287.900   7.03670e-09
      288.000   6.94361e-09
      288.100   6.85165e-09
      288.200   6.76094e-09
      288.300   6.67140e-09
      288.400   6.58296e-09
      288.500   6.49571e-09
      288.600   6.40951e-09
      288.700   6.32445e-09
      288.800   6.24048e-09
      288.900   6.15762e-09
      289.000   6.07580e-09
      289.100   5.99502e-09
      289.200   5.91531e-09
      289.300   5.83662e-09
      289.400   5.75892e-09
      289.500   5.68225e-09
      289.600   5.60654e-09
      289.700   5.53187e-09
      289.800   5.45811e-09
      289.900   5.38531e-09
      290.000   5.31347e-09
      290.100   5.24253e-09
      290.200   5.17256e-09
      290.300   5.10348e-09
      290.400   5.03530e-09
      290.500   4.96804e-09
      290.600   4.90161e-09
      290.700   4.83605e-09
      290.800   4.77139e-09
      290.900   4.70753e-09
      291.000   4.64448e-09
      291.100   4.58225e-09
      291.200   4.52086e-09
      291.300   4.46025e-09
      291.400   4.40045e-09
      291.500   4.34142e-09
      291.600   4.28315e-09
      291.700   4.22568e-09
      291.800   4.16893e-09
      291.900   4.11295e-09
      292.000   4.05770e-09
      292.100   4.00317e-09
      292.200   3.94937e-09
      292.300   3.89625e-09
      292.400   3.84383e-09
      292.500   3.79209e-09
      292.600   3.74102e-09
      292.700   3.69064e-09
      292.800   3.64092e-09
      292.900   3.59187e-09
      293.000   3.54345e-09
      293.100   3.49565e-09
      293.200   3.44848e-09
      293.300   3.40194e-09
      293.400   3.35603e-09
      293.500   3.31072e-09
      293.600   3.26600e-09
      293.700   3.22186e-09
      293.800   3.17832e-09
      293.900   3.13536e-09
      294.000   3.09295e-09
      294.100   3.05110e-09
      294.200   3.00981e-09
      294.300   2.96908e-09
      294.400   2.92885e-09
      294.500   2.88917e-09
      294.600   2.85001e-09
      294.700   2.81137e-09
      294.800   2.77324e-09
      294.900   2.73562e-09
      295.000   2.69849e-09
      295.100   2.66187e-09
      295.200   2.62574e-09
      295.300   2.59007e-09
      295.400   2.55488e-09
      295.500   2.52017e-09
      295.600   2.48590e-09
      295.700   2.45210e-09
      295.800   2.41874e-09
      295.900   2.38581e-09
      296.000   2.35332e-09
      296.100   2.32126e-09
      296.200   2.28964e-09
      296.300   2.25844e-09
      296.400   2.22767e-09
      296.500   2.19729e-09
      296.600   2.16732e-09
      296.700   2.13775e-09
      296.800   2.10858e-09
      296.900   2.07978e-09
      297.000   2.05137e-09
      297.100   2.02335e-09
      297.200   1.99569e-09
      297.300   1.96840e-09
      297.400   1.94147e-09
      297.500   1.91490e-09
      297.600   1.88869e-09
      297.700   1.86283e-09
      297.800   1.83731e-09
      297.900   1.81214e-09
      298.000   1.78731e-09
      298.100   1.76281e-09
      298.200   1.73863e-09
      298.300   1.71479e-09
      298.400   1.69125e-09
      298.500   1.66802e-09
      298.600   1.64511e-09
      298.700   1.62250e-09
      298.800   1.60019e-09
      298.900   1.57820e-09
      299.000   1.55650e-09
      299.100   1.53510e-09
      299.200   1.51397e-09
      299.300   1.49313e-09
      299.400   1.47256e-09
      299.500   1.45228e-09
      299.600   1.43226e-09
      299.700   1.41252e-09
      299.800   1.39302e-09
      299.900   1.37381e-09
      300.000   1.35485e-09
      300.100   1.33614e-09
      300.192   1.31916e-09
      300.285   1.30220e-09
      300.377   1.28563e-09
      300.470   1.26910e-09
      300.562   1.25295e-09
      300.654   1.23699e-09
      300.747   1.22106e-09
      300.839   1.20551e-09
      300.932   1.18997e-09
      301.025   1.17463e-09
      301.117   1.15965e-09
      301.210   1.14469e-09
      301.303   1.12992e-09
      301.395   1.11551e-09
      301.488   1.10109e-09
      301.581   1.08688e-09
      301.674   1.07284e-09
      301.766   1.05912e-09
      301.859   1.04542e-09
      301.952   1.03191e-09
      302.045   1.01855e-09
      302.138   1.00539e-09
      302.231   9.92440e-10
      302.324   9.79656e-10
      302.417   9.67027e-10
      302.510   9.54550e-10
      302.603   9.42246e-10
      302.696   9.30087e-10
      302.789   9.18078e-10
      302.882   9.06217e-10
      302.976   8.94391e-10
      303.069   8.82832e-10
      303.162   8.71421e-10
      303.255   8.60147e-10
      303.349   8.48901e-10
      303.442   8.37906e-10
      303.535   8.27064e-10
      303.629   8.16239e-10
      303.722   8.05665e-10
      303.816   7.95111e-10
      303.909   7.84800e-10
      304.003   7.74513e-10
      304.096   7.64458e-10
      304.190   7.54427e-10
      304.283   7.44627e-10
      304.377   7.34856e-10
      304.471   7.25200e-10
      304.564   7.15770e-10
      304.658   7.06366e-10
      304.752   6.97070e-10
      304.846   6.87902e-10
      304.939   6.78944e-10
      305.033   6.70003e-10
      305.127   6.61178e-10
      305.221   6.52466e-10
      305.315   6.43866e-10
      305.409   6.35375e-10
      305.503   6.26994e-10
      305.597   6.18721e-10
      305.691   6.10551e-10
      305.785   6.02485e-10
      305.879   5.94522e-10
      305.973   5.86666e-10
      306.067   5.78905e-10
      306.161   5.71250e-10
      306.255   5.63689e-10
      306.350   5.56148e-10
      306.444   5.48781e-10
      306.538   5.41508e-10
      306.633   5.34257e-10
      306.727   5.27172e-10
      306.821   5.20177e-10
      306.916   5.13200e-10
      307.010   5.06391e-10
      307.105   4.99602e-10
      307.199   4.92972e-10
      307.294   4.86357e-10
      307.388   4.79897e-10
      307.483   4.73455e-10
      307.577   4.67162e-10
      307.672   4.60885e-10
      307.767   4.54691e-10
      307.861   4.48642e-10
      307.956   4.42604e-10
      308.051   4.36647e-10
      308.146   4.30770e-10
      308.240   4.25031e-10
      308.335   4.19304e-10
      308.430   4.13651e-10
      308.525   4.08072e-10
      308.620   4.02569e-10
      308.715   3.97137e-10
      308.810   3.91776e-10
      308.905   3.86486e-10
      309.000   3.81265e-10
      309.095   3.76114e-10
      309.190   3.71031e-10
      309.285   3.66013e-10
      309.380   3.61061e-10
      309.476   3.56127e-10
      309.571   3.51305e-10
      309.666   3.46546e-10
      309.761   3.41852e-10
      309.857   3.37171e-10
      309.952   3.32600e-10
      310.047   3.28091e-10
      310.143   3.23593e-10
      310.238   3.19203e-10
      310.334   3.14825e-10
      310.429   3.10548e-10
      310.525   3.06286e-10
      310.620   3.02124e-10
      310.716   2.97973e-10
      310.811   2.93921e-10
      310.907   2.89883e-10
      311.003   2.85898e-10
      311.098   2.82006e-10
      311.194   2.78125e-10
      311.290   2.74298e-10
      311.386   2.70523e-10
      311.481   2.66835e-10
      311.577   2.63161e-10
      311.673   2.59534e-10
      311.769   2.55956e-10
      311.865   2.52428e-10
      311.961   2.48966e-10
      312.057   2.45634e-10
      312.153   2.42380e-10
      312.249   2.39164e-10
      312.345   2.35991e-10
      312.441   2.32857e-10
      312.537   2.29765e-10
      312.633   2.26714e-10
      312.730   2.23670e-10
      312.826   2.20697e-10
      312.922   2.17764e-10
      313.018   2.14869e-10
      313.115   2.11982e-10
      313.211   2.09161e-10
      313.307   2.06377e-10
      313.404   2.03602e-10
      313.500   2.00890e-10
      313.597   1.98188e-10
      313.693   1.95549e-10
      313.790   1.92916e-10
      313.886   1.90345e-10
      313.983   1.87780e-10
      314.079   1.85276e-10
      314.176   1.82779e-10
      314.273   1.80315e-10
      314.369   1.77909e-10
      314.466   1.75510e-10
      314.563   1.73142e-10
      314.660   1.70806e-10
      314.756   1.68524e-10
      314.853   1.66248e-10
      314.950   1.64003e-10
      315.047   1.61787e-10
      315.144   1.59601e-10
      315.241   1.57444e-10
      315.338   1.55315e-10
      315.435   1.53215e-10
      315.532   1.51142e-10
      315.629   1.49098e-10
      315.726   1.47080e-10
      315.823   1.45088e-10
      315.921   1.43103e-10
      316.018   1.41165e-10
      316.115   1.39252e-10
      316.212   1.37365e-10
      316.310   1.35484e-10
      316.407   1.33646e-10
      316.504   1.31833e-10
      316.602   1.30026e-10
      316.699   1.28261e-10
      316.796   1.26521e-10
      316.894   1.24785e-10
      316.991   1.23097e-10
      317.089   1.21458e-10
      317.187   1.19867e-10
      317.284   1.18309e-10
      317.382   1.16756e-10
      317.479   1.15238e-10
      317.577   1.13725e-10
      317.675   1.12231e-10
      317.773   1.10756e-10
      317.870   1.09315e-10
      317.968   1.07877e-10
      318.066   1.06458e-10
      318.164   1.05057e-10
      318.262   1.03675e-10
      318.360   1.02310e-10
      318.458   1.00963e-10
      318.556   9.96338e-11
      318.654   9.83215e-11
      318.752   9.70257e-11
      318.850   9.57470e-11
      318.948   9.44844e-11
      319.046   9.32383e-11
      319.144   9.20078e-11
      319.242   9.07937e-11
      319.341   8.95831e-11
      319.439   8.84001e-11
      319.537   8.72328e-11
      319.635   8.60803e-11
      319.734   8.49311e-11
      319.832   8.38086e-11
      319.930   8.27001e-11
      320.029   8.15952e-11
      320.127   8.05157e-11
      320.226   7.94393e-11
      320.324   7.83871e-11
      320.423   7.73379e-11
      320.522   7.63035e-11
      320.620   7.52926e-11
      320.719   7.42842e-11
      320.818   7.32892e-11
      320.916   7.23171e-11
      321.015   7.13475e-11
      321.114   7.03908e-11
      321.213   6.94465e-11
      321.311   6.85242e-11
      321.410   6.76049e-11
      321.509   6.66971e-11
      321.608   6.58016e-11
      321.707   6.49176e-11
      321.806   6.40450e-11
      321.905   6.31842e-11
      322.004   6.23344e-11
      322.103   6.14961e-11
      322.202   6.06684e-11
      322.301   5.98519e-11
      322.401   5.90382e-11
      322.500   5.82431e-11
      322.599   5.74585e-11
      322.698   5.66843e-11
      322.798   5.59124e-11
      322.897   5.51582e-11
      322.996   5.44142e-11
      323.096   5.36722e-11
      323.195   5.29475e-11
      323.294   5.22324e-11
      323.394   5.15199e-11
      323.493   5.08235e-11
      323.593   5.01295e-11
      323.692   4.94515e-11
      323.792   4.87759e-11
      323.892   4.81091e-11
      323.991   4.74575e-11
      324.091   4.68084e-11
      324.191   4.61678e-11
      324.291   4.55357e-11
      324.390   4.49186e-11
      324.490   4.43030e-11
      324.590   4.36960e-11
      324.690   4.30971e-11
      324.790   4.25060e-11
      324.890   4.19230e-11
      324.990   4.13475e-11
      325.090   4.07796e-11
      325.190   4.02195e-11
      325.290   3.96673e-11
      325.390   3.91216e-11
      325.490   3.85839e-11
      325.590   3.80533e-11
      325.690   3.75294e-11
      325.790   3.70128e-11
      325.891   3.64981e-11
      325.991   3.59952e-11
      326.091   3.54990e-11
      326.192   3.50047e-11
      326.292   3.45218e-11
      326.392   3.40455e-11
      326.493   3.35709e-11
      326.593   3.31072e-11
      326.694   3.26456e-11
      326.794   3.21944e-11
      326.895   3.17448e-11
      326.995   3.13056e-11
      327.096   3.08682e-11
      327.197   3.04367e-11
      327.297   3.00151e-11
      327.398   2.95952e-11
      327.499   2.91810e-11
      327.599   2.87763e-11
      327.700   2.83730e-11
      327.801   2.79753e-11
      327.902   2.75833e-11
      328.003   2.71963e-11
      328.104   2.68146e-11
      328.205   2.64382e-11
      328.306   2.60669e-11
      328.407   2.57007e-11
      328.508   2.53393e-11
      328.609   2.49830e-11
      328.710   2.46315e-11
      328.811   2.42849e-11
      328.912   2.39430e-11
      329.013   2.36057e-11
      329.115   2.32699e-11
      329.216   2.29418e-11
      329.317   2.26182e-11
      329.419   2.22961e-11
      329.520   2.19814e-11
      329.621   2.16708e-11
      329.723   2.13615e-11
      329.824   2.10599e-11
      329.926   2.07592e-11
      330.027   2.04655e-11
      330.129   2.01730e-11
      330.230   1.98876e-11
      330.332   1.96031e-11
      330.434   1.93227e-11
      330.535   1.90487e-11
      330.637   1.87759e-11
      330.739   1.85070e-11
      330.840   1.82443e-11
      330.942   1.79827e-11
      331.044   1.77248e-11
      331.146   1.74705e-11
      331.248   1.72197e-11
      331.350   1.69724e-11
      331.452   1.67290e-11
      331.554   1.64980e-11
      331.656   1.62841e-11
      331.758   1.60730e-11
      331.860   1.58644e-11
      331.962   1.56584e-11
      332.064   1.54550e-11
      332.166   1.52543e-11
      332.268   1.50559e-11
      332.371   1.48583e-11
      332.473   1.46649e-11
      332.575   1.44739e-11
      332.677   1.42854e-11
      332.780   1.40976e-11
      332.882   1.39138e-11
      332.985   1.37306e-11
      333.087   1.35514e-11
      333.190   1.33728e-11
      333.292   1.31941e-11
      333.395   1.30055e-11
      333.497   1.28173e-11
      333.600   1.26300e-11
      333.702   1.24471e-11
      333.805   1.22651e-11
      333.908   1.20855e-11
      334.011   1.19086e-11
      334.113   1.17358e-11
      334.216   1.15638e-11
      334.319   1.13944e-11
      334.422   1.12272e-11
      334.525   1.10625e-11
      334.628   1.09002e-11
      334.731   1.07402e-11
      334.834   1.05825e-11
      334.937   1.04270e-11
      335.040   1.02737e-11
      335.143   1.01227e-11
      335.246   9.97380e-12
      335.349   9.82705e-12
      335.452   9.68241e-12
      335.555   9.53988e-12
      335.659   9.39799e-12
      335.762   9.25950e-12
      335.865   9.12307e-12
      335.969   8.98725e-12
      336.072   8.85461e-12
      336.175   8.72402e-12
      336.279   8.59404e-12
      336.382   8.46717e-12
      336.486   8.34088e-12
      336.589   8.21762e-12
      336.693   8.09506e-12
      336.796   7.97542e-12
      336.900   7.85634e-12
      337.004   7.73894e-12
      337.107   7.62449e-12
      337.211   7.51051e-12
      337.315   7.39833e-12
      337.419   7.28768e-12
      337.523   7.17864e-12
      337.626   7.07227e-12
      337.730   6.96647e-12
      337.834   6.86217e-12
      337.938   6.75944e-12
      338.042   6.65860e-12
      338.146   6.56095e-12
      338.250   6.46482e-12
      338.354   6.37008e-12
      338.458   6.27664e-12
      338.562   6.18456e-12
      338.667   6.09299e-12
      338.771   6.00355e-12
      338.875   5.91542e-12
      338.979   5.82854e-12
      339.084   5.74219e-12
      339.188   5.65784e-12
      339.292   5.57474e-12
      339.397   5.49202e-12
      339.501   5.41134e-12
      339.606   5.33098e-12
      339.710   5.25260e-12
      339.815   5.17459e-12
      339.919   5.09850e-12
      340.024   5.02273e-12
      340.128   4.94887e-12
      340.233   4.87529e-12
      340.338   4.80287e-12
      340.442   4.73212e-12
      340.547   4.66178e-12
      340.652   4.59244e-12
      340.757   4.52414e-12
      340.862   4.45683e-12
      340.966   4.39115e-12
      341.071   4.32581e-12
      341.176   4.26142e-12
      341.281   4.19798e-12
      341.386   4.13550e-12
      341.491   4.07388e-12
      341.596   4.01324e-12
      341.702   3.95289e-12
      341.807   3.89399e-12
      341.912   3.83597e-12
      342.017   3.77880e-12
      342.122   3.72245e-12
      342.228   3.66647e-12
      342.333   3.61179e-12
      342.438   3.55793e-12
      342.544   3.50439e-12
      342.649   3.45211e-12
      342.754   3.40064e-12
      342.860   3.34941e-12
      342.965   3.29940e-12
      343.071   3.24973e-12
      343.176   3.20124e-12
      343.282   3.15298e-12
      343.388   3.10548e-12
      343.493   3.05947e-12
      343.599   3.01694e-12
      343.705   2.97530e-12
      343.810   2.93458e-12
      343.916   2.89407e-12
      344.022   2.85411e-12
      344.128   2.81470e-12
      344.234   2.77581e-12
      344.340   2.73747e-12
      344.446   2.69963e-12
      344.552   2.66232e-12
      344.658   2.62553e-12
      344.764   2.58927e-12
      344.870   2.55346e-12
      344.976   2.51818e-12
      345.082   2.48336e-12
      345.188   2.44904e-12
      345.294   2.41516e-12
      345.401   2.38145e-12
      345.507   2.34851e-12
      345.613   2.31603e-12
      345.719   2.28399e-12
      345.826   2.25210e-12
      345.932   2.22093e-12
      346.039   2.18992e-12
      346.145   2.15960e-12
      346.252   2.12944e-12
      346.358   2.09995e-12
      346.465   2.07063e-12
      346.571   2.04196e-12
      346.678   2.01341e-12
      346.785   1.98526e-12
      346.891   1.95777e-12
      346.998   1.93041e-12
      347.105   1.90342e-12
      347.212   1.87680e-12
      347.319   1.85054e-12
      347.425   1.82489e-12
      347.532   1.79935e-12
      347.639   1.77418e-12
      347.746   1.74935e-12
      347.853   1.72486e-12
      347.960   1.70071e-12
      348.067   1.67691e-12
      348.174   1.65344e-12
      348.281   1.63028e-12
      348.389   1.60723e-12
      348.496   1.58471e-12
      348.603   1.56252e-12
      348.710   1.54063e-12
      348.818   1.51884e-12
      348.925   1.49754e-12
      349.032   1.47655e-12
      349.140   1.45557e-12
      349.247   1.43506e-12
      349.355   1.41466e-12
      349.462   1.39473e-12
      349.570   1.37487e-12
      349.677   1.35549e-12
      349.785   1.33619e-12
      349.892   1.31734e-12
      350.000   1.29859e-12
      350.100   1.28146e-12
      350.193   1.26573e-12
      350.287   1.25001e-12
      350.380   1.23467e-12
      350.473   1.21950e-12
      350.567   1.20435e-12
      350.660   1.18955e-12
      350.754   1.17477e-12
      350.847   1.16033e-12
      350.941   1.14591e-12
      351.034   1.13182e-12
      351.128   1.11775e-12
      351.221   1.10400e-12
      351.315   1.09027e-12
      351.409   1.07670e-12
      351.502   1.06345e-12
      351.596   1.05021e-12
      351.690   1.03713e-12
      351.783   1.02436e-12
      351.877   1.01161e-12
      351.971   9.99004e-13
      352.065   9.86558e-13
      352.159   9.74261e-13
      352.252   9.62243e-13
      352.346   9.50241e-13
      352.440   9.38392e-13
      352.534   9.26695e-13
      352.628   9.15128e-13
      352.722   9.03702e-13
      352.816   8.92421e-13
      352.910   8.81282e-13
      353.004   8.70280e-13
      353.098   8.59404e-13
      353.192   8.48661e-13
      353.287   8.37942e-13
      353.381   8.27458e-13
      353.475   8.17116e-13
      353.569   8.06887e-13
      353.663   7.96792e-13
      353.758   7.86719e-13
      353.852   7.76871e-13
      353.946   7.67139e-13
      354.041   7.57427e-13
      354.135   7.47936e-13
      354.229   7.38557e-13
      354.324   7.29198e-13
      354.418   7.20051e-13
      354.513   7.10919e-13
      354.607   7.02004e-13
      354.702   6.93051e-13
      354.796   6.84127e-13
      354.891   6.75201e-13
      354.985   6.66487e-13
      355.080   6.57790e-13
      355.175   6.49199e-13
      355.269   6.40809e-13
      355.364   6.32436e-13
      355.459   6.24173e-13
      355.553   6.16095e-13
      355.648   6.08039e-13
      355.743   6.00089e-13
      355.838   5.92227e-13
      355.933   5.84478e-13
      356.027   5.76903e-13
      356.122   5.69341e-13
      356.217   5.61878e-13
      356.312   5.54516e-13
      356.407   5.47241e-13
      356.502   5.40061e-13
      356.597   5.32970e-13
      356.692   5.25971e-13
      356.787   5.19062e-13
      356.882   5.12236e-13
      356.977   5.05506e-13
      357.073   4.98789e-13
      357.168   4.92222e-13
      357.263   4.85744e-13
      357.358   4.79346e-13
      357.453   4.73033e-13
      357.549   4.66735e-13
      357.644   4.60581e-13
      357.739   4.54510e-13
      357.835   4.48447e-13
      357.930   4.42527e-13
      358.025   4.36683e-13
      358.121   4.30855e-13
      358.216   4.25160e-13
      358.312   4.19478e-13
      358.407   4.13931e-13
      358.503   4.08396e-13
      358.598   4.02992e-13
      358.694   3.97599e-13
      358.790   3.92274e-13
      358.885   3.87072e-13
      358.981   3.81885e-13
      359.076   3.76821e-13
      359.172   3.71769e-13
      359.268   3.66777e-13
      359.364   3.61852e-13
      359.459   3.57047e-13
      359.555   3.52249e-13
      359.651   3.47514e-13
      359.747   3.42840e-13
      359.843   3.38228e-13
      359.939   3.33675e-13
      360.035   3.29183e-13
      360.131   3.24750e-13
      360.227   3.20370e-13
      360.323   3.16052e-13
      360.419   3.11790e-13
      360.515   3.07584e-13
      360.611   3.03430e-13
      360.707   2.99327e-13
      360.803   2.95286e-13
      360.899   2.91292e-13
      360.995   2.87354e-13
      361.092   2.83425e-13
      361.188   2.79587e-13
      361.284   2.75800e-13
      361.380   2.72063e-13
      361.477   2.68335e-13
      361.573   2.64695e-13
      361.669   2.61104e-13
      361.766   2.57520e-13
      361.862   2.54023e-13
      361.959   2.50537e-13
      362.055   2.47127e-13
      362.152   2.43732e-13
      362.248   2.40415e-13
      362.345   2.37106e-13
      362.441   2.33877e-13
      362.538   2.30658e-13
      362.635   2.27481e-13
      362.731   2.24376e-13
      362.828   2.21281e-13
      362.925   2.18229e-13
      363.021   2.15247e-13
      363.118   2.12276e-13
      363.215   2.09343e-13
      363.312   2.06448e-13
      363.409   2.03594e-13
      363.505   2.00806e-13
      363.602   1.98025e-13
      363.699   1.95283e-13
      363.796   1.92577e-13
      363.893   1.89907e-13
      363.990   1.87274e-13
      364.087   1.84675e-13
      364.184   1.82112e-13
      364.281   1.79582e-13
      364.378   1.77087e-13
      364.475   1.74625e-13
      364.573   1.72171e-13
      364.670   1.69775e-13
      364.767   1.67411e-13
      364.864   1.65079e-13
      364.961   1.62778e-13
      365.059   1.60486e-13
      365.156   1.58248e-13
      365.253   1.56039e-13
      365.351   1.53839e-13
      365.448   1.51689e-13
      365.545   1.49570e-13
      365.643   1.47457e-13
      365.740   1.45394e-13
      365.838   1.43338e-13
      365.935   1.41332e-13
      366.033   1.39333e-13
      366.130   1.37380e-13
      366.228   1.35434e-13
      366.326   1.33516e-13
      366.423   1.31643e-13
      366.521   1.29776e-13
      366.618   1.27953e-13
      366.716   1.26137e-13
      366.814   1.24346e-13
      366.912   1.22581e-13
      367.010   1.20838e-13
      367.107   1.19137e-13
      367.205   1.17442e-13
      367.303   1.15771e-13
      367.401   1.14123e-13
      367.499   1.12497e-13
      367.597   1.10894e-13
      367.695   1.09313e-13
      367.793   1.07754e-13
      367.891   1.06217e-13
      367.989   1.04700e-13
      368.087   1.03205e-13
      368.185   1.01731e-13
      368.283   1.00277e-13
      368.381   9.88422e-14
      368.480   9.74141e-14
      368.578   9.60200e-14
      368.676   9.46455e-14
      368.774   9.32904e-14
      368.873   9.19402e-14
      368.971   9.06223e-14
      369.069   8.93226e-14
      369.168   8.80276e-14
      369.266   8.67642e-14
      369.364   8.55182e-14
      369.463   8.42775e-14
      369.561   8.30667e-14
      369.660   8.18605e-14
      369.758   8.06832e-14
      369.857   7.95110e-14
      369.955   7.83669e-14
      370.054   7.72269e-14
      370.153   7.61033e-14
      370.251   7.50069e-14
      370.350   7.39150e-14
      370.449   7.28390e-14
      370.547   7.17884e-14
      370.646   7.07415e-14
      370.745   6.97104e-14
      370.844   6.86938e-14
      370.943   6.76916e-14
      371.041   6.67137e-14
      371.140   6.57393e-14
      371.239   6.47789e-14
      371.338   6.38327e-14
      371.437   6.29000e-14
      371.536   6.19806e-14
      371.635   6.10738e-14
      371.734   6.01804e-14
      371.833   5.92999e-14
      371.932   5.84319e-14
      372.032   5.75677e-14
      372.131   5.67241e-14
      372.230   5.58933e-14
      372.329   5.50744e-14
      372.428   5.42668e-14
      372.528   5.34633e-14
      372.627   5.26794e-14
      372.726   5.19066e-14
      372.826   5.11373e-14
      372.925   5.03866e-14
      373.024   4.96465e-14
      373.124   4.89098e-14
      373.223   4.81914e-14
      373.323   4.74764e-14
      373.422   4.67784e-14
      373.522   4.60835e-14
      373.621   4.54061e-14
      373.721   4.47315e-14
      373.820   4.40735e-14
      373.920   4.34184e-14
      374.020   4.27723e-14
      374.119   4.21427e-14
      374.219   4.15156e-14
      374.319   4.08981e-14
      374.419   4.02899e-14
      374.518   3.96959e-14
      374.618   3.91049e-14
      374.718   3.85220e-14
      374.818   3.79485e-14
      374.918   3.73835e-14
      375.018   3.68263e-14
      375.118   3.62776e-14
      375.218   3.57365e-14
      375.318   3.52038e-14
      375.418   3.46785e-14
      375.518   3.41615e-14
      375.618   3.36520e-14
      375.718   3.31498e-14
      375.818   3.26550e-14
      375.918   3.21676e-14
      376.019   3.16828e-14
      376.119   3.12097e-14
      376.219   3.07437e-14
      376.319   3.02843e-14
      376.420   2.98276e-14
      376.520   2.93819e-14
      376.620   2.89430e-14
      376.721   2.85061e-14
      376.821   2.80801e-14
      376.922   2.76562e-14
      377.022   2.72426e-14
      377.122   2.68354e-14
      377.223   2.64301e-14
      377.323   2.60350e-14
      377.424   2.56416e-14
      377.525   2.52543e-14
      377.625   2.48765e-14
      377.726   2.45006e-14
      377.827   2.41305e-14
      377.927   2.37692e-14
      378.028   2.34101e-14
      378.129   2.30562e-14
      378.230   2.27078e-14
      378.330   2.23686e-14
      378.431   2.20312e-14
      378.532   2.16992e-14
      378.633   2.13717e-14
      378.734   2.10493e-14
      378.835   2.07317e-14
      378.936   2.04189e-14
      379.037   2.01109e-14
      379.138   1.98073e-14
      379.239   1.95083e-14
      379.340   1.92140e-14
      379.441   1.89240e-14
      379.542   1.86383e-14
      379.643   1.83570e-14
      379.745   1.80772e-14
      379.846   1.78042e-14
      379.947   1.75353e-14
      380.048   1.72706e-14
      380.150   1.70072e-14
      380.251   1.67503e-14
      380.352   1.64974e-14
      380.454   1.62459e-14
      380.555   1.60005e-14
      380.656   1.57587e-14
      380.758   1.55183e-14
      380.859   1.52839e-14
      380.961   1.50509e-14
      381.062   1.48235e-14
      381.164   1.45973e-14
      381.266   1.43746e-14
      381.367   1.41574e-14
      381.469   1.39414e-14
      381.570   1.37308e-14
      381.672   1.35213e-14
      381.774   1.33149e-14
      381.876   1.31117e-14
      381.977   1.29136e-14
      382.079   1.27165e-14
      382.181   1.25225e-14
      382.283   1.23315e-14
      382.385   1.21433e-14
      382.487   1.19578e-14
      382.589   1.17753e-14
      382.691   1.15956e-14
      382.793   1.14187e-14
      382.895   1.12444e-14
      382.997   1.10727e-14
      383.099   1.09036e-14
      383.201   1.07373e-14
      383.303   1.05733e-14
      383.405   1.04119e-14
      383.507   1.02529e-14
      383.610   1.00948e-14
      383.712   9.94067e-15
      383.814   9.78898e-15
      383.916   9.63955e-15
      384.019   9.49090e-15
      384.121   9.34595e-15
      384.223   9.20323e-15
      384.326   9.06138e-15
      384.428   8.92291e-15
      384.531   8.78519e-15
      384.633   8.65092e-15
      384.736   8.51738e-15
      384.838   8.38713e-15
      384.941   8.25766e-15
      385.043   8.13138e-15
      385.146   8.00587e-15
      385.249   7.88229e-15
      385.351   7.76175e-15
      385.454   7.64188e-15
      385.557   7.52391e-15
      385.660   7.40772e-15
      385.762   7.29446e-15
      385.865   7.18181e-15
      385.968   7.07087e-15
      386.071   6.96161e-15
      386.174   6.85407e-15
      386.277   6.74823e-15
      386.380   6.64398e-15
      386.483   6.54130e-15
      386.586   6.44028e-15
      386.689   6.34077e-15
      386.792   6.24278e-15
      386.895   6.14631e-15
      386.998   6.05132e-15
      387.101   5.95781e-15
      387.204   5.86564e-15
      387.308   5.77409e-15
      387.411   5.68480e-15
      387.514   5.59688e-15
      387.617   5.51035e-15
      387.721   5.42433e-15
      387.824   5.34043e-15
      387.927   5.25776e-15
      388.031   5.17562e-15
      388.134   5.09555e-15
      388.238   5.01599e-15
      388.341   4.93833e-15
      388.445   4.86115e-15
      388.548   4.78585e-15
      388.652   4.71106e-15
      388.755   4.63813e-15
      388.859   4.56560e-15
      388.962   4.49489e-15
      389.066   4.42455e-15
      389.170   4.35539e-15
      389.274   4.28724e-15
      389.377   4.22079e-15
      389.481   4.15469e-15
      389.585   4.08968e-15
      389.689   4.02565e-15
      389.793   3.96258e-15
      389.897   3.90055e-15
      390.000   3.84002e-15
      390.104   3.77988e-15
      390.208   3.72062e-15
      390.312   3.66231e-15
      390.416   3.60488e-15
      390.520   3.54829e-15
      390.625   3.49202e-15
      390.729   3.43722e-15
      390.833   3.38322e-15
      390.937   3.33007e-15
      391.041   3.27776e-15
      391.145   3.22626e-15
      391.250   3.17505e-15
      391.354   3.12515e-15
      391.458   3.07600e-15
      391.563   3.02714e-15
      391.667   2.97952e-15
      391.771   2.93264e-15
      391.876   2.88602e-15
      391.980   2.84057e-15
      392.085   2.79540e-15
      392.189   2.75136e-15
      392.294   2.70758e-15
      392.398   2.66491e-15
      392.503   2.62249e-15
      392.607   2.58113e-15
      392.712   2.54003e-15
      392.817   2.49954e-15
      392.921   2.46010e-15
      393.026   2.42087e-15
      393.131   2.38228e-15
      393.236   2.34425e-15
      393.340   2.30721e-15
      393.445   2.27039e-15
      393.550   2.23414e-15
      393.655   2.19845e-15
      393.760   2.16333e-15
      393.865   2.12875e-15
      393.970   2.09473e-15
      394.075   2.06122e-15
      394.180   2.02825e-15
      394.285   1.99579e-15
      394.390   1.96384e-15
      394.495   1.93238e-15
      394.600   1.90142e-15
      394.706   1.87066e-15
      394.811   1.84068e-15
      394.916   1.81114e-15
      395.021   1.78207e-15
      395.126   1.75348e-15
      395.232   1.72505e-15
      395.337   1.69733e-15
      395.443   1.66980e-15
      395.548   1.64295e-15
      395.653   1.61654e-15
      395.759   1.59027e-15
      395.864   1.56468e-15
      395.970   1.53925e-15
      396.075   1.51445e-15
      396.181   1.48981e-15
      396.286   1.46577e-15
      396.392   1.44192e-15
      396.498   1.41844e-15
      396.603   1.39552e-15
      396.709   1.37277e-15
      396.815   1.35037e-15
      396.921   1.32833e-15
      397.026   1.30685e-15
      397.132   1.28550e-15
      397.238   1.26451e-15
      397.344   1.24382e-15
      397.450   1.22350e-15
      397.556   1.20347e-15
      397.662   1.18377e-15
      397.768   1.16439e-15
      397.874   1.14531e-15
      397.980   1.12653e-15
      398.086   1.10805e-15
      398.192   1.08987e-15
      398.298   1.07198e-15
      398.404   1.05437e-15
      398.510   1.03704e-15
      398.617   1.01984e-15
      398.723   1.00306e-15
      398.829   9.86548e-16
      398.935   9.70299e-16
      399.042   9.54170e-16
      399.148   9.38433e-16
      399.255   9.22819e-16
      399.361   9.07595e-16
      399.467   8.92597e-16
      399.574   8.77724e-16
      399.680   8.63214e-16
      399.787   8.48803e-16
      399.893       0.00000
      400.000       0.00000
