Filter Al-poly
observation_date 22-Sept-2015 22:40:45
wavelength effective area 
      1.00000   2.78457e-10
      1.10000   7.94914e-10
      1.20000   2.06647e-09
      1.30000   4.94132e-09
      1.40000   1.12122e-08
      1.50000   2.39198e-08
      1.60000   4.84228e-08
      1.70000   9.40060e-08
      1.80000   1.75013e-07
      1.90000   3.14553e-07
      2.00000   5.46848e-07
      2.10000   9.23659e-07
      2.20000   1.52303e-06
      2.30000   2.44830e-06
      2.40000   3.84376e-06
      2.50000   5.87435e-06
      2.60000   8.96496e-06
      2.70000   1.33662e-05
      2.80000   1.95472e-05
      2.90000   2.82929e-05
      3.00000   4.03129e-05
      3.10000   5.67016e-05
      3.20000   7.88831e-05
      3.30000   0.000108627
      3.40000   0.000148029
      3.50000   0.000199774
      3.60000   0.000268370
      3.70000   0.000356695
      3.80000   0.000472133
      3.90000   0.000621474
      4.00000   0.000812976
      4.10000    0.00105858
      4.20000    0.00137348
      4.30000    0.00177702
      4.40000    0.00229305
      4.50000    0.00295085
      4.60000    0.00378469
      4.70000    0.00485412
      4.80000    0.00621952
      4.90000    0.00786668
      5.00000     0.0102124
      5.10000     0.0130709
      5.20000     0.0167797
      5.30000     0.0213591
      5.40000     0.0271456
      5.50000     0.0345611
      5.60000     0.0426537
      5.70000     0.0554603
      5.80000     0.0650398
      5.90000     0.0993391
      6.00000      0.133584
      6.10000      0.170799
      6.20000      0.209840
      6.30000      0.247122
      6.40000      0.279166
      6.50000      0.302826
      6.60000      0.313636
      6.70000      0.323612
      6.80000      0.324240
      6.90000      0.425649
      7.00000      0.463198
      7.10000      0.490223
      7.20000      0.511823
      7.30000      0.529596
      7.40000      0.543315
      7.50000      0.554368
      7.60000      0.562863
      7.70000      0.567306
      7.80000      0.566578
      7.90000      0.566545
      8.00000      0.956322
      8.10000       1.05237
      8.20000       1.07527
      8.30000       1.09355
      8.40000       1.10779
      8.50000       1.12046
      8.60000       1.13124
      8.70000       1.14080
      8.80000       1.14880
      8.90000       1.15576
      9.00000       1.16159
      9.10000       1.16633
      9.20000       1.17019
      9.30000       1.17306
      9.40000       1.17509
      9.50000       1.17634
      9.60000       1.17675
      9.70000       1.17641
      9.80000       1.17548
      9.90000       1.17397
      10.0000       1.17195
      10.1000       1.16942
      10.2000       1.16641
      10.3000       1.16287
      10.4000       1.15881
      10.5000       1.15426
      10.6000       1.14927
      10.7000       1.14385
      10.8000       1.13801
      10.9000       1.13177
      11.0000       1.12515
      11.1000       1.11818
      11.2000       1.11086
      11.3000       1.10323
      11.4000       1.09527
      11.5000       1.08697
      11.6000       1.07834
      11.7000       1.06930
      11.8000       1.05994
      11.9000       1.05009
      12.0000       1.03863
      12.1000       1.03082
      12.2000       1.04101
      12.3000       1.04031
      12.4000       1.03187
      12.5000       1.02263
      12.6000       1.01299
      12.7000       1.00309
      12.8000      0.992999
      12.9000      0.982721
      13.0000      0.972314
      13.1000      0.961814
      13.2000      0.951247
      13.3000      0.940632
      13.4000      0.929995
      13.5000      0.919495
      13.6000      0.909103
      13.7000      0.898709
      13.8000      0.888304
      13.9000      0.877925
      14.0000      0.867567
      14.1000      0.857203
      14.2000      0.846833
      14.3000      0.836449
      14.4000      0.826020
      14.5000      0.815559
      14.6000      0.805049
      14.7000      0.794503
      14.8000      0.783931
      14.9000      0.773338
      15.0000      0.762737
      15.1000      0.752153
      15.2000      0.741585
      15.3000      0.731042
      15.4000      0.720525
      15.5000      0.710045
      15.6000      0.699646
      15.7000      0.689287
      15.8000      0.679023
      15.9000      0.668849
      16.0000      0.658760
      16.1000      0.648768
      16.2000      0.638892
      16.3000      0.629082
      16.4000      0.619342
      16.5000      0.609667
      16.6000      0.600047
      16.7000      0.590483
      16.8000      0.580975
      16.9000      0.571525
      17.0000      0.562135
      17.1000      0.552800
      17.2000      0.543517
      17.3000      0.534297
      17.4000      0.525279
      17.5000      0.516490
      17.6000      0.507869
      17.7000      0.499484
      17.8000      0.491459
      17.9000      0.483517
      18.0000      0.475585
      18.1000      0.467695
      18.2000      0.459791
      18.3000      0.451847
      18.4000      0.443812
      18.5000      0.435720
      18.6000      0.427557
      18.7000      0.419260
      18.8000      0.411022
      18.9000      0.402848
      19.0000      0.394735
      19.1000      0.386724
      19.2000      0.378805
      19.3000      0.371002
      19.4000      0.363321
      19.5000      0.355747
      19.6000      0.348341
      19.7000      0.341037
      19.8000      0.333828
      19.9000      0.326757
      20.0000      0.319763
      20.1000      0.312853
      20.2000      0.306009
      20.3000      0.299228
      20.4000      0.292536
      20.5000      0.285895
      20.6000      0.279306
      20.7000      0.272792
      20.8000      0.266332
      20.9000      0.259910
      21.0000      0.253555
      21.1000      0.247271
      21.2000      0.240984
      21.3000      0.234748
      21.4000      0.228580
      21.5000      0.222413
      21.6000      0.216238
      21.7000      0.210069
      21.8000      0.203930
      21.9000      0.197561
      22.0000      0.191175
      22.1000      0.184665
      22.2000      0.177756
      22.3000      0.170515
      22.4000      0.160526
      22.5000      0.149756
      22.6000      0.127625
      22.7000      0.116533
      22.8000      0.158881
      22.9000      0.211874
      23.0000      0.270595
      23.1000      0.308518
      23.2000      0.326116
      23.3000      0.330118
      23.4000      0.327053
      23.5000      0.323544
      23.6000      0.319944
      23.7000      0.315462
      23.8000      0.310935
      23.9000      0.306284
      24.0000      0.301629
      24.1000      0.296758
      24.2000      0.291910
      24.3000      0.287055
      24.4000      0.282209
      24.5000      0.277330
      24.6000      0.272488
      24.7000      0.267681
      24.8000      0.262907
      24.9000      0.258161
      25.0000      0.253459
      25.1000      0.248808
      25.2000      0.244198
      25.3000      0.239632
      25.4000      0.235117
      25.5000      0.230664
      25.6000      0.226269
      25.7000      0.221945
      25.8000      0.217668
      25.9000      0.213457
      26.0000      0.209286
      26.1000      0.205175
      26.2000      0.201104
      26.3000      0.197107
      26.4000      0.193143
      26.5000      0.189245
      26.6000      0.185380
      26.7000      0.181590
      26.8000      0.177846
      26.9000      0.174152
      27.0000      0.170494
      27.1000      0.166856
      27.2000      0.163243
      27.3000      0.160037
      27.4000      0.157322
      27.5000      0.154503
      27.6000      0.151345
      27.7000      0.148211
      27.8000      0.145049
      27.9000      0.141915
      28.0000      0.138852
      28.1000      0.135827
      28.2000      0.132867
      28.3000      0.129961
      28.4000      0.127101
      28.5000      0.124306
      28.6000      0.121544
      28.7000      0.118896
      28.8000      0.116272
      28.9000      0.113711
      29.0000      0.111184
      29.1000      0.108703
      29.2000      0.106270
      29.3000      0.103867
      29.4000      0.101528
      29.5000     0.0992114
      29.6000     0.0969538
      29.7000     0.0947279
      29.8000     0.0925436
      29.9000     0.0904074
      30.0000     0.0882942
      30.1000     0.0862442
      30.2000     0.0842147
      30.3000     0.0855602
      30.4000     0.0887969
      30.5000     0.0908763
      30.6000     0.0888139
      30.7000     0.0867723
      30.8000     0.0847844
      30.9000     0.0828265
      31.0000     0.0809014
      31.1000     0.0790247
      31.2000     0.0771674
      31.3000     0.0753632
      31.4000     0.0735851
      31.5000     0.0718385
      31.6000     0.0701372
      31.7000     0.0684538
      31.8000     0.0668199
      31.9000     0.0652113
      32.0000     0.0636297
      32.1000     0.0620938
      32.2000     0.0605743
      32.3000     0.0590980
      32.4000     0.0576497
      32.5000     0.0562242
      32.6000     0.0548714
      32.7000     0.0535372
      32.8000     0.0522356
      32.9000     0.0509635
      33.0000     0.0497050
      33.1000     0.0485255
      33.2000     0.0473717
      33.3000     0.0462396
      33.4000     0.0451391
      33.5000     0.0440509
      33.6000     0.0429920
      33.7000     0.0419570
      33.8000     0.0409328
      33.9000     0.0399450
      34.0000     0.0389711
      34.1000     0.0380171
      34.2000     0.0370899
      34.3000     0.0361724
      34.4000     0.0352763
      34.5000     0.0344046
      34.6000     0.0335423
      34.7000     0.0326901
      34.8000     0.0318475
      34.9000     0.0310139
      35.0000     0.0302137
      35.1000     0.0294246
      35.2000     0.0286468
      35.3000     0.0279004
      35.4000     0.0271621
      35.5000     0.0264391
      35.6000     0.0257416
      35.7000     0.0250518
      35.8000     0.0243803
      35.9000     0.0237293
      36.0000     0.0230855
      36.1000     0.0224621
      36.2000     0.0218552
      36.3000     0.0212550
      36.4000     0.0206766
      36.5000     0.0201113
      36.6000     0.0195524
      36.7000     0.0190161
      36.8000     0.0184903
      36.9000     0.0179707
      37.0000     0.0174735
      37.1000     0.0169851
      37.2000     0.0165024
      37.3000     0.0160419
      37.4000     0.0155889
      37.5000     0.0151412
      37.6000     0.0147147
      37.7000     0.0142949
      37.8000     0.0138801
      37.9000     0.0134853
      38.0000     0.0130969
      38.1000     0.0127131
      38.2000     0.0123478
      38.3000     0.0119889
      38.4000     0.0116343
      38.5000     0.0112961
      38.6000     0.0109649
      38.7000     0.0106376
      38.8000     0.0103247
      38.9000     0.0100194
      39.0000    0.00971779
      39.1000    0.00942829
      39.2000    0.00914737
      39.3000    0.00886985
      39.4000    0.00860200
      39.5000    0.00834376
      39.6000    0.00808870
      39.7000    0.00784086
      39.8000    0.00760398
      39.9000    0.00737001
      40.0000    0.00714075
      40.1000    0.00692367
      40.2000    0.00670927
      40.3000    0.00649756
      40.4000    0.00629843
      40.5000    0.00610228
      40.6000    0.00590856
      40.7000    0.00572433
      40.8000    0.00554505
      40.9000    0.00536805
      41.0000    0.00519752
      41.1000    0.00503391
      41.2000    0.00487241
      41.3000    0.00471464
      41.4000    0.00456584
      41.5000    0.00441893
      41.6000    0.00427391
      41.7000    0.00413755
      41.8000    0.00400391
      41.9000    0.00387200
      42.0000    0.00374583
      42.1000    0.00362460
      42.2000    0.00350494
      42.3000    0.00338803
      42.4000    0.00327811
      42.5000    0.00316963
      42.6000    0.00306256
      42.7000    0.00296174
      42.8000    0.00286353
      42.9000    0.00276660
      43.0000    0.00267309
      43.1000    0.00258436
      43.2000    0.00249680
      43.3000    0.00241041
      43.4000    0.00762471
      43.5000     0.0172211
      43.6000     0.0354031
      43.7000     0.0592972
      43.8000     0.0760012
      43.9000     0.0789867
      44.0000     0.0767713
      44.1000     0.0697185
      44.2000     0.0680629
      44.3000     0.0668743
      44.4000     0.0657095
      44.5000     0.0645746
      44.6000     0.0634433
      44.7000     0.0623157
      44.8000     0.0612307
      44.9000     0.0601549
      45.0000     0.0590825
      45.1000     0.0580263
      45.2000     0.0570044
      45.3000     0.0559857
      45.4000     0.0549703
      45.5000     0.0539868
      45.6000     0.0530199
      45.7000     0.0520562
      45.8000     0.0510970
      45.9000     0.0501807
      46.0000     0.0492673
      46.1000     0.0483567
      46.2000     0.0475040
      46.3000     0.0467486
      46.4000     0.0459956
      46.5000     0.0452450
      46.6000     0.0445310
      46.7000     0.0438364
      46.8000     0.0431440
      46.9000     0.0424537
      47.0000     0.0418122
      47.1000     0.0411759
      47.2000     0.0405416
      47.3000     0.0399144
      47.4000     0.0393130
      47.5000     0.0387136
      47.6000     0.0381161
      47.7000     0.0375293
      47.8000     0.0369583
      47.9000     0.0363891
      48.0000     0.0358217
      48.1000     0.0352689
      48.2000     0.0347275
      48.3000     0.0341878
      48.4000     0.0336498
      48.5000     0.0331286
      48.6000     0.0326150
      48.7000     0.0321030
      48.8000     0.0315927
      48.9000     0.0311015
      49.0000     0.0306152
      49.1000     0.0301306
      49.2000     0.0296476
      49.3000     0.0291846
      49.4000     0.0287246
      49.5000     0.0282661
      49.6000     0.0278090
      49.7000     0.0273722
      49.8000     0.0269372
      49.9000     0.0265037
      50.0000     0.0260719
      50.1000     0.0256557
      50.2000     0.0252510
      50.3000     0.0248514
      50.4000     0.0244575
      50.5000     0.0240696
      50.6000     0.0236873
      50.7000     0.0233104
      50.8000     0.0229382
      50.9000     0.0225718
      51.0000     0.0222115
      51.1000     0.0218569
      51.2000     0.0215072
      51.3000     0.0211624
      51.4000     0.0208233
      51.5000     0.0204888
      51.6000     0.0201588
      51.7000     0.0198331
      51.8000     0.0195101
      51.9000     0.0191916
      52.0000     0.0188779
      52.1000     0.0185691
      52.2000     0.0182644
      52.3000     0.0179636
      52.4000     0.0176680
      52.5000     0.0173768
      52.6000     0.0170892
      52.7000     0.0168053
      52.8000     0.0165254
      52.9000     0.0162499
      53.0000     0.0159788
      53.1000     0.0157115
      53.2000     0.0154485
      53.3000     0.0151892
      53.4000     0.0149338
      53.5000     0.0146823
      53.6000     0.0144342
      53.7000     0.0141897
      53.8000     0.0139491
      53.9000     0.0137122
      54.0000     0.0134792
      54.1000     0.0132503
      54.2000     0.0130243
      54.3000     0.0128013
      54.4000     0.0125820
      54.5000     0.0123661
      54.6000     0.0121535
      54.7000     0.0119444
      54.8000     0.0117385
      54.9000     0.0115357
      55.0000     0.0113362
      55.1000     0.0111396
      55.2000     0.0109365
      55.3000     0.0107277
      55.4000     0.0105222
      55.5000     0.0103200
      55.6000     0.0101216
      55.7000    0.00992654
      55.8000    0.00973471
      55.9000    0.00954626
      56.0000    0.00936230
      56.1000    0.00917798
      56.2000    0.00899384
      56.3000    0.00881333
      56.4000    0.00863590
      56.5000    0.00846140
      56.6000    0.00828993
      56.7000    0.00812174
      56.8000    0.00795652
      56.9000    0.00779456
      57.0000    0.00763585
      57.1000    0.00748003
      57.2000    0.00732673
      57.3000    0.00717594
      57.4000    0.00702816
      57.5000    0.00688324
      57.6000    0.00674092
      57.7000    0.00660111
      57.8000    0.00646412
      57.9000    0.00632967
      58.0000    0.00619767
      58.1000    0.00606805
      58.2000    0.00594112
      58.3000    0.00581657
      58.4000    0.00569422
      58.5000    0.00557403
      58.6000    0.00545626
      58.7000    0.00534088
      58.8000    0.00522769
      58.9000    0.00511655
      59.0000    0.00500744
      59.1000    0.00490048
      59.2000    0.00479551
      59.3000    0.00469260
      59.4000    0.00459179
      59.5000    0.00449312
      59.6000    0.00439632
      59.7000    0.00430121
      59.8000    0.00420786
      59.9000    0.00411633
      60.0000    0.00402681
      60.1000    0.00393907
      60.2000    0.00385304
      60.3000    0.00376867
      60.4000    0.00368593
      60.5000    0.00360497
      60.6000    0.00352555
      60.7000    0.00344764
      60.8000    0.00337127
      60.9000    0.00329639
      61.0000    0.00322303
      61.1000    0.00315116
      61.2000    0.00308075
      61.3000    0.00301181
      61.4000    0.00294427
      61.5000    0.00287809
      61.6000    0.00281327
      61.7000    0.00274976
      61.8000    0.00268788
      61.9000    0.00262741
      62.0000    0.00256818
      62.1000    0.00251022
      62.2000    0.00245357
      62.3000    0.00239805
      62.4000    0.00234363
      62.5000    0.00229029
      62.6000    0.00223802
      62.7000    0.00218682
      62.8000    0.00213689
      62.9000    0.00208804
      63.0000    0.00204023
      63.1000    0.00199342
      63.2000    0.00194758
      63.3000    0.00190265
      63.4000    0.00185865
      63.5000    0.00181563
      63.6000    0.00177354
      63.7000    0.00173236
      63.8000    0.00169207
      63.9000    0.00165265
      64.0000    0.00161406
      64.1000    0.00157630
      64.2000    0.00153937
      64.3000    0.00150326
      64.4000    0.00146792
      64.5000    0.00143335
      64.6000    0.00139951
      64.7000    0.00136639
      64.8000    0.00133397
      64.9000    0.00130223
      65.0000    0.00127120
      65.1000    0.00124092
      65.2000    0.00121132
      65.3000    0.00118237
      65.4000    0.00115405
      65.5000    0.00112632
      65.6000    0.00109917
      65.7000    0.00107263
      65.8000    0.00104669
      65.9000    0.00102136
      66.0000   0.000996621
      66.1000   0.000972481
      66.2000   0.000948881
      66.3000   0.000925795
      66.4000   0.000903199
      66.5000   0.000881097
      66.6000   0.000859489
      66.7000   0.000838385
      66.8000   0.000817781
      66.9000   0.000797772
      67.0000   0.000778333
      67.1000   0.000759341
      67.2000   0.000740773
      67.3000   0.000722638
      67.4000   0.000704911
      67.5000   0.000687593
      67.6000   0.000670677
      67.7000   0.000654150
      67.8000   0.000637978
      67.9000   0.000622137
      68.0000   0.000606718
      68.1000   0.000591730
      68.2000   0.000577081
      68.3000   0.000562780
      68.4000   0.000548823
      68.5000   0.000535196
      68.6000   0.000521883
      68.7000   0.000508869
      68.8000   0.000496148
      68.9000   0.000483849
      69.0000   0.000472580
      69.1000   0.000463014
      69.2000   0.000454454
      69.3000   0.000446137
      69.4000   0.000438136
      69.5000   0.000430076
      69.6000   0.000421882
      69.7000   0.000413995
      69.8000   0.000406454
      69.9000   0.000399052
      70.0000   0.000391771
      70.1000   0.000384513
      70.2000   0.000377865
      70.3000   0.000371810
      70.4000   0.000365827
      70.5000   0.000359996
      70.6000   0.000354303
      70.7000   0.000348697
      70.8000   0.000343169
      70.9000   0.000337571
      71.0000   0.000331918
      71.1000   0.000326516
      71.2000   0.000321357
      71.3000   0.000315974
      71.4000   0.000310310
      71.5000   0.000305042
      71.6000   0.000300336
      71.7000   0.000295625
      71.8000   0.000290815
      71.9000   0.000286173
      72.0000   0.000281843
      72.1000   0.000277465
      72.2000   0.000272591
      72.3000   0.000267815
      72.4000   0.000263552
      72.5000   0.000259359
      72.6000   0.000255227
      72.7000   0.000251158
      72.8000   0.000247152
      72.9000   0.000243212
      73.0000   0.000239414
      73.1000   0.000235714
      73.2000   0.000232073
      73.3000   0.000228488
      73.4000   0.000224985
      73.5000   0.000221582
      73.6000   0.000218228
      73.7000   0.000214922
      73.8000   0.000211663
      73.9000   0.000208452
      74.0000   0.000205306
      74.1000   0.000202411
      74.2000   0.000199619
      74.3000   0.000196665
      74.4000   0.000193603
      74.5000   0.000190628
      74.6000   0.000187784
      74.7000   0.000184979
      74.8000   0.000182212
      74.9000   0.000179484
      75.0000   0.000176773
      75.1000   0.000174098
      75.2000   0.000171462
      75.3000   0.000168865
      75.4000   0.000166327
      75.5000   0.000163869
      75.6000   0.000161446
      75.7000   0.000159056
      75.8000   0.000156702
      75.9000   0.000154403
      76.0000   0.000152146
      76.1000   0.000149924
      76.2000   0.000147734
      76.3000   0.000145582
      76.4000   0.000143491
      76.5000   0.000141432
      76.6000   0.000139399
      76.7000   0.000137391
      76.8000   0.000135408
      76.9000   0.000133452
      77.0000   0.000131523
      77.1000   0.000129622
      77.2000   0.000127751
      77.3000   0.000125907
      77.4000   0.000124092
      77.5000   0.000122301
      77.6000   0.000120508
      77.7000   0.000118738
      77.8000   0.000116991
      77.9000   0.000115264
      78.0000   0.000113544
      78.1000   0.000111798
      78.2000   0.000110080
      78.3000   0.000108495
      78.4000   0.000106973
      78.5000   0.000105462
      78.6000   0.000103941
      78.7000   0.000102443
      78.8000   0.000100923
      78.9000   9.94139e-05
      79.0000   9.79241e-05
      79.1000   9.64539e-05
      79.2000   9.50068e-05
      79.3000   9.36128e-05
      79.4000   9.22510e-05
      79.5000   9.08995e-05
      79.6000   8.95351e-05
      79.7000   8.81900e-05
      79.8000   8.68482e-05
      79.9000   8.55178e-05
      80.0000   8.42029e-05
      80.1000   8.28689e-05
      80.2000   8.15511e-05
      80.3000   8.02122e-05
      80.4000   7.88564e-05
      80.5000   7.75209e-05
      80.6000   7.62081e-05
      80.7000   7.49171e-05
      80.8000   7.36528e-05
      80.9000   7.24229e-05
      81.0000   7.12125e-05
      81.1000   7.00230e-05
      81.2000   6.88534e-05
      81.3000   6.77034e-05
      81.4000   6.66387e-05
      81.5000   6.55939e-05
      81.6000   6.45840e-05
      81.7000   6.36299e-05
      81.8000   6.26925e-05
      81.9000   6.17963e-05
      82.0000   6.09271e-05
      82.1000   6.00718e-05
      82.2000   5.92066e-05
      82.3000   5.83553e-05
      82.4000   5.75497e-05
      82.5000   5.68236e-05
      82.6000   5.61049e-05
      82.7000   5.53779e-05
      82.8000   5.46396e-05
      82.9000   5.39096e-05
      83.0000   5.31954e-05
      83.1000   5.24935e-05
      83.2000   5.18012e-05
      83.3000   5.11182e-05
      83.4000   5.04448e-05
      83.5000   4.97822e-05
      83.6000   4.91406e-05
      83.7000   4.85067e-05
      83.8000   4.78770e-05
      83.9000   4.72466e-05
      84.0000   4.66239e-05
      84.1000   4.60167e-05
      84.2000   4.54289e-05
      84.3000   4.48482e-05
      84.4000   4.42691e-05
      84.5000   4.36931e-05
      84.6000   4.31246e-05
      84.7000   4.25716e-05
      84.8000   4.20303e-05
      84.9000   4.14961e-05
      85.0000   4.09565e-05
      85.1000   4.04203e-05
      85.2000   3.98912e-05
      85.3000   3.93867e-05
      85.4000   3.88916e-05
      85.5000   3.84032e-05
      85.6000   3.79120e-05
      85.7000   3.74264e-05
      85.8000   3.69464e-05
      85.9000   3.64721e-05
      86.0000   3.60035e-05
      86.1000   3.55409e-05
      86.2000   3.50952e-05
      86.3000   3.46548e-05
      86.4000   3.42195e-05
      86.5000   3.37890e-05
      86.6000   3.33635e-05
      86.7000   3.29432e-05
      86.8000   3.25030e-05
      86.9000   3.20677e-05
      87.0000   3.16384e-05
      87.1000   3.12201e-05
      87.2000   3.08079e-05
      87.3000   3.04012e-05
      87.4000   2.99913e-05
      87.5000   2.95851e-05
      87.6000   2.91836e-05
      87.7000   2.87924e-05
      87.8000   2.84070e-05
      87.9000   2.80259e-05
      88.0000   2.76495e-05
      88.1000   2.72774e-05
      88.2000   2.69104e-05
      88.3000   2.65545e-05
      88.4000   2.62092e-05
      88.5000   2.58695e-05
      88.6000   2.55320e-05
      88.7000   2.51955e-05
      88.8000   2.48636e-05
      88.9000   2.45355e-05
      89.0000   2.42109e-05
      89.1000   2.38907e-05
      89.2000   2.35740e-05
      89.3000   2.32604e-05
      89.4000   2.29496e-05
      89.5000   2.26426e-05
      89.6000   2.23395e-05
      89.7000   2.20398e-05
      89.8000   2.17438e-05
      89.9000   2.14512e-05
      90.0000   2.11625e-05
      90.1000   2.08781e-05
      90.2000   2.05923e-05
      90.3000   2.02989e-05
      90.4000   2.00094e-05
      90.5000   1.97243e-05
      90.6000   1.94474e-05
      90.7000   1.91693e-05
      90.8000   1.88891e-05
      90.9000   1.86061e-05
      91.0000   1.83258e-05
      91.1000   1.80495e-05
      91.2000   1.77740e-05
      91.3000   1.74978e-05
      91.4000   1.72251e-05
      91.5000   1.69570e-05
      91.6000   1.66931e-05
      91.7000   1.64506e-05
      91.8000   1.62386e-05
      91.9000   1.60611e-05
      92.0000   1.58662e-05
      92.1000   1.56694e-05
      92.2000   1.54642e-05
      92.3000   1.52519e-05
      92.4000   1.50368e-05
      92.5000   1.48249e-05
      92.6000   1.46157e-05
      92.7000   1.44093e-05
      92.8000   1.42055e-05
      92.9000   1.40065e-05
      93.0000   1.38146e-05
      93.1000   1.36253e-05
      93.2000   1.34386e-05
      93.3000   1.32601e-05
      93.4000   1.30860e-05
      93.5000   1.29141e-05
      93.6000   1.27440e-05
      93.7000   1.25753e-05
      93.8000   1.24078e-05
      93.9000   1.22424e-05
      94.0000   1.20787e-05
      94.1000   1.19167e-05
      94.2000   1.17569e-05
      94.3000   1.16003e-05
      94.4000   1.14489e-05
      94.5000   1.12997e-05
      94.6000   1.11526e-05
      94.7000   1.10078e-05
      94.8000   1.08649e-05
      94.9000   1.07238e-05
      95.0000   1.05847e-05
      95.1000   1.04478e-05
      95.2000   1.03123e-05
      95.3000   1.01782e-05
      95.4000   1.00459e-05
      95.5000   9.91684e-06
      95.6000   9.78909e-06
      95.7000   9.66270e-06
      95.8000   9.53645e-06
      95.9000   9.41129e-06
      96.0000   9.28754e-06
      96.1000   9.16516e-06
      96.2000   9.04415e-06
      96.3000   8.92514e-06
      96.4000   8.80767e-06
      96.5000   8.69177e-06
      96.6000   8.57775e-06
      96.7000   8.46570e-06
      96.8000   8.35486e-06
      96.9000   8.24527e-06
      97.0000   8.13701e-06
      97.1000   8.03047e-06
      97.2000   7.92501e-06
      97.3000   7.81951e-06
      97.4000   7.71423e-06
      97.5000   7.61049e-06
      97.6000   7.50801e-06
      97.7000   7.40729e-06
      97.8000   7.30821e-06
      97.9000   7.21065e-06
      98.0000   7.11427e-06
      98.1000   7.01905e-06
      98.2000   6.92520e-06
      98.3000   6.84293e-06
      98.4000   6.76666e-06
      98.5000   6.69463e-06
      98.6000   6.62346e-06
      98.7000   6.55301e-06
      98.8000   6.48317e-06
      98.9000   6.41396e-06
      99.0000   6.34559e-06
      99.1000   6.27780e-06
      99.2000   6.21022e-06
      99.3000   6.14135e-06
      99.4000   6.07325e-06
      99.5000   6.00585e-06
      99.6000   5.93960e-06
      99.7000   5.87692e-06
      99.8000   5.81739e-06
      99.9000   5.78013e-06
      100.000   5.77672e-06
      100.100   5.77136e-06
      100.200   5.76595e-06
      100.300   5.76049e-06
      100.400   5.75500e-06
      100.500   5.75025e-06
      100.600   5.74530e-06
      100.700   5.74026e-06
      100.800   5.73506e-06
      100.900   5.72971e-06
      101.000   5.72423e-06
      101.100   5.71862e-06
      101.200   5.71294e-06
      101.300   5.70721e-06
      101.400   5.70147e-06
      101.500   5.69574e-06
      101.600   5.69004e-06
      101.700   5.68494e-06
      101.800   5.68007e-06
      101.900   5.67520e-06
      102.000   5.67045e-06
      102.100   5.66655e-06
      102.200   5.66305e-06
      102.300   5.65946e-06
      102.400   5.65581e-06
      102.500   5.65206e-06
      102.600   5.64816e-06
      102.700   5.64413e-06
      102.800   5.63995e-06
      102.900   5.63566e-06
      103.000   5.63122e-06
      103.100   5.62667e-06
      103.200   5.62204e-06
      103.300   5.61733e-06
      103.400   5.61254e-06
      103.500   5.60771e-06
      103.600   5.60286e-06
      103.700   5.59790e-06
      103.800   5.59161e-06
      103.900   5.58372e-06
      104.000   5.57573e-06
      104.100   5.56779e-06
      104.200   5.56048e-06
      104.300   5.55721e-06
      104.400   5.55402e-06
      104.500   5.55081e-06
      104.600   5.54745e-06
      104.700   5.54273e-06
      104.800   5.53736e-06
      104.900   5.53190e-06
      105.000   5.52638e-06
      105.100   5.52169e-06
      105.200   5.51923e-06
      105.300   5.51674e-06
      105.400   5.51416e-06
      105.500   5.51149e-06
      105.600   5.50930e-06
      105.700   5.50717e-06
      105.800   5.50496e-06
      105.900   5.50275e-06
      106.000   5.50133e-06
      106.100   5.50157e-06
      106.200   5.50191e-06
      106.300   5.50219e-06
      106.400   5.50240e-06
      106.500   5.50255e-06
      106.600   5.50262e-06
      106.700   5.50263e-06
      106.800   5.50258e-06
      106.900   5.50251e-06
      107.000   5.50237e-06
      107.100   5.50218e-06
      107.200   5.50195e-06
      107.300   5.50165e-06
      107.400   5.50120e-06
      107.500   5.50062e-06
      107.600   5.49997e-06
      107.700   5.49927e-06
      107.800   5.49856e-06
      107.900   5.49744e-06
      108.000   5.49626e-06
      108.100   5.49504e-06
      108.200   5.49373e-06
      108.300   5.49230e-06
      108.400   5.49035e-06
      108.500   5.48833e-06
      108.600   5.48623e-06
      108.700   5.48401e-06
      108.800   5.48034e-06
      108.900   5.47462e-06
      109.000   5.46879e-06
      109.100   5.46285e-06
      109.200   5.45686e-06
      109.300   5.45082e-06
      109.400   5.44473e-06
      109.500   5.43859e-06
      109.600   5.43241e-06
      109.700   5.42618e-06
      109.800   5.41992e-06
      109.900   5.41364e-06
      110.000   5.40735e-06
      110.100   5.40104e-06
      110.200   5.39469e-06
      110.300   5.38919e-06
      110.400   5.38374e-06
      110.500   5.37828e-06
      110.600   5.37277e-06
      110.700   5.36721e-06
      110.800   5.36159e-06
      110.900   5.35591e-06
      111.000   5.35014e-06
      111.100   5.34430e-06
      111.200   5.33846e-06
      111.300   5.33437e-06
      111.400   5.33022e-06
      111.500   5.32592e-06
      111.600   5.32152e-06
      111.700   5.31712e-06
      111.800   5.31381e-06
      111.900   5.31046e-06
      112.000   5.30705e-06
      112.100   5.30356e-06
      112.200   5.30002e-06
      112.300   5.29524e-06
      112.400   5.29039e-06
      112.500   5.28554e-06
      112.600   5.28069e-06
      112.700   5.27603e-06
      112.800   5.27255e-06
      112.900   5.26619e-06
      113.000   5.26080e-06
      113.100   5.25584e-06
      113.200   5.25026e-06
      113.300   5.24528e-06
      113.400   5.23355e-06
      113.500   5.22008e-06
      113.600   5.21234e-06
      113.700   5.20271e-06
      113.800   5.18901e-06
      113.900   5.18097e-06
      114.000   5.17280e-06
      114.100   5.16039e-06
      114.200   5.14997e-06
      114.300   5.14281e-06
      114.400   5.13470e-06
      114.500   5.12561e-06
      114.600   5.12083e-06
      114.700   5.11271e-06
      114.800   5.10678e-06
      114.900   5.10599e-06
      115.000   5.10143e-06
      115.100   5.09460e-06
      115.200   5.08749e-06
      115.300   5.08509e-06
      115.400   5.07813e-06
      115.500   5.07335e-06
      115.600   5.06662e-06
      115.700   5.05695e-06
      115.800   5.05108e-06
      115.900   5.04310e-06
      116.000   5.03841e-06
      116.100   5.03885e-06
      116.200   5.03877e-06
      116.300   5.03765e-06
      116.400   5.03471e-06
      116.500   5.03545e-06
      116.600   5.03490e-06
      116.700   5.03523e-06
      116.800   5.03437e-06
      116.900   5.02877e-06
      117.000   5.02839e-06
      117.100   5.04314e-06
      117.200   5.06866e-06
      117.300   5.08369e-06
      117.400   5.09805e-06
      117.500   5.11260e-06
      117.600   5.12094e-06
      117.700   5.12681e-06
      117.800   5.12938e-06
      117.900   5.13023e-06
      118.000   5.12787e-06
      118.100   5.12240e-06
      118.200   5.11928e-06
      118.300   5.11713e-06
      118.400   5.10278e-06
      118.500   5.08930e-06
      118.600   5.08132e-06
      118.700   5.07126e-06
      118.800   5.05838e-06
      118.900   5.04727e-06
      119.000   5.02937e-06
      119.100   5.00404e-06
      119.200   4.98628e-06
      119.300   4.97491e-06
      119.400   4.96660e-06
      119.500   4.95964e-06
      119.600   4.94815e-06
      119.700   4.93136e-06
      119.800   4.90407e-06
      119.900   4.86281e-06
      120.000   4.82592e-06
      120.100   4.79250e-06
      120.200   4.77630e-06
      120.300   4.77001e-06
      120.400   4.76353e-06
      120.500   4.74277e-06
      120.600   4.71105e-06
      120.700   4.67568e-06
      120.800   4.64246e-06
      120.900   4.62787e-06
      121.000   4.64258e-06
      121.100   4.65247e-06
      121.200   4.64793e-06
      121.300   4.63270e-06
      121.400   4.60921e-06
      121.500   4.57942e-06
      121.600   4.52554e-06
      121.700   4.48101e-06
      121.800   4.42780e-06
      121.900   4.37331e-06
      122.000   4.31285e-06
      122.100   4.25660e-06
      122.200   4.20100e-06
      122.300   4.16594e-06
      122.400   4.15329e-06
      122.500   4.14540e-06
      122.600   4.13459e-06
      122.700   4.12351e-06
      122.800   4.10720e-06
      122.900   4.09380e-06
      123.000   4.10717e-06
      123.100   4.16741e-06
      123.200   4.23117e-06
      123.300   4.31963e-06
      123.400   4.42887e-06
      123.500   4.56786e-06
      123.600   4.69119e-06
      123.700   4.76600e-06
      123.800   4.82715e-06
      123.900   4.90291e-06
      124.000   5.00232e-06
      124.100   5.17818e-06
      124.200   5.51752e-06
      124.300   6.01821e-06
      124.400   6.50617e-06
      124.500   6.66936e-06
      124.600   6.68089e-06
      124.700   6.67478e-06
      124.800   6.67041e-06
      124.900   6.66590e-06
      125.000   6.66113e-06
      125.100   6.65509e-06
      125.200   6.64887e-06
      125.300   6.64260e-06
      125.400   6.63632e-06
      125.500   6.63003e-06
      125.600   6.62368e-06
      125.700   6.61731e-06
      125.800   6.61086e-06
      125.900   6.60440e-06
      126.000   6.59788e-06
      126.100   6.59131e-06
      126.200   6.58465e-06
      126.300   6.57791e-06
      126.400   6.57106e-06
      126.500   6.56410e-06
      126.600   6.55705e-06
      126.700   6.54989e-06
      126.800   6.54264e-06
      126.900   6.53527e-06
      127.000   6.52763e-06
      127.100   6.51935e-06
      127.200   6.51076e-06
      127.300   6.50201e-06
      127.400   6.49318e-06
      127.500   6.48429e-06
      127.600   6.47536e-06
      127.700   6.46638e-06
      127.800   6.45734e-06
      127.900   6.44827e-06
      128.000   6.43917e-06
      128.100   6.43003e-06
      128.200   6.42086e-06
      128.300   6.41166e-06
      128.400   6.40242e-06
      128.500   6.39312e-06
      128.600   6.38374e-06
      128.700   6.37434e-06
      128.800   6.36487e-06
      128.900   6.35531e-06
      129.000   6.34569e-06
      129.100   6.33586e-06
      129.200   6.32554e-06
      129.300   6.31512e-06
      129.400   6.30463e-06
      129.500   6.29406e-06
      129.600   6.28343e-06
      129.700   6.27270e-06
      129.800   6.26191e-06
      129.900   6.25105e-06
      130.000   6.24015e-06
      130.100   6.22923e-06
      130.200   6.21825e-06
      130.300   6.20726e-06
      130.400   6.19626e-06
      130.500   6.18523e-06
      130.600   6.17418e-06
      130.700   6.16315e-06
      130.800   6.15213e-06
      130.900   6.14110e-06
      131.000   6.13005e-06
      131.100   6.11902e-06
      131.200   6.10791e-06
      131.300   6.09667e-06
      131.400   6.08542e-06
      131.500   6.07415e-06
      131.600   6.06283e-06
      131.700   6.05148e-06
      131.800   6.04008e-06
      131.900   6.02861e-06
      132.000   6.01708e-06
      132.100   6.00546e-06
      132.200   5.99378e-06
      132.300   5.98202e-06
      132.400   5.97018e-06
      132.500   5.95825e-06
      132.600   5.94624e-06
      132.700   5.93413e-06
      132.800   5.92196e-06
      132.900   5.90972e-06
      133.000   5.89742e-06
      133.100   5.88507e-06
      133.200   5.87267e-06
      133.300   5.86019e-06
      133.400   5.84765e-06
      133.500   5.83506e-06
      133.600   5.82244e-06
      133.700   5.80983e-06
      133.800   5.79722e-06
      133.900   5.78462e-06
      134.000   5.77202e-06
      134.100   5.75944e-06
      134.200   5.74687e-06
      134.300   5.73431e-06
      134.400   5.72177e-06
      134.500   5.70925e-06
      134.600   5.69674e-06
      134.700   5.68422e-06
      134.800   5.67171e-06
      134.900   5.65918e-06
      135.000   5.64665e-06
      135.100   5.63409e-06
      135.200   5.62151e-06
      135.300   5.60891e-06
      135.400   5.59627e-06
      135.500   5.58342e-06
      135.600   5.57041e-06
      135.700   5.55734e-06
      135.800   5.54422e-06
      135.900   5.53107e-06
      136.000   5.51787e-06
      136.100   5.50462e-06
      136.200   5.49134e-06
      136.300   5.47799e-06
      136.400   5.46461e-06
      136.500   5.45119e-06
      136.600   5.43774e-06
      136.700   5.42425e-06
      136.800   5.41075e-06
      136.900   5.39723e-06
      137.000   5.38368e-06
      137.100   5.37011e-06
      137.200   5.35652e-06
      137.300   5.34291e-06
      137.400   5.32931e-06
      137.500   5.31570e-06
      137.600   5.30207e-06
      137.700   5.28835e-06
      137.800   5.27457e-06
      137.900   5.26078e-06
      138.000   5.24698e-06
      138.100   5.23320e-06
      138.200   5.21944e-06
      138.300   5.20565e-06
      138.400   5.19188e-06
      138.500   5.17812e-06
      138.600   5.16434e-06
      138.700   5.15057e-06
      138.800   5.13680e-06
      138.900   5.12304e-06
      139.000   5.10928e-06
      139.100   5.09551e-06
      139.200   5.08175e-06
      139.300   5.06799e-06
      139.400   5.05421e-06
      139.500   5.04044e-06
      139.600   5.02667e-06
      139.700   5.01289e-06
      139.800   4.99911e-06
      139.900   4.98530e-06
      140.000   4.97144e-06
      140.100   4.95757e-06
      140.200   4.94368e-06
      140.300   4.92979e-06
      140.400   4.91590e-06
      140.500   4.90199e-06
      140.600   4.88807e-06
      140.700   4.87414e-06
      140.800   4.86021e-06
      140.900   4.84624e-06
      141.000   4.83225e-06
      141.100   4.81826e-06
      141.200   4.80426e-06
      141.300   4.79026e-06
      141.400   4.77623e-06
      141.500   4.76220e-06
      141.600   4.74816e-06
      141.700   4.73408e-06
      141.800   4.72002e-06
      141.900   4.70596e-06
      142.000   4.69189e-06
      142.100   4.68149e-06
      142.200   4.68155e-06
      142.300   4.69065e-06
      142.400   4.69969e-06
      142.500   4.70864e-06
      142.600   4.71753e-06
      142.700   4.72636e-06
      142.800   4.73512e-06
      142.900   4.74381e-06
      143.000   4.75245e-06
      143.100   4.76101e-06
      143.200   4.76951e-06
      143.300   4.77792e-06
      143.400   4.78627e-06
      143.500   4.79458e-06
      143.600   4.80281e-06
      143.700   4.81096e-06
      143.800   4.81906e-06
      143.900   4.82709e-06
      144.000   4.83503e-06
      144.100   4.84289e-06
      144.200   4.85068e-06
      144.300   4.85840e-06
      144.400   4.86710e-06
      144.500   4.88991e-06
      144.600   4.91727e-06
      144.700   4.94514e-06
      144.800   4.97297e-06
      144.900   5.00078e-06
      145.000   5.02861e-06
      145.100   5.05641e-06
      145.200   5.08423e-06
      145.300   5.11202e-06
      145.400   5.13979e-06
      145.500   5.16754e-06
      145.600   5.19525e-06
      145.700   5.22290e-06
      145.800   5.25057e-06
      145.900   5.27823e-06
      146.000   5.30585e-06
      146.100   5.33343e-06
      146.200   5.36099e-06
      146.300   5.38851e-06
      146.400   5.41597e-06
      146.500   5.44339e-06
      146.600   5.47080e-06
      146.700   5.49817e-06
      146.800   5.52516e-06
      146.900   5.55160e-06
      147.000   5.57798e-06
      147.100   5.60430e-06
      147.200   5.63060e-06
      147.300   5.65683e-06
      147.400   5.68301e-06
      147.500   5.70915e-06
      147.600   5.73520e-06
      147.700   5.76122e-06
      147.800   5.78719e-06
      147.900   5.81309e-06
      148.000   5.83891e-06
      148.100   5.86467e-06
      148.200   5.89039e-06
      148.300   5.91607e-06
      148.400   5.94170e-06
      148.500   5.96728e-06
      148.600   5.99279e-06
      148.700   6.01824e-06
      148.800   6.04360e-06
      148.900   6.06894e-06
      149.000   6.09425e-06
      149.100   6.11950e-06
      149.200   6.14465e-06
      149.300   6.16973e-06
      149.400   6.19474e-06
      149.500   6.21972e-06
      149.600   6.24463e-06
      149.700   6.26944e-06
      149.800   6.29420e-06
      149.900   6.31890e-06
      150.000   6.34355e-06
      150.100   6.36812e-06
      150.200   6.39258e-06
      150.300   6.41697e-06
      150.400   6.44129e-06
      150.500   6.46551e-06
      150.600   6.48963e-06
      150.700   6.51367e-06
      150.800   6.53759e-06
      150.900   6.56138e-06
      151.000   6.58504e-06
      151.100   6.60863e-06
      151.200   6.63207e-06
      151.300   6.65537e-06
      151.400   6.67858e-06
      151.500   6.70163e-06
      151.600   6.72471e-06
      151.700   6.74784e-06
      151.800   6.77086e-06
      151.900   6.79371e-06
      152.000   6.81641e-06
      152.100   6.83897e-06
      152.200   6.86144e-06
      152.300   6.88372e-06
      152.400   6.90587e-06
      152.500   6.92791e-06
      152.600   6.94981e-06
      152.700   6.97157e-06
      152.800   6.99319e-06
      152.900   7.01472e-06
      153.000   7.03616e-06
      153.100   7.05747e-06
      153.200   7.07869e-06
      153.300   7.09980e-06
      153.400   7.12081e-06
      153.500   7.14171e-06
      153.600   7.16253e-06
      153.700   7.18332e-06
      153.800   7.20397e-06
      153.900   7.22452e-06
      154.000   7.24666e-06
      154.100   7.27245e-06
      154.200   7.29941e-06
      154.300   7.32633e-06
      154.400   7.35321e-06
      154.500   7.37995e-06
      154.600   7.40662e-06
      154.700   7.43320e-06
      154.800   7.45970e-06
      154.900   7.48604e-06
      155.000   7.51228e-06
      155.100   7.53845e-06
      155.200   7.56444e-06
      155.300   7.59030e-06
      155.400   7.61602e-06
      155.500   7.64164e-06
      155.600   7.66704e-06
      155.700   7.69228e-06
      155.800   7.71740e-06
      155.900   7.74232e-06
      156.000   7.76708e-06
      156.100   7.79164e-06
      156.200   7.81604e-06
      156.300   7.84029e-06
      156.400   7.86432e-06
      156.500   7.88787e-06
      156.600   7.90945e-06
      156.700   7.93079e-06
      156.800   7.95194e-06
      156.900   7.97291e-06
      157.000   7.99376e-06
      157.100   8.01435e-06
      157.200   8.03480e-06
      157.300   8.05509e-06
      157.400   8.07522e-06
      157.500   8.09516e-06
      157.600   8.11494e-06
      157.700   8.13462e-06
      157.800   8.15412e-06
      157.900   8.17342e-06
      158.000   8.19261e-06
      158.100   8.21169e-06
      158.200   8.23057e-06
      158.300   8.24931e-06
      158.400   8.26794e-06
      158.500   8.28641e-06
      158.600   8.30471e-06
      158.700   8.32283e-06
      158.800   8.34088e-06
      158.900   8.35871e-06
      159.000   8.37638e-06
      159.100   8.39383e-06
      159.200   8.41113e-06
      159.300   8.42822e-06
      159.400   8.44513e-06
      159.500   8.46186e-06
      159.600   8.47843e-06
      159.700   8.49478e-06
      159.800   8.51093e-06
      159.900   8.52691e-06
      160.000   8.54264e-06
      160.100   8.55816e-06
      160.200   8.57346e-06
      160.300   8.58856e-06
      160.400   8.60348e-06
      160.500   8.61813e-06
      160.600   8.63257e-06
      160.700   8.64681e-06
      160.800   8.66081e-06
      160.900   8.67457e-06
      161.000   8.68810e-06
      161.100   8.70148e-06
      161.200   8.71460e-06
      161.300   8.72749e-06
      161.400   8.74017e-06
      161.500   8.75269e-06
      161.600   8.76493e-06
      161.700   8.77686e-06
      161.800   8.78863e-06
      161.900   8.80019e-06
      162.000   8.81150e-06
      162.100   8.82263e-06
      162.200   8.83362e-06
      162.300   8.84437e-06
      162.400   8.85493e-06
      162.500   8.86530e-06
      162.600   8.87550e-06
      162.700   8.88554e-06
      162.800   8.89533e-06
      162.900   8.90495e-06
      163.000   8.91438e-06
      163.100   8.92364e-06
      163.200   8.93266e-06
      163.300   8.94149e-06
      163.400   8.95013e-06
      163.500   8.95856e-06
      163.600   8.96675e-06
      163.700   8.97474e-06
      163.800   8.98257e-06
      163.900   8.99013e-06
      164.000   8.99745e-06
      164.100   9.00459e-06
      164.200   9.01147e-06
      164.300   9.01865e-06
      164.400   9.02561e-06
      164.500   9.03238e-06
      164.600   9.03892e-06
      164.700   9.04520e-06
      164.800   9.05124e-06
      164.900   9.05709e-06
      165.000   9.06272e-06
      165.100   9.06811e-06
      165.200   9.07327e-06
      165.300   9.07823e-06
      165.400   9.08302e-06
      165.500   9.08757e-06
      165.600   9.09190e-06
      165.700   9.09609e-06
      165.800   9.10005e-06
      165.900   9.10381e-06
      166.000   9.10740e-06
      166.100   9.11083e-06
      166.200   9.11410e-06
      166.300   9.11720e-06
      166.400   9.12008e-06
      166.500   9.12284e-06
      166.600   9.12546e-06
      166.700   9.12789e-06
      166.800   9.13007e-06
      166.900   9.13211e-06
      167.000   9.13409e-06
      167.100   9.13578e-06
      167.200   9.13730e-06
      167.300   9.13868e-06
      167.400   9.13990e-06
      167.500   9.14093e-06
      167.600   9.14181e-06
      167.700   9.14254e-06
      167.800   9.14307e-06
      167.900   9.14341e-06
      168.000   9.14356e-06
      168.100   9.14355e-06
      168.200   9.14332e-06
      168.300   9.14288e-06
      168.400   9.14223e-06
      168.500   9.14143e-06
      168.600   9.14035e-06
      168.700   9.13904e-06
      168.800   9.13751e-06
      168.900   9.13578e-06
      169.000   9.13383e-06
      169.100   9.13161e-06
      169.200   9.12917e-06
      169.300   9.12649e-06
      169.400   9.12356e-06
      169.500   9.11987e-06
      169.600   9.11362e-06
      169.700   9.10444e-06
      169.800   9.09426e-06
      169.900   9.08371e-06
      170.000   9.07285e-06
      170.100   9.06168e-06
      170.200   9.05020e-06
      170.300   1.65242e-05
      170.400   8.27156e-05
      170.500   0.000270889
      170.600   0.000570301
      170.700   0.000901720
      170.800    0.00109685
      170.900    0.00113291
      171.000    0.00112513
      171.100    0.00111727
      171.200    0.00110933
      171.300    0.00110132
      171.400    0.00109324
      171.500    0.00108510
      171.600    0.00107690
      171.700    0.00106866
      171.800    0.00106040
      171.900    0.00105213
      172.000    0.00104388
      172.100    0.00103565
      172.200    0.00102748
      172.300    0.00101935
      172.400    0.00101117
      172.500    0.00100303
      172.600   0.000994976
      172.700   0.000987001
      172.800   0.000979107
      172.900   0.000971295
      173.000   0.000963572
      173.100   0.000955936
      173.200   0.000948383
      173.300   0.000940917
      173.400   0.000933532
      173.500   0.000926232
      173.600   0.000919016
      173.700   0.000911877
      173.800   0.000904813
      173.900   0.000897827
      174.000   0.000890910
      174.100   0.000884060
      174.200   0.000877278
      174.300   0.000870558
      174.400   0.000863899
      174.500   0.000857297
      174.600   0.000850745
      174.700   0.000844248
      174.800   0.000837803
      174.900   0.000831403
      175.000   0.000825045
      175.100   0.000818727
      175.200   0.000812473
      175.300   0.000806253
      175.400   0.000800074
      175.500   0.000793939
      175.600   0.000787844
      175.700   0.000781792
      175.800   0.000775780
      175.900   0.000769809
      176.000   0.000763881
      176.100   0.000757995
      176.200   0.000752150
      176.300   0.000746343
      176.400   0.000740580
      176.500   0.000734855
      176.600   0.000729168
      176.700   0.000723520
      176.800   0.000717910
      176.900   0.000712337
      177.000   0.000706799
      177.100   0.000701294
      177.200   0.000695824
      177.300   0.000690387
      177.400   0.000684979
      177.500   0.000679600
      177.600   0.000674251
      177.700   0.000668930
      177.800   0.000663637
      177.900   0.000658363
      178.000   0.000653157
      178.100   0.000647980
      178.200   0.000642827
      178.300   0.000637699
      178.400   0.000632599
      178.500   0.000627523
      178.600   0.000622473
      178.700   0.000617447
      178.800   0.000612449
      178.900   0.000607479
      179.000   0.000602535
      179.100   0.000597618
      179.200   0.000592731
      179.300   0.000587873
      179.400   0.000583046
      179.500   0.000578252
      179.600   0.000573488
      179.700   0.000568760
      179.800   0.000564064
      179.900   0.000559403
      180.000   0.000554776
      180.100   0.000550186
      180.200   0.000545634
      180.300   0.000541118
      180.400   0.000536638
      180.500   0.000532198
      180.600   0.000527795
      180.700   0.000523430
      180.800   0.000519106
      180.900   0.000514819
      181.000   0.000510571
      181.100   0.000506362
      181.200   0.000502190
      181.300   0.000498054
      181.400   0.000493958
      181.500   0.000489898
      181.600   0.000485874
      181.700   0.000481886
      181.800   0.000477934
      181.900   0.000474019
      182.000   0.000470140
      182.100   0.000466295
      182.200   0.000462486
      182.300   0.000458712
      182.400   0.000454972
      182.500   0.000451266
      182.600   0.000447594
      182.700   0.000443955
      182.800   0.000440349
      182.900   0.000436776
      183.000   0.000433236
      183.100   0.000429730
      183.200   0.000426254
      183.300   0.000422809
      183.400   0.000419396
      183.500   0.000416014
      183.600   0.000412662
      183.700   0.000409342
      183.800   0.000406061
      183.900   0.000402813
      184.000   0.000399595
      184.100   0.000396403
      184.200   0.000393239
      184.300   0.000390101
      184.400   0.000386989
      184.500   0.000383904
      184.600   0.000380842
      184.700   0.000377805
      184.800   0.000374792
      184.900   0.000371802
      185.000   0.000368834
      185.100   0.000365888
      185.200   0.000362963
      185.300   0.000360060
      185.400   0.000357177
      185.500   0.000354314
      185.600   0.000351471
      185.700   0.000348645
      185.800   0.000345840
      185.900   0.000343053
      186.000   0.000340283
      186.100   0.000337530
      186.200   0.000334795
      186.300   0.000332076
      186.400   0.000329375
      186.500   0.000326690
      186.600   0.000324020
      186.700   0.000321366
      186.800   0.000318727
      186.900   0.000316104
      187.000   0.000313496
      187.100   0.000310903
      187.200   0.000308327
      187.300   0.000305767
      187.400   0.000303221
      187.500   0.000300692
      187.600   0.000298177
      187.700   0.000295679
      187.800   0.000293196
      187.900   0.000290728
      188.000   0.000288276
      188.100   0.000285840
      188.200   0.000283419
      188.300   0.000281014
      188.400   0.000278624
      188.500   0.000276250
      188.600   0.000273893
      188.700   0.000271551
      188.800   0.000269226
      188.900   0.000266918
      189.000   0.000264626
      189.100   0.000262350
      189.200   0.000260090
      189.300   0.000257847
      189.400   0.000255621
      189.500   0.000253412
      189.600   0.000251218
      189.700   0.000249043
      189.800   0.000246905
      189.900   0.000244787
      190.000   0.000242685
      190.100   0.000240600
      190.200   0.000238533
      190.300   0.000236482
      190.400   0.000234447
      190.500   0.000232430
      190.600   0.000230431
      190.700   0.000228447
      190.800   0.000226481
      190.900   0.000224532
      191.000   0.000222599
      191.100   0.000220684
      191.200   0.000218785
      191.300   0.000216903
      191.400   0.000215037
      191.500   0.000213187
      191.600   0.000211354
      191.700   0.000209537
      191.800   0.000207735
      191.900   0.000205950
      192.000   0.000204181
      192.100   0.000202428
      192.200   0.000200691
      192.300   0.000198969
      192.400   0.000197262
      192.500   0.000195569
      192.600   0.000193893
      192.700   0.000192231
      192.800   0.000190582
      192.900   0.000188945
      193.000   0.000187322
      193.100   0.000185714
      193.200   0.000184121
      193.300   0.000182542
      193.400   0.000180978
      193.500   0.000179428
      193.600   0.000177892
      193.700   0.000176370
      193.800   0.000174863
      193.900   0.000173370
      194.000   0.000171890
      194.100   0.000170425
      194.200   0.000168974
      194.300   0.000167536
      194.400   0.000166112
      194.500   0.000164702
      194.600   0.000163304
      194.700   0.000161919
      194.800   0.000160548
      194.900   0.000159189
      195.000   0.000157843
      195.100   0.000156509
      195.200   0.000155187
      195.300   0.000153878
      195.400   0.000152580
      195.500   0.000151294
      195.600   0.000150018
      195.700   0.000148753
      195.800   0.000147499
      195.900   0.000146254
      196.000   0.000144963
      196.100   0.000143681
      196.200   0.000142411
      196.300   0.000141151
      196.400   0.000139901
      196.500   0.000138660
      196.600   0.000137429
      196.700   0.000136208
      196.800   0.000134995
      196.900   0.000133792
      197.000   0.000132597
      197.100   0.000131411
      197.200   0.000130233
      197.300   0.000129063
      197.400   0.000127900
      197.500   0.000126746
      197.600   0.000125600
      197.700   0.000124462
      197.800   0.000123332
      197.900   0.000122209
      198.000   0.000121093
      198.100   0.000119986
      198.200   0.000118886
      198.300   0.000117793
      198.400   0.000116708
      198.500   0.000115631
      198.600   0.000114562
      198.700   0.000113500
      198.800   0.000112446
      198.900   0.000111400
      199.000   0.000110361
      199.100   0.000109330
      199.200   0.000108308
      199.300   0.000107293
      199.400   0.000106287
      199.500   0.000105288
      199.600   0.000104298
      199.700   0.000103315
      199.800   0.000102341
      199.900   0.000101375
      200.000   0.000100416
      200.100   9.94712e-05
      200.200   9.85290e-05
      200.300   9.75952e-05
      200.400   9.66693e-05
      200.500   9.57513e-05
      200.600   9.48413e-05
      200.700   9.39392e-05
      200.800   9.30444e-05
      200.900   9.21578e-05
      201.000   9.12792e-05
      201.100   9.04079e-05
      201.200   8.95441e-05
      201.300   8.86880e-05
      201.400   8.78398e-05
      201.500   8.69985e-05
      201.600   8.61647e-05
      201.700   8.53385e-05
      201.800   8.45191e-05
      201.900   8.37070e-05
      202.000   8.29027e-05
      202.100   8.21050e-05
      202.200   8.13147e-05
      202.300   8.05496e-05
      202.400   7.98297e-05
      202.500   7.91262e-05
      202.600   7.84275e-05
      202.700   7.77350e-05
      202.800   7.70484e-05
      202.900   7.63676e-05
      203.000   7.56930e-05
      203.100   7.50245e-05
      203.200   7.43617e-05
      203.300   7.37046e-05
      203.400   7.30535e-05
      203.500   7.24085e-05
      203.600   7.17693e-05
      203.700   7.11361e-05
      203.800   7.05091e-05
      203.900   6.98882e-05
      204.000   6.92730e-05
      204.100   6.86640e-05
      204.200   6.80610e-05
      204.300   6.74637e-05
      204.400   6.68724e-05
      204.500   6.62870e-05
      204.600   6.57073e-05
      204.700   6.51334e-05
      204.800   6.45657e-05
      204.900   6.40035e-05
      205.000   6.34470e-05
      205.100   6.28963e-05
      205.200   6.23507e-05
      205.300   6.18110e-05
      205.400   6.12766e-05
      205.500   6.07473e-05
      205.600   6.02314e-05
      205.700   5.97289e-05
      205.800   5.92320e-05
      205.900   5.87398e-05
      206.000   5.82525e-05
      206.100   5.77695e-05
      206.200   5.72908e-05
      206.300   5.68167e-05
      206.400   5.63469e-05
      206.500   5.58810e-05
      206.600   5.54193e-05
      206.700   5.49618e-05
      206.800   5.45078e-05
      206.900   5.40578e-05
      207.000   5.36118e-05
      207.100   5.31692e-05
      207.200   5.27305e-05
      207.300   5.22953e-05
      207.400   5.18635e-05
      207.500   5.14350e-05
      207.600   5.10100e-05
      207.700   5.05882e-05
      207.800   5.01696e-05
      207.900   4.97543e-05
      208.000   4.93421e-05
      208.100   4.89331e-05
      208.200   4.85272e-05
      208.300   4.81243e-05
      208.400   4.77243e-05
      208.500   4.73276e-05
      208.600   4.69336e-05
      208.700   4.65424e-05
      208.800   4.61542e-05
      208.900   4.57673e-05
      209.000   4.53776e-05
      209.100   4.49905e-05
      209.200   4.46063e-05
      209.300   4.42249e-05
      209.400   4.38466e-05
      209.500   4.34711e-05
      209.600   4.30985e-05
      209.700   4.27286e-05
      209.800   4.23619e-05
      209.900   4.19976e-05
      210.000   4.16363e-05
      210.100   4.12777e-05
      210.200   4.09218e-05
      210.300   4.05687e-05
      210.400   4.02182e-05
      210.500   3.98704e-05
      210.600   3.95251e-05
      210.700   3.91825e-05
      210.800   3.88424e-05
      210.900   3.85049e-05
      211.000   3.81698e-05
      211.100   3.78373e-05
      211.200   3.75071e-05
      211.300   3.71796e-05
      211.400   3.68545e-05
      211.500   3.65316e-05
      211.600   3.62112e-05
      211.700   3.58932e-05
      211.800   3.55772e-05
      211.900   3.52637e-05
      212.000   3.49525e-05
      212.100   3.46435e-05
      212.200   3.43367e-05
      212.300   3.40323e-05
      212.400   3.37301e-05
      212.500   3.34302e-05
      212.600   3.31325e-05
      212.700   3.28369e-05
      212.800   3.25435e-05
      212.900   3.22524e-05
      213.000   3.19632e-05
      213.100   3.16764e-05
      213.200   3.13917e-05
      213.300   3.11092e-05
      213.400   3.08288e-05
      213.500   3.05505e-05
      213.600   3.02744e-05
      213.700   3.00005e-05
      213.800   2.97287e-05
      213.900   2.94592e-05
      214.000   2.91918e-05
      214.100   2.89266e-05
      214.200   2.86636e-05
      214.300   2.84028e-05
      214.400   2.81441e-05
      214.500   2.78877e-05
      214.600   2.76335e-05
      214.700   2.73815e-05
      214.800   2.71317e-05
      214.900   2.68842e-05
      215.000   2.66388e-05
      215.100   2.63956e-05
      215.200   2.61546e-05
      215.300   2.59160e-05
      215.400   2.56794e-05
      215.500   2.54451e-05
      215.600   2.52131e-05
      215.700   2.49832e-05
      215.800   2.47553e-05
      215.900   2.45297e-05
      216.000   2.43062e-05
      216.100   2.40848e-05
      216.200   2.38656e-05
      216.300   2.36485e-05
      216.400   2.34335e-05
      216.500   2.32206e-05
      216.600   2.30097e-05
      216.700   2.28010e-05
      216.800   2.25942e-05
      216.900   2.23895e-05
      217.000   2.21868e-05
      217.100   2.19860e-05
      217.200   2.17872e-05
      217.300   2.15904e-05
      217.400   2.13954e-05
      217.500   2.12024e-05
      217.600   2.10112e-05
      217.700   2.08218e-05
      217.800   2.06343e-05
      217.900   2.04487e-05
      218.000   2.02648e-05
      218.100   2.00826e-05
      218.200   1.99022e-05
      218.300   1.97236e-05
      218.400   1.95468e-05
      218.500   1.93714e-05
      218.600   1.91979e-05
      218.700   1.90259e-05
      218.800   1.88556e-05
      218.900   1.86870e-05
      219.000   1.85199e-05
      219.100   1.83543e-05
      219.200   1.81903e-05
      219.300   1.80278e-05
      219.400   1.78668e-05
      219.500   1.77073e-05
      219.600   1.75493e-05
      219.700   1.73927e-05
      219.800   1.72377e-05
      219.900   1.70840e-05
      220.000   1.69317e-05
      220.100   1.67809e-05
      220.200   1.66314e-05
      220.300   1.64833e-05
      220.400   1.63366e-05
      220.500   1.61912e-05
      220.600   1.60471e-05
      220.700   1.59044e-05
      220.800   1.57628e-05
      220.900   1.56227e-05
      221.000   1.54837e-05
      221.100   1.53460e-05
      221.200   1.52096e-05
      221.300   1.50744e-05
      221.400   1.49404e-05
      221.500   1.48076e-05
      221.600   1.46759e-05
      221.700   1.45454e-05
      221.800   1.44161e-05
      221.900   1.42879e-05
      222.000   1.41609e-05
      222.100   1.40349e-05
      222.200   1.39100e-05
      222.300   1.37863e-05
      222.400   1.36636e-05
      222.500   1.35419e-05
      222.600   1.34213e-05
      222.700   1.33017e-05
      222.800   1.31831e-05
      222.900   1.30655e-05
      223.000   1.29488e-05
      223.100   1.28331e-05
      223.200   1.27185e-05
      223.300   1.26047e-05
      223.400   1.24919e-05
      223.500   1.23800e-05
      223.600   1.22692e-05
      223.700   1.21591e-05
      223.800   1.20500e-05
      223.900   1.19419e-05
      224.000   1.18345e-05
      224.100   1.17281e-05
      224.200   1.16224e-05
      224.300   1.15177e-05
      224.400   1.14138e-05
      224.500   1.13108e-05
      224.600   1.12085e-05
      224.700   1.11071e-05
      224.800   1.10066e-05
      224.900   1.09067e-05
      225.000   1.08077e-05
      225.100   1.07095e-05
      225.200   1.06121e-05
      225.300   1.05154e-05
      225.400   1.04195e-05
      225.500   1.03243e-05
      225.600   1.02299e-05
      225.700   1.01363e-05
      225.800   1.00434e-05
      225.900   9.95119e-06
      226.000   9.85976e-06
      226.100   9.76905e-06
      226.200   9.67911e-06
      226.300   9.59050e-06
      226.400   9.50316e-06
      226.500   9.41638e-06
      226.600   9.33006e-06
      226.700   9.24434e-06
      226.800   9.15916e-06
      226.900   9.07460e-06
      227.000   8.99071e-06
      227.100   8.90745e-06
      227.200   8.82488e-06
      227.300   8.74299e-06
      227.400   8.66176e-06
      227.500   8.58119e-06
      227.600   8.50127e-06
      227.700   8.42202e-06
      227.800   8.34343e-06
      227.900   8.26550e-06
      228.000   8.18821e-06
      228.100   8.11157e-06
      228.200   8.03555e-06
      228.300   7.96019e-06
      228.400   7.88550e-06
      228.500   7.81141e-06
      228.600   7.73798e-06
      228.700   7.66519e-06
      228.800   7.59300e-06
      228.900   7.52150e-06
      229.000   7.45060e-06
      229.100   7.38033e-06
      229.200   7.31068e-06
      229.300   7.24166e-06
      229.400   7.17328e-06
      229.500   7.10551e-06
      229.600   7.03835e-06
      229.700   6.97181e-06
      229.800   6.90587e-06
      229.900   6.84055e-06
      230.000   6.77579e-06
      230.100   6.71092e-06
      230.200   6.64669e-06
      230.300   6.58310e-06
      230.400   6.52010e-06
      230.500   6.45770e-06
      230.600   6.39590e-06
      230.700   6.33468e-06
      230.800   6.27406e-06
      230.900   6.21404e-06
      231.000   6.15457e-06
      231.100   6.09569e-06
      231.200   6.03738e-06
      231.300   5.97964e-06
      231.400   5.92248e-06
      231.500   5.86585e-06
      231.600   5.80976e-06
      231.700   5.75423e-06
      231.800   5.69926e-06
      231.900   5.64482e-06
      232.000   5.59090e-06
      232.100   5.53750e-06
      232.200   5.48464e-06
      232.300   5.43230e-06
      232.400   5.38046e-06
      232.500   5.32912e-06
      232.600   5.27828e-06
      232.700   5.22795e-06
      232.800   5.17810e-06
      232.900   5.12875e-06
      233.000   5.07986e-06
      233.100   5.03147e-06
      233.200   4.98353e-06
      233.300   4.93607e-06
      233.400   4.88907e-06
      233.500   4.84252e-06
      233.600   4.79643e-06
      233.700   4.75077e-06
      233.800   4.70107e-06
      233.900   4.65119e-06
      234.000   4.60187e-06
      234.100   4.55310e-06
      234.200   4.50485e-06
      234.300   4.45711e-06
      234.400   4.40987e-06
      234.500   4.36315e-06
      234.600   4.31691e-06
      234.700   4.27117e-06
      234.800   4.22592e-06
      234.900   4.18115e-06
      235.000   4.13684e-06
      235.100   4.09302e-06
      235.200   4.04967e-06
      235.300   4.00677e-06
      235.400   3.96433e-06
      235.500   3.92234e-06
      235.600   3.88082e-06
      235.700   3.83972e-06
      235.800   3.79907e-06
      235.900   3.75886e-06
      236.000   3.71908e-06
      236.100   3.67971e-06
      236.200   3.64077e-06
      236.300   3.60223e-06
      236.400   3.56412e-06
      236.500   3.52641e-06
      236.600   3.48910e-06
      236.700   3.45219e-06
      236.800   3.41566e-06
      236.900   3.37953e-06
      237.000   3.34377e-06
      237.100   3.30839e-06
      237.200   3.27339e-06
      237.300   3.23877e-06
      237.400   3.20450e-06
      237.500   3.17059e-06
      237.600   3.13699e-06
      237.700   3.10376e-06
      237.800   3.07088e-06
      237.900   3.03834e-06
      238.000   3.00615e-06
      238.100   2.97428e-06
      238.200   2.94275e-06
      238.300   2.91154e-06
      238.400   2.88065e-06
      238.500   2.85007e-06
      238.600   2.81982e-06
      238.700   2.78988e-06
      238.800   2.76024e-06
      238.900   2.73090e-06
      239.000   2.70185e-06
      239.100   2.67310e-06
      239.200   2.64466e-06
      239.300   2.61648e-06
      239.400   2.58860e-06
      239.500   2.56101e-06
      239.600   2.53368e-06
      239.700   2.50663e-06
      239.800   2.47985e-06
      239.900   2.45334e-06
      240.000   2.42709e-06
      240.100   2.40109e-06
      240.200   2.37534e-06
      240.300   2.34986e-06
      240.400   2.32461e-06
      240.500   2.29963e-06
      240.600   2.27490e-06
      240.700   2.25040e-06
      240.800   2.22615e-06
      240.900   2.20213e-06
      241.000   2.17835e-06
      241.100   2.15480e-06
      241.200   2.13149e-06
      241.300   2.10840e-06
      241.400   2.08554e-06
      241.500   2.06290e-06
      241.600   2.04048e-06
      241.700   2.01828e-06
      241.800   1.99630e-06
      241.900   1.97453e-06
      242.000   1.95298e-06
      242.100   1.93165e-06
      242.200   1.91053e-06
      242.300   1.88963e-06
      242.400   1.86892e-06
      242.500   1.84843e-06
      242.600   1.82814e-06
      242.700   1.80805e-06
      242.800   1.78816e-06
      242.900   1.76848e-06
      243.000   1.74899e-06
      243.100   1.72970e-06
      243.200   1.71060e-06
      243.300   1.69169e-06
      243.400   1.67299e-06
      243.500   1.65447e-06
      243.600   1.63615e-06
      243.700   1.61801e-06
      243.800   1.60006e-06
      243.900   1.58230e-06
      244.000   1.56471e-06
      244.100   1.54731e-06
      244.200   1.53009e-06
      244.300   1.51305e-06
      244.400   1.49618e-06
      244.500   1.47949e-06
      244.600   1.46297e-06
      244.700   1.44663e-06
      244.800   1.43047e-06
      244.900   1.41447e-06
      245.000   1.39864e-06
      245.100   1.38298e-06
      245.200   1.36748e-06
      245.300   1.35215e-06
      245.400   1.33697e-06
      245.500   1.32196e-06
      245.600   1.30711e-06
      245.700   1.29242e-06
      245.800   1.27787e-06
      245.900   1.26349e-06
      246.000   1.24927e-06
      246.100   1.23520e-06
      246.200   1.22127e-06
      246.300   1.20750e-06
      246.400   1.19387e-06
      246.500   1.18039e-06
      246.600   1.16705e-06
      246.700   1.15386e-06
      246.800   1.14081e-06
      246.900   1.12789e-06
      247.000   1.11512e-06
      247.100   1.10249e-06
      247.200   1.09000e-06
      247.300   1.07764e-06
      247.400   1.06542e-06
      247.500   1.05333e-06
      247.600   1.04137e-06
      247.700   1.02954e-06
      247.800   1.01783e-06
      247.900   1.00626e-06
      248.000   9.94810e-07
      248.100   9.83499e-07
      248.200   9.72309e-07
      248.300   9.61239e-07
      248.400   9.50292e-07
      248.500   9.39462e-07
      248.600   9.28752e-07
      248.700   9.18162e-07
      248.800   9.07690e-07
      248.900   8.97335e-07
      249.000   8.87095e-07
      249.100   8.76969e-07
      249.200   8.66963e-07
      249.300   8.57065e-07
      249.400   8.47279e-07
      249.500   8.37603e-07
      249.600   8.28034e-07
      249.700   8.18572e-07
      249.800   8.09217e-07
      249.900   7.99967e-07
      250.000   7.90825e-07
      250.100   7.81790e-07
      250.200   7.72851e-07
      250.300   7.64023e-07
      250.400   7.55292e-07
      250.500   7.46663e-07
      250.600   7.38132e-07
      250.700   7.29698e-07
      250.800   7.21360e-07
      250.900   7.13117e-07
      251.000   7.04969e-07
      251.100   6.96914e-07
      251.200   6.88954e-07
      251.300   6.81089e-07
      251.400   6.73315e-07
      251.500   6.65627e-07
      251.600   6.58029e-07
      251.700   6.50521e-07
      251.800   6.43099e-07
      251.900   6.35761e-07
      252.000   6.28506e-07
      252.100   6.21339e-07
      252.200   6.14250e-07
      252.300   6.07249e-07
      252.400   6.00324e-07
      252.500   5.93485e-07
      252.600   5.86721e-07
      252.700   5.80035e-07
      252.800   5.73427e-07
      252.900   5.66894e-07
      253.000   5.60436e-07
      253.100   5.54053e-07
      253.200   5.47743e-07
      253.300   5.41736e-07
      253.400   5.35904e-07
      253.500   5.30138e-07
      253.600   5.24435e-07
      253.700   5.18792e-07
      253.800   5.13213e-07
      253.900   5.07694e-07
      254.000   5.02233e-07
      254.100   4.96829e-07
      254.200   4.91484e-07
      254.300   4.86197e-07
      254.400   4.80966e-07
      254.500   4.75791e-07
      254.600   4.70670e-07
      254.700   4.65605e-07
      254.800   4.60596e-07
      254.900   4.55638e-07
      255.000   4.50734e-07
      255.100   4.45879e-07
      255.200   4.41076e-07
      255.300   4.36324e-07
      255.400   4.31621e-07
      255.500   4.26970e-07
      255.600   4.22366e-07
      255.700   4.17811e-07
      255.800   4.13303e-07
      255.900   4.08842e-07
      256.000   4.04427e-07
      256.100   4.00060e-07
      256.200   3.95737e-07
      256.300   3.91459e-07
      256.400   3.87230e-07
      256.500   3.83040e-07
      256.600   3.78896e-07
      256.700   3.74795e-07
      256.800   3.70735e-07
      256.900   3.66718e-07
      257.000   3.62743e-07
      257.100   3.58808e-07
      257.200   3.54916e-07
      257.300   3.51064e-07
      257.400   3.47347e-07
      257.500   3.43704e-07
      257.600   3.40101e-07
      257.700   3.36533e-07
      257.800   3.33001e-07
      257.900   3.29505e-07
      258.000   3.26044e-07
      258.100   3.22617e-07
      258.200   3.19224e-07
      258.300   3.15867e-07
      258.400   3.12542e-07
      258.500   3.09249e-07
      258.600   3.05991e-07
      258.700   3.02765e-07
      258.800   2.99571e-07
      258.900   2.96411e-07
      259.000   2.93280e-07
      259.100   2.90183e-07
      259.200   2.87115e-07
      259.300   2.84080e-07
      259.400   2.81074e-07
      259.500   2.78099e-07
      259.600   2.75154e-07
      259.700   2.72240e-07
      259.800   2.69353e-07
      259.900   2.66495e-07
      260.000   2.63666e-07
      260.100   2.60867e-07
      260.200   2.58095e-07
      260.300   2.55352e-07
      260.400   2.52636e-07
      260.500   2.49948e-07
      260.600   2.47287e-07
      260.700   2.44652e-07
      260.800   2.42046e-07
      260.900   2.39464e-07
      261.000   2.36909e-07
      261.100   2.34380e-07
      261.200   2.31877e-07
      261.300   2.29398e-07
      261.400   2.26946e-07
      261.500   2.24529e-07
      261.600   2.22172e-07
      261.700   2.19844e-07
      261.800   2.17539e-07
      261.900   2.15256e-07
      262.000   2.12997e-07
      262.100   2.10759e-07
      262.200   2.08545e-07
      262.300   2.06352e-07
      262.400   2.04181e-07
      262.500   2.02031e-07
      262.600   1.99902e-07
      262.700   1.97795e-07
      262.800   1.95709e-07
      262.900   1.93643e-07
      263.000   1.91599e-07
      263.100   1.89574e-07
      263.200   1.87570e-07
      263.300   1.85585e-07
      263.400   1.83620e-07
      263.500   1.81676e-07
      263.600   1.79751e-07
      263.700   1.77845e-07
      263.800   1.75957e-07
      263.900   1.74089e-07
      264.000   1.72240e-07
      264.100   1.70409e-07
      264.200   1.68595e-07
      264.300   1.66802e-07
      264.400   1.65026e-07
      264.500   1.63267e-07
      264.600   1.61526e-07
      264.700   1.59803e-07
      264.800   1.58096e-07
      264.900   1.56408e-07
      265.000   1.54737e-07
      265.100   1.53082e-07
      265.200   1.51444e-07
      265.300   1.49823e-07
      265.400   1.48218e-07
      265.500   1.46629e-07
      265.600   1.45058e-07
      265.700   1.43501e-07
      265.800   1.41964e-07
      265.900   1.40442e-07
      266.000   1.38937e-07
      266.100   1.37447e-07
      266.200   1.35972e-07
      266.300   1.34512e-07
      266.400   1.33068e-07
      266.500   1.31638e-07
      266.600   1.30223e-07
      266.700   1.28823e-07
      266.800   1.27437e-07
      266.900   1.26066e-07
      267.000   1.24709e-07
      267.100   1.23365e-07
      267.200   1.22037e-07
      267.300   1.20722e-07
      267.400   1.19421e-07
      267.500   1.18133e-07
      267.600   1.16859e-07
      267.700   1.15598e-07
      267.800   1.14350e-07
      267.900   1.13116e-07
      268.000   1.11895e-07
      268.100   1.10686e-07
      268.200   1.09491e-07
      268.300   1.08308e-07
      268.400   1.07137e-07
      268.500   1.05979e-07
      268.600   1.04833e-07
      268.700   1.03700e-07
      268.800   1.02578e-07
      268.900   1.01469e-07
      269.000   1.00371e-07
      269.100   9.92854e-08
      269.200   9.82114e-08
      269.300   9.71489e-08
      269.400   9.60970e-08
      269.500   9.50566e-08
      269.600   9.40278e-08
      269.700   9.30101e-08
      269.800   9.20033e-08
      269.900   9.10070e-08
      270.000   9.00219e-08
      270.100   8.90498e-08
      270.200   8.80894e-08
      270.300   8.71393e-08
      270.400   8.61991e-08
      270.500   8.52693e-08
      270.600   8.43491e-08
      270.700   8.34392e-08
      270.800   8.25392e-08
      270.900   8.16483e-08
      271.000   8.07675e-08
      271.100   7.98962e-08
      271.200   7.90337e-08
      271.300   7.81812e-08
      271.400   7.73374e-08
      271.500   7.65031e-08
      271.600   7.56772e-08
      271.700   7.48605e-08
      271.800   7.40528e-08
      271.900   7.32535e-08
      272.000   7.24632e-08
      272.100   7.16811e-08
      272.200   7.09076e-08
      272.300   7.01421e-08
      272.400   6.93848e-08
      272.500   6.86361e-08
      272.600   6.78951e-08
      272.700   6.71621e-08
      272.800   6.64370e-08
      272.900   6.57198e-08
      273.000   6.50105e-08
      273.100   6.43084e-08
      273.200   6.36139e-08
      273.300   6.29273e-08
      273.400   6.22476e-08
      273.500   6.15754e-08
      273.600   6.09104e-08
      273.700   6.02523e-08
      273.800   5.96013e-08
      273.900   5.89577e-08
      274.000   5.83207e-08
      274.100   5.76905e-08
      274.200   5.70671e-08
      274.300   5.64503e-08
      274.400   5.58232e-08
      274.500   5.51579e-08
      274.600   5.44925e-08
      274.700   5.38357e-08
      274.800   5.31863e-08
      274.900   5.25445e-08
      275.000   5.19104e-08
      275.100   5.12838e-08
      275.200   5.06647e-08
      275.300   5.00527e-08
      275.400   4.94482e-08
      275.500   4.88508e-08
      275.600   4.82601e-08
      275.700   4.76767e-08
      275.800   4.71003e-08
      275.900   4.65305e-08
      276.000   4.59675e-08
      276.100   4.54111e-08
      276.200   4.48612e-08
      276.300   4.43177e-08
      276.400   4.37808e-08
      276.500   4.32499e-08
      276.600   4.27257e-08
      276.700   4.22073e-08
      276.800   4.16954e-08
      276.900   4.11893e-08
      277.000   4.06891e-08
      277.100   4.01949e-08
      277.200   3.97064e-08
      277.300   3.92239e-08
      277.400   3.87470e-08
      277.500   3.82755e-08
      277.600   3.78099e-08
      277.700   3.73495e-08
      277.800   3.68946e-08
      277.900   3.64451e-08
      278.000   3.60010e-08
      278.100   3.55622e-08
      278.200   3.51284e-08
      278.300   3.46999e-08
      278.400   3.42764e-08
      278.500   3.38577e-08
      278.600   3.34440e-08
      278.700   3.30353e-08
      278.800   3.26314e-08
      278.900   3.22291e-08
      279.000   3.18307e-08
      279.100   3.14371e-08
      279.200   3.10481e-08
      279.300   3.06639e-08
      279.400   3.02840e-08
      279.500   2.99089e-08
      279.600   2.95382e-08
      279.700   2.91720e-08
      279.800   2.88101e-08
      279.900   2.84524e-08
      280.000   2.80992e-08
      280.100   2.77500e-08
      280.200   2.74052e-08
      280.300   2.70644e-08
      280.400   2.67276e-08
      280.500   2.63951e-08
      280.600   2.60664e-08
      280.700   2.57417e-08
      280.800   2.54209e-08
      280.900   2.51039e-08
      281.000   2.47908e-08
      281.100   2.44813e-08
      281.200   2.41755e-08
      281.300   2.38735e-08
      281.400   2.35752e-08
      281.500   2.32803e-08
      281.600   2.29889e-08
      281.700   2.27011e-08
      281.800   2.24169e-08
      281.900   2.21359e-08
      282.000   2.18583e-08
      282.100   2.15841e-08
      282.200   2.13134e-08
      282.300   2.10457e-08
      282.400   2.07813e-08
      282.500   2.05201e-08
      282.600   2.02621e-08
      282.700   2.00071e-08
      282.800   1.97551e-08
      282.900   1.95065e-08
      283.000   1.92606e-08
      283.100   1.90178e-08
      283.200   1.87779e-08
      283.300   1.85410e-08
      283.400   1.83069e-08
      283.500   1.80757e-08
      283.600   1.78472e-08
      283.700   1.76215e-08
      283.800   1.73985e-08
      283.900   1.71783e-08
      284.000   1.69607e-08
      284.100   1.67458e-08
      284.200   1.65334e-08
      284.300   1.63237e-08
      284.400   1.61165e-08
      284.500   1.59119e-08
      284.600   1.57097e-08
      284.700   1.55101e-08
      284.800   1.53128e-08
      284.900   1.51180e-08
      285.000   1.49255e-08
      285.100   1.47353e-08
      285.200   1.45476e-08
      285.300   1.43621e-08
      285.400   1.41788e-08
      285.500   1.39978e-08
      285.600   1.38191e-08
      285.700   1.36425e-08
      285.800   1.34682e-08
      285.900   1.32959e-08
      286.000   1.31258e-08
      286.100   1.29578e-08
      286.200   1.27918e-08
      286.300   1.26280e-08
      286.400   1.24661e-08
      286.500   1.23062e-08
      286.600   1.21483e-08
      286.700   1.19923e-08
      286.800   1.18383e-08
      286.900   1.16862e-08
      287.000   1.15359e-08
      287.100   1.13875e-08
      287.200   1.12410e-08
      287.300   1.10963e-08
      287.400   1.09533e-08
      287.500   1.08122e-08
      287.600   1.06728e-08
      287.700   1.05351e-08
      287.800   1.03991e-08
      287.900   1.02649e-08
      288.000   1.01323e-08
      288.100   1.00014e-08
      288.200   9.87214e-09
      288.300   9.74454e-09
      288.400   9.61846e-09
      288.500   9.49404e-09
      288.600   9.37107e-09
      288.700   9.24970e-09
      288.800   9.12983e-09
      288.900   9.01151e-09
      289.000   8.89464e-09
      289.100   8.77922e-09
      289.200   8.66529e-09
      289.300   8.55277e-09
      289.400   8.44164e-09
      289.500   8.33194e-09
      289.600   8.22359e-09
      289.700   8.11668e-09
      289.800   8.01104e-09
      289.900   7.90673e-09
      290.000   7.80378e-09
      290.100   7.70208e-09
      290.200   7.60173e-09
      290.300   7.50264e-09
      290.400   7.40480e-09
      290.500   7.30824e-09
      290.600   7.21284e-09
      290.700   7.11866e-09
      290.800   7.02574e-09
      290.900   6.93395e-09
      291.000   6.84328e-09
      291.100   6.75377e-09
      291.200   6.66543e-09
      291.300   6.57819e-09
      291.400   6.49208e-09
      291.500   6.40706e-09
      291.600   6.32310e-09
      291.700   6.24026e-09
      291.800   6.15844e-09
      291.900   6.07770e-09
      292.000   5.99799e-09
      292.100   5.91928e-09
      292.200   5.84161e-09
      292.300   5.76489e-09
      292.400   5.68915e-09
      292.500   5.61437e-09
      292.600   5.54054e-09
      292.700   5.46768e-09
      292.800   5.39575e-09
      292.900   5.32475e-09
      293.000   5.25466e-09
      293.100   5.18543e-09
      293.200   5.11711e-09
      293.300   5.04966e-09
      293.400   4.98311e-09
      293.500   4.91739e-09
      293.600   4.85252e-09
      293.700   4.78848e-09
      293.800   4.72526e-09
      293.900   4.66288e-09
      294.000   4.60128e-09
      294.100   4.54047e-09
      294.200   4.48046e-09
      294.300   4.42122e-09
      294.400   4.36270e-09
      294.500   4.30497e-09
      294.600   4.24797e-09
      294.700   4.19170e-09
      294.800   4.13617e-09
      294.900   4.08135e-09
      295.000   4.02723e-09
      295.100   3.97385e-09
      295.200   3.92114e-09
      295.300   3.86910e-09
      295.400   3.81775e-09
      295.500   3.76707e-09
      295.600   3.71702e-09
      295.700   3.66763e-09
      295.800   3.61889e-09
      295.900   3.57074e-09
      296.000   3.52323e-09
      296.100   3.47632e-09
      296.200   3.43005e-09
      296.300   3.38436e-09
      296.400   3.33931e-09
      296.500   3.29481e-09
      296.600   3.25088e-09
      296.700   3.20753e-09
      296.800   3.16476e-09
      296.900   3.12252e-09
      297.000   3.08083e-09
      297.100   3.03969e-09
      297.200   2.99908e-09
      297.300   2.95899e-09
      297.400   2.91943e-09
      297.500   2.88037e-09
      297.600   2.84183e-09
      297.700   2.80378e-09
      297.800   2.76624e-09
      297.900   2.72919e-09
      298.000   2.69264e-09
      298.100   2.65655e-09
      298.200   2.62093e-09
      298.300   2.58578e-09
      298.400   2.55108e-09
      298.500   2.51682e-09
      298.600   2.48301e-09
      298.700   2.44965e-09
      298.800   2.41672e-09
      298.900   2.38424e-09
      299.000   2.35219e-09
      299.100   2.32056e-09
      299.200   2.28932e-09
      299.300   2.25850e-09
      299.400   2.22809e-09
      299.500   2.19806e-09
      299.600   2.16844e-09
      299.700   2.13920e-09
      299.800   2.11033e-09
      299.900   2.08186e-09
      300.000   2.05376e-09
      300.100   2.02602e-09
      300.192   2.00082e-09
      300.285   1.97566e-09
      300.377   1.95108e-09
      300.470   1.92654e-09
      300.562   1.90255e-09
      300.654   1.87885e-09
      300.747   1.85518e-09
      300.839   1.83206e-09
      300.932   1.80896e-09
      301.025   1.78615e-09
      301.117   1.76386e-09
      301.210   1.74160e-09
      301.303   1.71961e-09
      301.395   1.69815e-09
      301.488   1.67668e-09
      301.581   1.65550e-09
      301.674   1.63457e-09
      301.766   1.61412e-09
      301.859   1.59370e-09
      301.952   1.57353e-09
      302.045   1.55360e-09
      302.138   1.53396e-09
      302.231   1.51462e-09
      302.324   1.49553e-09
      302.417   1.47666e-09
      302.510   1.45802e-09
      302.603   1.43963e-09
      302.696   1.42144e-09
      302.789   1.40348e-09
      302.882   1.38574e-09
      302.976   1.36804e-09
      303.069   1.35073e-09
      303.162   1.33364e-09
      303.255   1.31675e-09
      303.349   1.29990e-09
      303.442   1.28342e-09
      303.535   1.26717e-09
      303.629   1.25093e-09
      303.722   1.23507e-09
      303.816   1.21923e-09
      303.909   1.20375e-09
      304.003   1.18831e-09
      304.096   1.17320e-09
      304.190   1.15813e-09
      304.283   1.14340e-09
      304.377   1.12871e-09
      304.471   1.11419e-09
      304.564   1.10001e-09
      304.658   1.08586e-09
      304.752   1.07186e-09
      304.846   1.05806e-09
      304.939   1.04457e-09
      305.033   1.03110e-09
      305.127   1.01780e-09
      305.221   1.00467e-09
      305.315   9.91701e-10
      305.409   9.78894e-10
      305.503   9.66249e-10
      305.597   9.53763e-10
      305.691   9.41430e-10
      305.785   9.29248e-10
      305.879   9.17221e-10
      305.973   9.05351e-10
      306.067   8.93620e-10
      306.161   8.82046e-10
      306.255   8.70612e-10
      306.350   8.59203e-10
      306.444   8.48055e-10
      306.538   8.37047e-10
      306.633   8.26068e-10
      306.727   8.15337e-10
      306.821   8.04739e-10
      306.916   7.94167e-10
      307.010   7.83845e-10
      307.105   7.73551e-10
      307.199   7.63494e-10
      307.294   7.53458e-10
      307.388   7.43654e-10
      307.483   7.33875e-10
      307.577   7.24319e-10
      307.672   7.14784e-10
      307.767   7.05373e-10
      307.861   6.96179e-10
      307.956   6.87000e-10
      308.051   6.77940e-10
      308.146   6.69000e-10
      308.240   6.60267e-10
      308.335   6.51552e-10
      308.430   6.42943e-10
      308.525   6.34447e-10
      308.620   6.26064e-10
      308.715   6.17787e-10
      308.810   6.09616e-10
      308.905   6.01549e-10
      309.000   5.93587e-10
      309.095   5.85728e-10
      309.190   5.77972e-10
      309.285   5.70312e-10
      309.380   5.62751e-10
      309.476   5.55214e-10
      309.571   5.47848e-10
      309.666   5.40575e-10
      309.761   5.33399e-10
      309.857   5.26241e-10
      309.952   5.19249e-10
      310.047   5.12350e-10
      310.143   5.05468e-10
      310.238   4.98746e-10
      310.334   4.92042e-10
      310.429   4.85490e-10
      310.525   4.78960e-10
      310.620   4.72581e-10
      310.716   4.66218e-10
      310.811   4.60005e-10
      310.907   4.53811e-10
      311.003   4.47696e-10
      311.098   4.41722e-10
      311.194   4.35765e-10
      311.290   4.29888e-10
      311.386   4.24088e-10
      311.481   4.18422e-10
      311.577   4.12774e-10
      311.673   4.07198e-10
      311.769   4.01696e-10
      311.865   3.96268e-10
      311.961   3.90941e-10
      312.057   3.85813e-10
      312.153   3.80802e-10
      312.249   3.75849e-10
      312.345   3.70960e-10
      312.441   3.66131e-10
      312.537   3.61365e-10
      312.633   3.56662e-10
      312.730   3.51966e-10
      312.826   3.47381e-10
      312.922   3.42855e-10
      313.018   3.38386e-10
      313.115   3.33928e-10
      313.211   3.29572e-10
      313.307   3.25272e-10
      313.404   3.20984e-10
      313.500   3.16792e-10
      313.597   3.12615e-10
      313.693   3.08533e-10
      313.790   3.04462e-10
      313.886   3.00483e-10
      313.983   2.96514e-10
      314.079   2.92636e-10
      314.176   2.88771e-10
      314.273   2.84953e-10
      314.369   2.81226e-10
      314.466   2.77508e-10
      314.563   2.73837e-10
      314.660   2.70215e-10
      314.756   2.66675e-10
      314.853   2.63145e-10
      314.950   2.59661e-10
      315.047   2.56222e-10
      315.144   2.52827e-10
      315.241   2.49477e-10
      315.338   2.46170e-10
      315.435   2.42906e-10
      315.532   2.39685e-10
      315.629   2.36506e-10
      315.726   2.33368e-10
      315.823   2.30269e-10
      315.921   2.27181e-10
      316.018   2.24164e-10
      316.115   2.21187e-10
      316.212   2.18247e-10
      316.310   2.15317e-10
      316.407   2.12455e-10
      316.504   2.09628e-10
      316.602   2.06811e-10
      316.699   2.04060e-10
      316.796   2.01345e-10
      316.894   1.98637e-10
      316.991   1.96003e-10
      317.089   1.93444e-10
      317.187   1.90958e-10
      317.284   1.88526e-10
      317.382   1.86099e-10
      317.479   1.83727e-10
      317.577   1.81361e-10
      317.675   1.79025e-10
      317.773   1.76718e-10
      317.870   1.74464e-10
      317.968   1.72214e-10
      318.066   1.69993e-10
      318.164   1.67800e-10
      318.262   1.65635e-10
      318.360   1.63496e-10
      318.458   1.61386e-10
      318.556   1.59303e-10
      318.654   1.57246e-10
      318.752   1.55214e-10
      318.850   1.53208e-10
      318.948   1.51227e-10
      319.046   1.49272e-10
      319.144   1.47340e-10
      319.242   1.45434e-10
      319.341   1.43533e-10
      319.439   1.41675e-10
      319.537   1.39841e-10
      319.635   1.38029e-10
      319.734   1.36223e-10
      319.832   1.34458e-10
      319.930   1.32714e-10
      320.029   1.30976e-10
      320.127   1.29277e-10
      320.226   1.27583e-10
      320.324   1.25926e-10
      320.423   1.24274e-10
      320.522   1.22644e-10
      320.620   1.21051e-10
      320.719   1.19462e-10
      320.818   1.17893e-10
      320.916   1.16360e-10
      321.015   1.14831e-10
      321.114   1.13321e-10
      321.213   1.11831e-10
      321.311   1.10375e-10
      321.410   1.08924e-10
      321.509   1.07490e-10
      321.608   1.06075e-10
      321.707   1.04678e-10
      321.806   1.03299e-10
      321.905   1.01938e-10
      322.004   1.00594e-10
      322.103   9.92683e-11
      322.202   9.79587e-11
      322.301   9.66664e-11
      322.401   9.53782e-11
      322.500   9.41191e-11
      322.599   9.28765e-11
      322.698   9.16498e-11
      322.798   9.04266e-11
      322.897   8.92311e-11
      322.996   8.80514e-11
      323.096   8.68745e-11
      323.195   8.57249e-11
      323.294   8.45902e-11
      323.394   8.34592e-11
      323.493   8.23536e-11
      323.593   8.12515e-11
      323.692   8.01745e-11
      323.792   7.91010e-11
      323.892   7.80413e-11
      323.991   7.70053e-11
      324.091   7.59732e-11
      324.191   7.49542e-11
      324.291   7.39486e-11
      324.390   7.29664e-11
      324.490   7.19865e-11
      324.590   7.10199e-11
      324.690   7.00661e-11
      324.790   6.91244e-11
      324.890   6.81953e-11
      324.990   6.72780e-11
      325.090   6.63725e-11
      325.190   6.54793e-11
      325.290   6.45982e-11
      325.390   6.37275e-11
      325.490   6.28692e-11
      325.590   6.20222e-11
      325.690   6.11856e-11
      325.790   6.03602e-11
      325.891   5.95378e-11
      325.991   5.87341e-11
      326.091   5.79407e-11
      326.192   5.71503e-11
      326.292   5.63779e-11
      326.392   5.56158e-11
      326.493   5.48562e-11
      326.593   5.41139e-11
      326.694   5.33747e-11
      326.794   5.26519e-11
      326.895   5.19316e-11
      326.995   5.12278e-11
      327.096   5.05266e-11
      327.197   4.98347e-11
      327.297   4.91585e-11
      327.398   4.84847e-11
      327.499   4.78200e-11
      327.599   4.71703e-11
      327.700   4.65228e-11
      327.801   4.58840e-11
      327.902   4.52542e-11
      328.003   4.46323e-11
      328.104   4.40187e-11
      328.205   4.34134e-11
      328.306   4.28162e-11
      328.407   4.22271e-11
      328.508   4.16455e-11
      328.609   4.10718e-11
      328.710   4.05060e-11
      328.811   3.99476e-11
      328.912   3.93968e-11
      329.013   3.88532e-11
      329.115   3.83119e-11
      329.216   3.77829e-11
      329.317   3.72609e-11
      329.419   3.67413e-11
      329.520   3.62333e-11
      329.621   3.57319e-11
      329.723   3.52326e-11
      329.824   3.47453e-11
      329.926   3.42596e-11
      330.027   3.37849e-11
      330.129   3.33121e-11
      330.230   3.28505e-11
      330.332   3.23903e-11
      330.434   3.19366e-11
      330.535   3.14932e-11
      330.637   3.10516e-11
      330.739   3.06161e-11
      330.840   3.01906e-11
      330.942   2.97667e-11
      331.044   2.93487e-11
      331.146   2.89364e-11
      331.248   2.85297e-11
      331.350   2.81286e-11
      331.452   2.77336e-11
      331.554   2.73590e-11
      331.656   2.70125e-11
      331.758   2.66705e-11
      331.860   2.63323e-11
      331.962   2.59985e-11
      332.064   2.56686e-11
      332.166   2.53430e-11
      332.268   2.50211e-11
      332.371   2.47004e-11
      332.473   2.43864e-11
      332.575   2.40762e-11
      332.677   2.37700e-11
      332.780   2.34647e-11
      332.882   2.31660e-11
      332.985   2.28681e-11
      333.087   2.25766e-11
      333.190   2.22860e-11
      333.292   2.19952e-11
      333.395   2.16876e-11
      333.497   2.13804e-11
      333.600   2.10745e-11
      333.702   2.07758e-11
      333.805   2.04785e-11
      333.908   2.01850e-11
      334.011   1.98958e-11
      334.113   1.96133e-11
      334.216   1.93320e-11
      334.319   1.90547e-11
      334.422   1.87812e-11
      334.525   1.85115e-11
      334.628   1.82456e-11
      334.731   1.79836e-11
      334.834   1.77252e-11
      334.937   1.74703e-11
      335.040   1.72189e-11
      335.143   1.69712e-11
      335.246   1.67270e-11
      335.349   1.64861e-11
      335.452   1.62487e-11
      335.555   1.60146e-11
      335.659   1.57815e-11
      335.762   1.55540e-11
      335.865   1.53297e-11
      335.969   1.51064e-11
      336.072   1.48883e-11
      336.175   1.46734e-11
      336.279   1.44595e-11
      336.382   1.42507e-11
      336.486   1.40427e-11
      336.589   1.38396e-11
      336.693   1.36377e-11
      336.796   1.34405e-11
      336.900   1.32442e-11
      337.004   1.30505e-11
      337.107   1.28617e-11
      337.211   1.26736e-11
      337.315   1.24884e-11
      337.419   1.23057e-11
      337.523   1.21256e-11
      337.626   1.19498e-11
      337.730   1.17749e-11
      337.834   1.16025e-11
      337.938   1.14326e-11
      338.042   1.12657e-11
      338.146   1.11041e-11
      338.250   1.09450e-11
      338.354   1.07881e-11
      338.458   1.06333e-11
      338.562   1.04808e-11
      338.667   1.03290e-11
      338.771   1.01807e-11
      338.875   1.00346e-11
      338.979   9.89044e-12
      339.084   9.74713e-12
      339.188   9.60712e-12
      339.292   9.46913e-12
      339.397   9.33172e-12
      339.501   9.19766e-12
      339.606   9.06410e-12
      339.710   8.93378e-12
      339.815   8.80404e-12
      339.919   8.67745e-12
      340.024   8.55135e-12
      340.128   8.42839e-12
      340.233   8.30586e-12
      340.338   8.18522e-12
      340.442   8.06733e-12
      340.547   7.95009e-12
      340.652   7.83446e-12
      340.757   7.72054e-12
      340.862   7.60823e-12
      340.966   7.49862e-12
      341.071   7.38952e-12
      341.176   7.28200e-12
      341.281   7.17600e-12
      341.386   7.07158e-12
      341.491   6.96859e-12
      341.596   6.86716e-12
      341.702   6.76622e-12
      341.807   6.66766e-12
      341.912   6.57054e-12
      342.017   6.47481e-12
      342.122   6.38043e-12
      342.228   6.28662e-12
      342.333   6.19499e-12
      342.438   6.10469e-12
      342.544   6.01488e-12
      342.649   5.92717e-12
      342.754   5.84079e-12
      342.860   5.75480e-12
      342.965   5.67080e-12
      343.071   5.58737e-12
      343.176   5.50587e-12
      343.282   5.42475e-12
      343.388   5.34488e-12
      343.493   5.26749e-12
      343.599   5.19595e-12
      343.705   5.12591e-12
      343.810   5.05739e-12
      343.916   4.98921e-12
      344.022   4.92192e-12
      344.128   4.85554e-12
      344.234   4.79001e-12
      344.340   4.72540e-12
      344.446   4.66161e-12
      344.552   4.59869e-12
      344.658   4.53663e-12
      344.764   4.47544e-12
      344.870   4.41500e-12
      344.976   4.35542e-12
      345.082   4.29661e-12
      345.188   4.23863e-12
      345.294   4.18136e-12
      345.401   4.12437e-12
      345.507   4.06867e-12
      345.613   4.01372e-12
      345.719   3.95950e-12
      345.826   3.90551e-12
      345.932   3.85274e-12
      346.039   3.80020e-12
      346.145   3.74884e-12
      346.252   3.69771e-12
      346.358   3.64771e-12
      346.465   3.59798e-12
      346.571   3.54933e-12
      346.678   3.50089e-12
      346.785   3.45309e-12
      346.891   3.40640e-12
      346.998   3.35993e-12
      347.105   3.31406e-12
      347.212   3.26882e-12
      347.319   3.22417e-12
      347.425   3.18053e-12
      347.532   3.13708e-12
      347.639   3.09424e-12
      347.746   3.05197e-12
      347.853   3.01024e-12
      347.960   2.96911e-12
      348.067   2.92854e-12
      348.174   2.88853e-12
      348.281   2.84903e-12
      348.389   2.80972e-12
      348.496   2.77128e-12
      348.603   2.73341e-12
      348.710   2.69601e-12
      348.818   2.65879e-12
      348.925   2.62240e-12
      349.032   2.58652e-12
      349.140   2.55064e-12
      349.247   2.51556e-12
      349.355   2.48066e-12
      349.462   2.44654e-12
      349.570   2.41254e-12
      349.677   2.37934e-12
      349.785   2.34628e-12
      349.892   2.31398e-12
      350.000   2.28183e-12
      350.100   2.25245e-12
      350.193   2.22546e-12
      350.287   2.19849e-12
      350.380   2.17214e-12
      350.473   2.14610e-12
      350.567   2.12007e-12
      350.660   2.09464e-12
      350.754   2.06925e-12
      350.847   2.04443e-12
      350.941   2.01963e-12
      351.034   1.99539e-12
      351.128   1.97118e-12
      351.221   1.94752e-12
      351.315   1.92387e-12
      351.409   1.90050e-12
      351.502   1.87767e-12
      351.596   1.85487e-12
      351.690   1.83232e-12
      351.783   1.81030e-12
      351.877   1.78830e-12
      351.971   1.76656e-12
      352.065   1.74508e-12
      352.159   1.72385e-12
      352.252   1.70310e-12
      352.346   1.68237e-12
      352.440   1.66189e-12
      352.534   1.64168e-12
      352.628   1.62168e-12
      352.722   1.60192e-12
      352.816   1.58240e-12
      352.910   1.56313e-12
      353.004   1.54408e-12
      353.098   1.52525e-12
      353.192   1.50665e-12
      353.287   1.48807e-12
      353.381   1.46990e-12
      353.475   1.45197e-12
      353.569   1.43424e-12
      353.663   1.41673e-12
      353.758   1.39925e-12
      353.852   1.38215e-12
      353.946   1.36526e-12
      354.041   1.34839e-12
      354.135   1.33190e-12
      354.229   1.31560e-12
      354.324   1.29933e-12
      354.418   1.28342e-12
      354.513   1.26754e-12
      354.607   1.25203e-12
      354.702   1.23644e-12
      354.796   1.22091e-12
      354.891   1.20536e-12
      354.985   1.19018e-12
      355.080   1.17502e-12
      355.175   1.16004e-12
      355.269   1.14541e-12
      355.364   1.13081e-12
      355.459   1.11639e-12
      355.553   1.10229e-12
      355.648   1.08822e-12
      355.743   1.07433e-12
      355.838   1.06060e-12
      355.933   1.04705e-12
      356.027   1.03381e-12
      356.122   1.02059e-12
      356.217   1.00753e-12
      356.312   9.94645e-13
      356.407   9.81909e-13
      356.502   9.69336e-13
      356.597   9.56915e-13
      356.692   9.44652e-13
      356.787   9.32541e-13
      356.882   9.20572e-13
      356.977   9.08767e-13
      357.073   8.96983e-13
      357.168   8.85456e-13
      357.263   8.74082e-13
      357.358   8.62847e-13
      357.453   8.51755e-13
      357.549   8.40686e-13
      357.644   8.29869e-13
      357.739   8.19192e-13
      357.835   8.08527e-13
      357.930   7.98110e-13
      358.025   7.87823e-13
      358.121   7.77560e-13
      358.216   7.67528e-13
      358.312   7.57517e-13
      358.407   7.47739e-13
      358.503   7.37981e-13
      358.598   7.28450e-13
      358.694   7.18934e-13
      358.790   7.09536e-13
      358.885   7.00353e-13
      358.981   6.91193e-13
      359.076   6.82246e-13
      359.172   6.73319e-13
      359.268   6.64494e-13
      359.364   6.55784e-13
      359.459   6.47284e-13
      359.555   6.38795e-13
      359.651   6.30412e-13
      359.747   6.22137e-13
      359.843   6.13966e-13
      359.939   6.05898e-13
      360.035   5.97937e-13
      360.131   5.90078e-13
      360.227   5.82309e-13
      360.323   5.74647e-13
      360.419   5.67083e-13
      360.515   5.59615e-13
      360.611   5.52238e-13
      360.707   5.44949e-13
      360.803   5.37767e-13
      360.899   5.30666e-13
      360.995   5.23663e-13
      361.092   5.16674e-13
      361.188   5.09843e-13
      361.284   5.03102e-13
      361.380   4.96447e-13
      361.477   4.89807e-13
      361.573   4.83320e-13
      361.669   4.76919e-13
      361.766   4.70529e-13
      361.862   4.64291e-13
      361.959   4.58070e-13
      362.055   4.51983e-13
      362.152   4.45922e-13
      362.248   4.39998e-13
      362.345   4.34084e-13
      362.441   4.28314e-13
      362.538   4.22558e-13
      362.635   4.16875e-13
      362.731   4.11321e-13
      362.828   4.05782e-13
      362.925   4.00317e-13
      363.021   3.94977e-13
      363.118   3.89654e-13
      363.215   3.84397e-13
      363.312   3.79207e-13
      363.409   3.74089e-13
      363.505   3.69087e-13
      363.602   3.64096e-13
      363.699   3.59174e-13
      363.796   3.54315e-13
      363.893   3.49519e-13
      363.990   3.44786e-13
      364.087   3.40115e-13
      364.184   3.35505e-13
      364.281   3.30954e-13
      364.378   3.26464e-13
      364.475   3.22032e-13
      364.573   3.17613e-13
      364.670   3.13297e-13
      364.767   3.09039e-13
      364.864   3.04835e-13
      364.961   3.00686e-13
      365.059   2.96551e-13
      365.156   2.92513e-13
      365.253   2.88526e-13
      365.351   2.84553e-13
      365.448   2.80670e-13
      365.545   2.76841e-13
      365.643   2.73022e-13
      365.740   2.69291e-13
      365.838   2.65574e-13
      365.935   2.61944e-13
      366.033   2.58325e-13
      366.130   2.54789e-13
      366.228   2.51266e-13
      366.326   2.47790e-13
      366.423   2.44395e-13
      366.521   2.41011e-13
      366.618   2.37704e-13
      366.716   2.34409e-13
      366.814   2.31159e-13
      366.912   2.27954e-13
      367.010   2.24789e-13
      367.107   2.21699e-13
      367.205   2.18618e-13
      367.303   2.15580e-13
      367.401   2.12582e-13
      367.499   2.09624e-13
      367.597   2.06707e-13
      367.695   2.03829e-13
      367.793   2.00991e-13
      367.891   1.98191e-13
      367.989   1.95426e-13
      368.087   1.92700e-13
      368.185   1.90012e-13
      368.283   1.87359e-13
      368.381   1.84741e-13
      368.480   1.82134e-13
      368.578   1.79588e-13
      368.676   1.77077e-13
      368.774   1.74601e-13
      368.873   1.72133e-13
      368.971   1.69722e-13
      369.069   1.67345e-13
      369.168   1.64975e-13
      369.266   1.62662e-13
      369.364   1.60381e-13
      369.463   1.58108e-13
      369.561   1.55889e-13
      369.660   1.53678e-13
      369.758   1.51519e-13
      369.857   1.49369e-13
      369.955   1.47269e-13
      370.054   1.45177e-13
      370.153   1.43113e-13
      370.251   1.41099e-13
      370.350   1.39093e-13
      370.449   1.37115e-13
      370.547   1.35183e-13
      370.646   1.33257e-13
      370.745   1.31360e-13
      370.844   1.29489e-13
      370.943   1.27643e-13
      371.041   1.25842e-13
      371.140   1.24047e-13
      371.239   1.22276e-13
      371.338   1.20532e-13
      371.437   1.18811e-13
      371.536   1.17115e-13
      371.635   1.15441e-13
      371.734   1.13791e-13
      371.833   1.12165e-13
      371.932   1.10561e-13
      372.032   1.08963e-13
      372.131   1.07404e-13
      372.230   1.05867e-13
      372.329   1.04351e-13
      372.428   1.02857e-13
      372.528   1.01369e-13
      372.627   9.99169e-14
      372.726   9.84849e-14
      372.826   9.70590e-14
      372.925   9.56670e-14
      373.024   9.42943e-14
      373.124   9.29273e-14
      373.223   9.15940e-14
      373.323   9.02663e-14
      373.422   8.89698e-14
      373.522   8.76787e-14
      373.621   8.64196e-14
      373.721   8.51653e-14
      373.820   8.39413e-14
      373.920   8.27223e-14
      374.020   8.15198e-14
      374.119   8.03476e-14
      374.219   7.91794e-14
      374.319   7.80289e-14
      374.419   7.68952e-14
      374.518   7.57877e-14
      374.618   7.46854e-14
      374.718   7.35978e-14
      374.818   7.25274e-14
      374.918   7.14724e-14
      375.018   7.04316e-14
      375.118   6.94064e-14
      375.218   6.83951e-14
      375.318   6.73991e-14
      375.418   6.64165e-14
      375.518   6.54492e-14
      375.618   6.44956e-14
      375.718   6.35552e-14
      375.818   6.26285e-14
      375.918   6.17152e-14
      376.019   6.08066e-14
      376.119   5.99194e-14
      376.219   5.90453e-14
      376.319   5.81835e-14
      376.420   5.73262e-14
      376.520   5.64894e-14
      376.620   5.56651e-14
      376.721   5.48441e-14
      376.821   5.40434e-14
      376.922   5.32464e-14
      377.022   5.24685e-14
      377.122   5.17022e-14
      377.223   5.09395e-14
      377.323   5.01956e-14
      377.424   4.94546e-14
      377.525   4.87248e-14
      377.625   4.80127e-14
      377.726   4.73040e-14
      377.827   4.66058e-14
      377.927   4.59242e-14
      378.028   4.52464e-14
      378.129   4.45781e-14
      378.230   4.39202e-14
      378.330   4.32793e-14
      378.431   4.26416e-14
      378.532   4.20138e-14
      378.633   4.13945e-14
      378.734   4.07843e-14
      378.835   4.01833e-14
      378.936   3.95911e-14
      379.037   3.90077e-14
      379.138   3.84325e-14
      379.239   3.78658e-14
      379.340   3.73078e-14
      379.441   3.67578e-14
      379.542   3.62157e-14
      379.643   3.56818e-14
      379.745   3.51505e-14
      379.846   3.46320e-14
      379.947   3.41210e-14
      380.048   3.36180e-14
      380.150   3.31172e-14
      380.251   3.26285e-14
      380.352   3.21473e-14
      380.454   3.16686e-14
      380.555   3.12013e-14
      380.656   3.07409e-14
      380.758   3.02828e-14
      380.859   2.98359e-14
      380.961   2.93916e-14
      381.062   2.89579e-14
      381.164   2.85263e-14
      381.266   2.81012e-14
      381.367   2.76865e-14
      381.469   2.72739e-14
      381.570   2.68715e-14
      381.672   2.64710e-14
      381.774   2.60764e-14
      381.876   2.56877e-14
      381.977   2.53086e-14
      382.079   2.49314e-14
      382.181   2.45598e-14
      382.283   2.41939e-14
      382.385   2.38333e-14
      382.487   2.34778e-14
      382.589   2.31279e-14
      382.691   2.27831e-14
      382.793   2.24435e-14
      382.895   2.21090e-14
      382.997   2.17793e-14
      383.099   2.14546e-14
      383.201   2.11348e-14
      383.303   2.08196e-14
      383.405   2.05092e-14
      383.507   2.02033e-14
      383.610   1.98992e-14
      383.712   1.96024e-14
      383.814   1.93103e-14
      383.916   1.90224e-14
      384.019   1.87359e-14
      384.121   1.84565e-14
      384.223   1.81812e-14
      384.326   1.79075e-14
      384.428   1.76403e-14
      384.531   1.73744e-14
      384.633   1.71151e-14
      384.736   1.68571e-14
      384.838   1.66053e-14
      384.941   1.63550e-14
      385.043   1.61107e-14
      385.146   1.58679e-14
      385.249   1.56287e-14
      385.351   1.53953e-14
      385.454   1.51631e-14
      385.557   1.49345e-14
      385.660   1.47093e-14
      385.762   1.44897e-14
      385.865   1.42712e-14
      385.968   1.40559e-14
      386.071   1.38438e-14
      386.174   1.36350e-14
      386.277   1.34294e-14
      386.380   1.32268e-14
      386.483   1.30272e-14
      386.586   1.28307e-14
      386.689   1.26371e-14
      386.792   1.24464e-14
      386.895   1.22586e-14
      386.998   1.20736e-14
      387.101   1.18914e-14
      387.204   1.17118e-14
      387.308   1.15333e-14
      387.411   1.13592e-14
      387.514   1.11876e-14
      387.617   1.10187e-14
      387.721   1.08508e-14
      387.824   1.06869e-14
      387.927   1.05253e-14
      388.031   1.03648e-14
      388.134   1.02082e-14
      388.238   1.00526e-14
      388.341   9.90062e-15
      388.445   9.74955e-15
      388.548   9.60209e-15
      388.652   9.45557e-15
      388.755   9.31264e-15
      388.859   9.17045e-15
      388.962   9.03177e-15
      389.066   8.89379e-15
      389.170   8.75804e-15
      389.274   8.62424e-15
      389.377   8.49372e-15
      389.481   8.36385e-15
      389.585   8.23606e-15
      389.689   8.11016e-15
      389.793   7.98611e-15
      389.897   7.86405e-15
      390.000   7.74489e-15
      390.104   7.62646e-15
      390.208   7.50973e-15
      390.312   7.39482e-15
      390.416   7.28160e-15
      390.520   7.16998e-15
      390.625   7.05897e-15
      390.729   6.95081e-15
      390.833   6.84420e-15
      390.937   6.73922e-15
      391.041   6.63586e-15
      391.145   6.53406e-15
      391.250   6.43280e-15
      391.354   6.33407e-15
      391.458   6.23683e-15
      391.563   6.14010e-15
      391.667   6.04579e-15
      391.771   5.95292e-15
      391.876   5.86052e-15
      391.980   5.77041e-15
      392.085   5.68081e-15
      392.189   5.59344e-15
      392.294   5.50654e-15
      392.398   5.42181e-15
      392.503   5.33754e-15
      392.607   5.25534e-15
      392.712   5.17364e-15
      392.817   5.09313e-15
      392.921   5.01466e-15
      393.026   4.93659e-15
      393.131   4.85976e-15
      393.236   4.78402e-15
      393.340   4.71020e-15
      393.445   4.63683e-15
      393.550   4.56454e-15
      393.655   4.49335e-15
      393.760   4.42326e-15
      393.865   4.35422e-15
      393.970   4.28630e-15
      394.075   4.21933e-15
      394.180   4.15345e-15
      394.285   4.08855e-15
      394.390   4.02465e-15
      394.495   3.96169e-15
      394.600   3.89972e-15
      394.706   3.83813e-15
      394.811   3.77807e-15
      394.916   3.71886e-15
      395.021   3.66059e-15
      395.126   3.60326e-15
      395.232   3.54620e-15
      395.337   3.49057e-15
      395.443   3.43530e-15
      395.548   3.38137e-15
      395.653   3.32828e-15
      395.759   3.27548e-15
      395.864   3.22402e-15
      395.970   3.17285e-15
      396.075   3.12295e-15
      396.181   3.07333e-15
      396.286   3.02492e-15
      396.392   2.97686e-15
      396.498   2.92952e-15
      396.603   2.88331e-15
      396.709   2.83742e-15
      396.815   2.79221e-15
      396.921   2.74770e-15
      397.026   2.70433e-15
      397.132   2.66119e-15
      397.238   2.61875e-15
      397.344   2.57692e-15
      397.450   2.53581e-15
      397.556   2.49527e-15
      397.662   2.45538e-15
      397.768   2.41613e-15
      397.874   2.37747e-15
      397.980   2.33941e-15
      398.086   2.30193e-15
      398.192   2.26506e-15
      398.298   2.22875e-15
      398.404   2.19300e-15
      398.510   2.15780e-15
      398.617   2.12286e-15
      398.723   2.08875e-15
      398.829   2.05517e-15
      398.935   2.02212e-15
      399.042   1.98929e-15
      399.148   1.95725e-15
      399.255   1.92545e-15
      399.361   1.89443e-15
      399.467   1.86386e-15
      399.574   1.83353e-15
      399.680   1.80393e-15
      399.787   1.77453e-15
      399.893       0.00000
      400.000       0.00000
